Data from 3_57 pm cloudy_Subt2__3__15-59-37-631.txt Node

Date: Tue Oct 07 15:59:37 EDT 2025
User: brett
Spectrometer: USB4F03499
Trigger mode: 4
Integration Time (sec): 1.000000E-2
Scans to average: 1
Electric dark correction enabled: true
Nonlinearity correction enabled: true
Boxcar width: 0
XAxis mode: Wavelengths
Number of Pixels in Spectrum: 3648
>>>>>Begin Spectral Data<<<<<
345.386	8.37503
345.605	8.37503
345.824	8.37503
346.044	9.60852
346.263	-6.95907
346.482	25.14649
346.701	-27.66599
346.92	22.1408
347.139	-8.30283
347.358	-2.14467
347.577	-9.4243
347.796	-22.85918
348.015	10.05097
348.234	6.91889
348.453	20.01673
348.672	-11.54558
348.891	-2.36908
349.11	-12.43973
349.329	130.08826
349.548	210.18225
349.767	224.3587
349.986	233.13973
350.205	197.93394
350.424	228.56741
350.643	252.22116
350.862	240.98961
351.08	214.1149
351.299	224.03982
351.518	213.73952
351.737	250.64466
351.956	235.01391
352.174	180.29692
352.393	212.19671
352.612	203.03106
352.831	219.27801
353.049	207.24649
353.268	232.88089
353.487	218.6148
353.705	243.51851
353.924	239.65545
354.143	247.77246
354.361	245.73858
354.58	265.7643
354.798	235.20504
355.017	250.69096
355.236	229.63512
355.454	195.81552
355.673	252.85494
355.891	220.64571
356.11	213.41982
356.328	318.15067
356.547	243.95706
356.765	228.7398
356.984	264.4512
357.202	279.65285
357.42	262.6765
357.639	226.24392
357.857	271.86839
358.076	283.65769
358.294	281.20623
358.512	235.80004
358.731	331.3004
358.949	284.59544
359.167	261.33313
359.386	293.30814
359.604	228.51598
359.822	271.15661
360.04	281.88143
360.259	332.75459
360.477	256.30564
360.695	259.83902
360.913	284.15831
361.131	237.74899
361.35	291.135
361.568	305.41833
361.786	278.66365
362.004	250.88664
362.222	315.95923
362.44	278.07303
362.658	261.48858
362.876	284.97942
363.094	291.26124
363.312	267.98226
363.53	302.63099
363.749	298.12085
363.967	273.07891
364.184	292.59311
364.402	288.44877
364.62	314.53427
364.838	286.99383
365.056	253.80534
365.274	285.5762
365.492	306.74798
365.71	293.86772
365.928	255.86469
366.146	291.20711
366.364	327.72198
366.581	316.73705
366.799	332.99153
367.017	311.04256
367.235	297.97563
367.453	360.20418
367.67	353.65369
367.888	294.70822
368.106	410.95339
368.323	367.37488
368.541	359.00533
368.759	350.9938
368.977	342.78938
369.194	370.2567
369.412	373.38807
369.629	376.71905
369.847	388.74696
370.065	379.29306
370.282	419.61211
370.5	432.98268
370.717	396.18672
370.935	367.17477
371.152	398.858
371.37	389.18306
371.588	415.24775
371.805	422.82364
372.022	385.27999
372.24	453.46127
372.457	424.39366
372.675	411.81855
372.892	424.34981
373.11	442.5095
373.327	466.57977
373.544	434.77298
373.762	408.79666
373.979	438.70511
374.196	468.90527
374.414	419.46937
374.631	478.10818
374.848	481.41343
375.066	444.25117
375.283	444.5238
375.5	482.36795
375.717	451.18951
375.935	438.96176
376.152	483.81706
376.369	433.57392
376.586	479.32189
376.803	484.61222
377.02	483.18138
377.238	482.52135
377.455	510.38003
377.672	464.14426
377.889	443.948
378.106	458.85702
378.323	477.73032
378.54	498.03135
378.757	487.68712
378.974	450.62635
379.191	499.29863
379.408	494.38544
379.625	467.80325
379.842	488.51631
380.059	484.02911
380.276	486.4382
380.493	481.78442
380.71	520.80526
380.927	463.57455
381.143	468.26957
381.36	547.24263
381.577	490.01979
381.794	545.03695
382.011	495.56608
382.228	504.3919
382.444	519.87528
382.661	512.89876
382.878	525.07424
383.095	549.73739
383.311	488.29778
383.528	566.85329
383.745	516.62851
383.962	552.49555
384.178	557.49399
384.395	545.37944
384.612	572.79384
384.828	534.89402
385.045	548.61081
385.261	579.09747
385.478	547.91423
385.695	538.25048
385.911	558.30679
386.128	544.97127
386.344	522.78357
386.561	580.3214
386.777	571.71602
386.994	565.64268
387.21	561.63477
387.427	534.34799
387.643	501.07102
387.86	555.58936
388.076	524.291
388.292	594.63954
388.509	530.92806
388.725	564.72692
388.942	582.03594
389.158	577.0547
389.374	530.07496
389.591	545.27438
389.807	576.07616
390.023	524.83641
390.239	617.80038
390.456	589.90643
390.672	628.30138
390.888	582.60228
391.104	575.70699
391.321	566.48764
391.537	610.21069
391.753	583.48321
391.969	651.33599
392.185	626.88811
392.401	662.88054
392.618	633.17346
392.834	611.04003
393.05	661.27948
393.266	634.62796
393.482	698.85016
393.698	685.51083
393.914	670.40416
394.13	625.29884
394.346	685.73832
394.562	640.40074
394.778	634.58245
394.994	713.01594
395.21	646.89174
395.426	766.37511
395.642	695.41798
395.858	734.51825
396.073	708.18759
396.289	760.93279
396.505	759.67218
396.721	785.26762
396.937	790.30231
397.153	730.36156
397.369	802.16209
397.584	853.38409
397.8	787.58807
398.016	774.66336
398.232	825.17417
398.447	848.72186
398.663	834.54112
398.879	814.55309
399.094	842.40993
399.31	829.5585
399.526	799.08642
399.741	798.10745
399.957	818.60781
400.173	824.36597
400.388	876.1246
400.604	880.67143
400.82	887.42476
401.035	964.56316
401.251	902.49462
401.466	950.632
401.682	996.91229
401.897	943.54699
402.113	1007.73978
402.328	1059.87009
402.544	1026.49303
402.759	1109.06568
402.974	1092.81422
403.19	1088.52483
403.405	1167.821
403.621	1177.79068
403.836	1240.61912
404.051	1238.254
404.267	1323.87381
404.482	1202.54109
404.697	1280.01541
404.913	1309.44437
405.128	1349.64189
405.343	1358.5472
405.559	1359.01864
405.774	1403.2799
405.989	1514.11318
406.204	1496.14162
406.42	1577.4269
406.635	1570.39759
406.85	1504.62397
407.065	1568.67571
407.28	1646.02859
407.495	1647.32975
407.71	1612.6344
407.926	1677.76289
408.141	1794.88793
408.356	1768.14748
408.571	1780.168
408.786	1774.30607
409.001	1794.54987
409.216	1805.9441
409.431	1822.22161
409.646	1888.84671
409.861	1863.14664
410.076	1927.5034
410.291	1954.79147
410.506	1964.0276
410.721	1884.93849
410.936	1908.77553
411.15	1973.30644
411.365	1976.85999
411.58	1922.68253
411.795	1925.78147
412.01	2088.63041
412.225	2012.33885
412.439	1993.44992
412.654	2019.36986
412.869	1993.48767
413.084	2048.44686
413.299	2061.12925
413.513	2034.72002
413.728	2132.94725
413.943	2155.36977
414.157	2145.73104
414.372	2230.02568
414.587	2189.22495
414.801	2294.02573
415.016	2258.70332
415.231	2171.32854
415.445	2242.73565
415.66	2247.37992
415.874	2285.52181
416.089	2198.28667
416.304	2382.62904
416.518	2379.20755
416.733	2416.05537
416.947	2372.89766
417.162	2393.97335
417.376	2515.00941
417.59	2568.28214
417.805	2570.41336
418.019	2438.57301
418.234	2465.53196
418.448	2480.51202
418.663	2461.49811
418.877	2539.86526
419.091	2502.44111
419.306	2545.46193
419.52	2531.28478
419.734	2574.58575
419.949	2578.94807
420.163	2705.02109
420.377	2494.10986
420.591	2632.13292
420.806	2691.7028
421.02	2570.03921
421.234	2659.54687
421.448	2732.85165
421.663	2673.46201
421.877	2751.41993
422.091	2717.09767
422.305	2665.18466
422.519	2763.19114
422.733	2836.92988
422.947	2707.69203
423.161	2653.26584
423.376	2724.40353
423.59	2759.99818
423.804	2727.0219
424.018	2790.54482
424.232	2766.44214
424.446	2791.40945
424.66	2703.30355
424.874	2741.64769
425.088	2731.29652
425.302	2755.75931
425.515	2862.93381
425.729	2884.52501
425.943	2888.7968
426.157	2935.30475
426.371	2831.01752
426.585	2855.38191
426.799	2939.66837
427.013	3018.98999
427.226	3058.74752
427.44	2944.62515
427.654	2947.71907
427.868	2891.00204
428.081	2961.10382
428.295	2957.04578
428.509	2898.60438
428.723	2906.01862
428.936	2903.81554
429.15	2859.58434
429.364	2946.34693
429.577	2829.21606
429.791	2908.08411
430.005	3061.10531
430.218	2916.41725
430.432	2823.11003
430.645	2831.45441
430.859	2901.24696
431.073	2961.1943
431.286	3033.16875
431.5	3061.91578
431.713	2883.2006
431.927	2894.03259
432.14	2939.93362
432.354	2907.74845
432.567	2886.86369
432.781	3026.93067
432.994	3031.10096
433.207	3159.5818
433.421	3069.1735
433.634	3056.47954
433.848	3086.40816
434.061	3036.19588
434.274	2858.33431
434.488	2928.20158
434.701	2851.92588
434.914	2981.87707
435.127	3092.02931
435.341	3115.46148
435.554	2973.57111
435.767	3185.912
435.98	3185.83485
436.194	3117.56525
436.407	3115.83096
436.62	3323.78262
436.833	3239.82902
437.046	3182.0058
437.259	3139.22878
437.473	3234.51145
437.686	3295.41583
437.899	3181.3095
438.112	3318.76923
438.325	3242.74566
438.538	3266.94504
438.751	3455.33954
438.964	3404.22863
439.177	3352.9114
439.39	3394.28902
439.603	3554.25861
439.816	3428.95795
440.029	3622.42918
440.242	3687.68912
440.455	3823.16535
440.668	3705.19742
440.881	3601.35541
441.094	3573.32035
441.306	3782.86992
441.519	3957.55131
441.732	3944.13644
441.945	3944.79523
442.158	3803.33669
442.37	3693.04469
442.583	4036.45039
442.796	4122.99319
443.009	4130.09008
443.222	3827.23684
443.434	3839.60434
443.647	4127.83452
443.86	4244.67097
444.072	4317.41932
444.285	4206.43657
444.498	4262.6051
444.71	4188.16141
444.923	4231.54577
445.136	4123.0258
445.348	4142.10007
445.561	4146.77101
445.773	4096.36368
445.986	3947.38197
446.198	4296.50038
446.411	4355.84067
446.623	4418.69545
446.836	4449.72649
447.048	4393.56011
447.261	4556.96955
447.473	4457.31737
447.686	4445.39627
447.898	4460.14993
448.11	4734.64594
448.323	4788.71086
448.535	4630.34977
448.748	4462.76429
448.96	4443.72257
449.172	4460.14426
449.385	4311.80217
449.597	4635.92058
449.809	4675.63789
450.021	4728.12627
450.234	4731.38065
450.446	4582.78323
450.658	4513.10072
450.87	4638.82941
451.083	4755.637
451.295	4763.55926
451.507	4732.8443
451.719	4688.39651
451.931	4804.92385
452.143	4809.63357
452.356	4672.61084
452.568	4915.80559
452.78	4824.09004
452.992	4878.86075
453.204	5066.90403
453.416	4885.24554
453.628	4767.60431
453.84	4855.11991
454.052	4830.24474
454.264	5049.12493
454.476	5032.02608
454.688	5271.40319
454.9	5270.08797
455.112	4979.69169
455.324	4893.41766
455.536	4923.30315
455.747	5247.5721
455.959	5120.1809
456.171	5175.12409
456.383	5039.54124
456.595	4958.66187
456.807	4988.19195
457.018	4979.13309
457.23	5177.46405
457.442	5057.61574
457.654	5171.90424
457.865	5223.01246
458.077	5013.57679
458.289	5027.11387
458.501	5068.78207
458.712	5387.22469
458.924	5521.5288
459.136	5244.51173
459.347	5153.24308
459.559	5231.13033
459.77	5441.23576
459.982	5586.59838
460.194	5539.98311
460.405	5268.04324
460.617	5288.83692
460.828	5466.3872
461.04	5485.20809
461.251	5412.06348
461.463	5874.40583
461.674	5689.35956
461.886	5598.84538
462.097	5491.7668
462.309	5657.35244
462.52	5453.71846
462.731	5864.34699
462.943	5501.70264
463.154	5405.28948
463.366	5489.90289
463.577	5733.03735
463.788	5814.22634
464	5883.64628
464.211	5858.77631
464.422	6126.33268
464.634	6088.88272
464.845	6005.883
465.056	6149.02922
465.267	6153.63212
465.478	5818.22212
465.69	6154.46282
465.901	6064.28486
466.112	6127.23894
466.323	6240.33657
466.534	6333.69141
466.745	6324.59837
466.957	6368.7932
467.168	6364.1332
467.379	6257.75607
467.59	6120.82753
467.801	6006.40355
468.012	6339.50196
468.223	6377.98346
468.434	6209.54238
468.645	6584.3345
468.856	6846.0552
469.067	6575.28005
469.278	6636.62284
469.489	6672.06922
469.7	6442.31401
469.911	6411.60693
470.122	6953.15811
470.333	6992.49643
470.543	6666.62921
470.754	6877.50609
470.965	6882.68924
471.176	6909.043
471.387	7195.98559
471.598	6957.21942
471.808	6909.29826
472.019	7195.25275
472.23	7035.72716
472.441	6990.34132
472.651	7093.84095
472.862	7046.19773
473.073	7387.77083
473.283	7203.56726
473.494	7122.92434
473.705	7153.48587
473.915	7092.05514
474.126	7477.40388
474.337	7383.65435
474.547	7602.9736
474.758	7747.8143
474.968	7567.30961
475.179	7724.81129
475.389	7609.50412
475.6	7698.4419
475.81	7858.28563
476.021	7963.12528
476.231	8149.16725
476.442	8009.06094
476.652	7785.71424
476.863	7936.41907
477.073	7875.78975
477.284	8075.40241
477.494	8144.28363
477.704	8472.97063
477.915	8692.69202
478.125	8228.85868
478.335	8464.38016
478.546	8731.35011
478.756	8586.89605
478.966	8870.2244
479.177	8828.82297
479.387	9034.66671
479.597	8914.17068
479.807	9010.60585
480.018	8976.87415
480.228	9174.608
480.438	9178.33118
480.648	9356.53285
480.858	9288.85622
481.068	9087.39698
481.279	9428.18386
481.489	9795.19733
481.699	9822.72752
481.909	9676.29812
482.119	10210.56539
482.329	10225.1496
482.539	10171.33139
482.749	9964.16132
482.959	10325.39023
483.169	10534.44217
483.379	10551.4267
483.589	10479.98894
483.799	10565.52542
484.009	10420.03104
484.219	10655.41668
484.429	10804.5629
484.639	10571.47393
484.849	10740.34558
485.059	11108.08711
485.268	11270.16323
485.478	11114.62297
485.688	10878.25173
485.898	11089.32813
486.108	11297.18607
486.317	11500.05137
486.527	11540.30122
486.737	11696.37474
486.947	11678.07542
487.156	11871.687
487.366	11805.23793
487.576	11577.19788
487.785	11611.91709
487.995	11505.40612
488.205	11933.13185
488.414	12001.59162
488.624	12011.71205
488.834	11944.57053
489.043	11895.68253
489.253	11783.14078
489.462	12041.03422
489.672	12316.10584
489.882	12273.1128
490.091	12384.64833
490.301	12338.85415
490.51	12461.51352
490.72	12502.95951
490.929	12524.10124
491.138	12915.78387
491.348	12755.60425
491.557	12611.48776
491.767	12948.57121
491.976	12946.3112
492.185	12759.31628
492.395	12723.91885
492.604	13097.2548
492.813	12888.72717
493.023	13218.04391
493.232	13056.15917
493.441	13006.2914
493.651	13360.88248
493.86	12964.84135
494.069	13408.66528
494.278	13271.81773
494.488	13464.88931
494.697	13392.42804
494.906	13528.88747
495.115	13623.21724
495.324	13559.16319
495.533	13630.58465
495.743	13850.27586
495.952	13963.8531
496.161	14015.57884
496.37	13985.46458
496.579	14202.84085
496.788	14128.39149
496.997	14495.57919
497.206	14273.59756
497.415	14332.47027
497.624	14344.75297
497.833	14525.32206
498.042	14547.75811
498.251	14847.59744
498.46	14794.4918
498.669	14856.21493
498.878	14838.05519
499.087	14793.33277
499.296	15171.72739
499.504	15117.40289
499.713	15142.22104
499.922	15235.20967
500.131	15298.15743
500.34	15297.77684
500.549	15366.0938
500.757	15196.34923
500.966	15244.06341
501.175	15386.76079
501.384	15615.06319
501.592	15473.53605
501.801	15549.60063
502.01	15668.78458
502.218	15570.56637
502.427	15691.84908
502.636	15542.23905
502.844	15624.85351
503.053	15403.97447
503.262	15576.57203
503.47	15768.45029
503.679	15813.22594
503.887	15782.08912
504.096	15726.46371
504.304	15657.52961
504.513	15846.79634
504.721	15704.93441
504.93	15653.60698
505.138	15967.96484
505.347	15794.07386
505.555	15923.22299
505.764	16058.26946
505.972	15841.76681
506.18	15688.55613
506.389	15840.5549
506.597	15845.01304
506.806	16072.21772
507.014	16046.09038
507.222	15899.6298
507.431	15878.21784
507.639	15899.24533
507.847	15970.38892
508.055	15971.78496
508.264	16033.48622
508.472	16193.78897
508.68	16063.11615
508.888	16181.0132
509.096	16340.31801
509.305	16276.91728
509.513	16191.19643
509.721	16161.9908
509.929	16191.36449
510.137	16115.23699
510.345	16227.19241
510.553	16113.8942
510.762	16343.35883
510.97	16015.4736
511.178	16416.76363
511.386	16572.24941
511.594	16227.75154
511.802	16511.70475
512.01	16447.07893
512.218	16674.76541
512.426	16616.82432
512.634	16542.00507
512.842	16737.02157
513.049	16677.7871
513.257	16773.72697
513.465	16840.80604
513.673	16686.59307
513.881	16870.4246
514.089	16603.05694
514.297	16794.0729
514.504	16961.79721
514.712	16993.93195
514.92	17090.33857
515.128	17494.58651
515.336	17100.42722
515.543	17277.34744
515.751	17299.20707
515.959	17014.67017
516.166	17020.05822
516.374	17058.74799
516.582	17255.55982
516.789	17065.87953
516.997	17230.2312
517.205	16962.63398
517.412	17097.51171
517.62	17155.83037
517.827	17359.92669
518.035	17225.85311
518.243	16955.59674
518.45	17058.45219
518.658	17048.50428
518.865	16903.08789
519.073	17009.63632
519.28	16972.43851
519.488	17048.39237
519.695	16815.70999
519.902	16942.3941
520.11	16736.7738
520.317	17090.35647
520.525	16975.65765
520.732	16763.32024
520.939	17027.18057
521.147	16657.2665
521.354	16919.08238
521.561	16769.80247
521.769	16813.52049
521.976	16717.37417
522.183	17082.98248
522.391	16714.17892
522.598	17174.10707
522.805	16833.47449
523.012	16914.51619
523.219	16951.77424
523.427	17052.306
523.634	17025.86512
523.841	17090.93882
524.048	16849.34963
524.255	17163.70998
524.462	17127.50399
524.669	17006.04956
524.877	17036.67853
525.084	17020.5297
525.291	17045.55383
525.498	17050.09417
525.705	17320.80914
525.912	17317.59175
526.119	17205.47334
526.326	17210.74989
526.533	17213.10673
526.74	17460.03852
526.947	17416.60225
527.153	17607.08974
527.36	17607.55448
527.567	17455.00108
527.774	17520.01497
527.981	17575.95186
528.188	17507.17289
528.395	17764.2487
528.602	17566.3535
528.808	17613.81481
529.015	17644.65454
529.222	17656.33408
529.429	17720.55271
529.635	17722.52409
529.842	17872.83887
530.049	17741.55261
530.256	17744.72055
530.462	17780.62515
530.669	17652.47658
530.876	17963.50885
531.082	17727.44965
531.289	17909.84993
531.495	17853.53671
531.702	18087.59818
531.909	17980.66936
532.115	18111.45738
532.322	17996.52903
532.528	18128.90511
532.735	18019.14423
532.941	18064.33561
533.148	18169.16636
533.354	18264.47721
533.561	18159.21432
533.767	18117.44232
533.974	18154.62694
534.18	18208.3461
534.387	18097.0623
534.593	18234.25257
534.799	18085.14769
535.006	18248.24512
535.212	18158.46406
535.418	18125.54626
535.625	18281.70081
535.831	18339.88295
536.037	18122.74766
536.244	18180.45764
536.45	17830.83391
536.656	18156.8851
536.862	18214.11575
537.068	18198.88759
537.275	18189.24406
537.481	18253.48163
537.687	18562.10513
537.893	18412.14464
538.099	18543.41955
538.305	18174.30118
538.512	18319.71615
538.718	18438.45144
538.924	18334.24145
539.13	18238.70772
539.336	18541.74315
539.542	18346.33644
539.748	18568.25716
539.954	18293.12816
540.16	18579.68872
540.366	18423.42807
540.572	18501.8503
540.778	18480.48221
540.984	18430.17093
541.19	18383.06558
541.396	18367.3048
541.602	18348.25655
541.807	18386.97576
542.013	18469.05929
542.219	18158.09567
542.425	18209.08407
542.631	18284.75496
542.837	18152.07304
543.042	18309.26957
543.248	18173.53005
543.454	18107.89649
543.66	18210.75844
543.865	18067.38543
544.071	18367.03492
544.277	18043.11644
544.483	18219.32604
544.688	18109.89404
544.894	18230.47568
545.1	18134.16424
545.305	18158.38529
545.511	18130.01152
545.716	18073.2301
545.922	18051.53062
546.128	17966.06642
546.333	18105.40554
546.539	18193.93945
546.744	18050.41455
546.95	18138.12644
547.155	18055.47881
547.361	18140.61737
547.566	17958.33426
547.772	17940.65286
547.977	18013.3078
548.182	17974.4544
548.388	18146.9425
548.593	18170.56271
548.799	17966.99915
549.004	18004.91566
549.209	18015.32212
549.415	18248.18318
549.62	18089.6986
549.825	18232.56886
550.031	17724.26603
550.236	18045.87683
550.441	18228.21368
550.646	18056.08782
550.852	18405.09707
551.057	18108.96602
551.262	18305.07917
551.467	18134.54998
551.672	18237.30282
551.878	18362.58415
552.083	18225.15141
552.288	18185.44451
552.493	18010.20793
552.698	18170.77576
552.903	18033.96704
553.108	18328.61638
553.313	18118.58946
553.518	18157.10894
553.723	18221.34951
553.928	18424.72902
554.133	18189.60337
554.338	18148.55394
554.543	18294.96243
554.748	18189.77785
554.953	18391.03454
555.158	18354.42489
555.363	18243.52849
555.568	18224.82211
555.773	18361.73926
555.978	18526.5742
556.182	18324.0476
556.387	18200.61196
556.592	18274.86463
556.797	18538.35337
557.002	18312.67278
557.206	18320.58192
557.411	18465.01094
557.616	18226.61295
557.821	18619.59683
558.025	18441.05864
558.23	18452.33959
558.435	18315.4377
558.64	18322.2081
558.844	18288.92506
559.049	18500.55633
559.253	18534.93498
559.458	18345.40007
559.663	18342.68071
559.867	18418.85607
560.072	18518.72642
560.276	18326.58861
560.481	18289.52252
560.685	18447.71884
560.89	18340.04423
561.094	18158.42855
561.299	18250.6378
561.503	18008.89847
561.708	18309.04109
561.912	18186.15487
562.117	18032.34998
562.321	18270.37203
562.525	18130.63817
562.73	18040.84551
562.934	18201.83073
563.139	17994.904
563.343	18339.79144
563.547	18001.24427
563.752	18115.00471
563.956	18000.59446
564.16	18200.48361
564.364	17950.73912
564.569	18050.76044
564.773	18007.92474
564.977	18011.26526
565.181	17975.37838
565.385	17941.56839
565.59	17937.2267
565.794	18012.09849
565.998	18174.31793
566.202	17963.66466
566.406	18212.62778
566.61	17973.1547
566.814	17827.21891
567.018	17851.90439
567.222	17850.93486
567.426	17857.21819
567.63	17966.03719
567.834	17792.44892
568.038	17798.4182
568.242	17743.33439
568.446	17775.01983
568.65	17744.78557
568.854	17709.64419
569.058	17827.94884
569.262	17818.51367
569.466	17834.06266
569.67	17881.61341
569.874	17744.89295
570.078	17767.555
570.281	17661.1634
570.485	17590.08713
570.689	17820.29861
570.893	17556.18653
571.097	17622.14696
571.3	17440.03128
571.504	17624.3948
571.708	17447.20987
571.912	17443.302
572.115	17341.19828
572.319	17364.33344
572.523	17376.73529
572.726	17340.50264
572.93	17300.61967
573.133	17496.89435
573.337	17200.6598
573.541	17256.54947
573.744	17289.52509
573.948	17298.93455
574.151	17185.43297
574.355	17276.48995
574.558	17277.85683
574.762	17273.78621
574.965	17181.86976
575.169	17304.8967
575.372	17130.20676
575.576	17263.88954
575.779	17175.43705
575.983	17136.52695
576.186	16990.12984
576.389	17148.60252
576.593	17012.87336
576.796	17040.04713
577	16901.17885
577.203	17227.01383
577.406	17018.87198
577.609	16833.45197
577.813	17025.53626
578.016	16877.7392
578.219	17005.19962
578.423	16792.10917
578.626	16727.5025
578.829	16719.43871
579.032	16844.72295
579.235	17033.23314
579.438	16947.16329
579.642	16659.68584
579.845	16786.26473
580.048	16587.75728
580.251	16746.14722
580.454	16886.42768
580.657	16705.42547
580.86	16813.92816
581.063	16710.32667
581.266	16839.61097
581.469	16734.24219
581.672	16560.5911
581.875	16731.44076
582.078	16522.9165
582.281	16518.68118
582.484	16733.40091
582.687	16847.52462
582.89	16851.32972
583.093	16632.08799
583.296	16707.34619
583.499	16907.06731
583.702	16590.06809
583.904	16464.61922
584.107	16761.24064
584.31	16761.81275
584.513	16705.23796
584.716	16739.69345
584.918	16650.6936
585.121	16811.38725
585.324	16626.54524
585.527	16749.05671
585.729	16803.77331
585.932	16794.24846
586.135	16756.68589
586.337	16684.5256
586.54	16752.2059
586.743	16455.9658
586.945	16712.8942
587.148	16496.05076
587.35	16755.30428
587.553	16673.51356
587.755	16692.16454
587.958	16699.79069
588.161	16653.78067
588.363	16628.806
588.566	16612.64366
588.768	16636.3278
588.971	16637.79795
589.173	16629.29309
589.375	16516.76083
589.578	16222.24948
589.78	16492.71385
589.983	16364.84752
590.185	16505.34829
590.387	16373.61649
590.59	16249.89064
590.792	16271.28441
590.994	16051.08807
591.197	16040.85428
591.399	15764.15554
591.601	15826.84989
591.803	15690.89921
592.006	15647.27631
592.208	15567.5351
592.41	15520.74762
592.612	15483.68448
592.815	15477.02839
593.017	15308.2306
593.219	15178.84839
593.421	15161.4723
593.623	15193.47945
593.825	15179.05419
594.027	14890.85964
594.229	15107.43571
594.432	14885.33313
594.634	14843.69245
594.836	14915.67349
595.038	14911.76617
595.24	14827.14848
595.442	14846.13247
595.644	14596.90346
595.846	14567.20285
596.048	14750.41306
596.249	14559.4345
596.451	14665.57687
596.653	14513.23726
596.855	14480.7828
597.057	14363.62513
597.259	14352.82629
597.461	14289.14638
597.663	14347.31927
597.864	14167.64214
598.066	14455.14394
598.268	14203.73622
598.47	14242.65822
598.671	14247.14754
598.873	14253.74129
599.075	14267.82887
599.277	14502.23954
599.478	14390.49221
599.68	14226.75242
599.882	14394.37589
600.083	14419.56436
600.285	14244.67013
600.487	14216.75119
600.688	14361.2809
600.89	14364.5413
601.091	14329.5667
601.293	14388.75134
601.494	14397.25633
601.696	14475.68445
601.898	14462.9716
602.099	14551.15715
602.301	14481.05785
602.502	14711.67001
602.703	14532.25276
602.905	14708.08007
603.106	14770.35145
603.308	14545.89701
603.509	14882.39294
603.711	14591.06582
603.912	14844.09944
604.113	14796.15
604.315	14627.24162
604.516	14823.8012
604.717	14775.49193
604.919	14907.54362
605.12	14881.78236
605.321	14886.2895
605.522	14917.36224
605.724	14755.31581
605.925	14831.73661
606.126	15124.12599
606.327	15070.44677
606.528	15087.55165
606.729	14977.29382
606.931	15184.23449
607.132	15221.38412
607.333	15139.27292
607.534	15192.96765
607.735	15247.3934
607.936	15131.29604
608.137	15135.50189
608.338	15166.79117
608.539	15241.38543
608.74	15232.10954
608.941	15180.34896
609.142	15412.32943
609.343	15517.0208
609.544	15425.94131
609.745	15347.89343
609.946	15428.4915
610.147	15268.64775
610.348	15318.70884
610.549	15311.64548
610.75	15357.72643
610.95	15223.78302
611.151	15405.17389
611.352	15438.95986
611.553	15415.32617
611.754	15217.14864
611.954	15499.64666
612.155	15138.46983
612.356	15353.13281
612.557	15405.94269
612.757	15491.61896
612.958	15341.85496
613.159	15418.8201
613.359	15290.66077
613.56	15336.97775
613.761	15318.68453
613.961	15243.33214
614.162	15316.22722
614.362	15259.50517
614.563	15367.7854
614.764	15162.77037
614.964	15159.13714
615.165	15240.04222
615.365	15330.34148
615.566	15138.52666
615.766	15113.98989
615.967	15343.20427
616.167	14935.88042
616.368	15063.82923
616.568	15228.59446
616.768	15114.85659
616.969	15220.43973
617.169	15126.72284
617.37	15064.33297
617.57	15017.64939
617.77	15006.89372
617.971	15046.29617
618.171	14966.62929
618.371	15056.37975
618.571	14843.79285
618.772	15063.28086
618.972	15019.74887
619.172	15012.33754
619.372	14781.85697
619.573	14967.89143
619.773	14896.88142
619.973	14825.3986
620.173	14689.82668
620.373	14736.73131
620.573	14830.14027
620.774	14803.08002
620.974	14781.91852
621.174	14675.507
621.374	14666.10592
621.574	14810.27397
621.774	14665.9532
621.974	14661.22557
622.174	14685.92107
622.374	14821.59385
622.574	14787.19917
622.774	14822.70246
622.974	14711.35093
623.174	14808.92769
623.374	14653.26935
623.574	14729.45713
623.774	14662.42417
623.973	14707.2546
624.173	14597.39126
624.373	14794.27848
624.573	14718.49135
624.773	14619.72434
624.973	14520.59291
625.172	14731.47133
625.372	14595.96566
625.572	14649.79061
625.772	14487.07401
625.971	14566.92049
626.171	14527.32497
626.371	14454.97887
626.57	14283.20807
626.77	14518.32372
626.97	14446.24569
627.169	14401.57335
627.369	14549.84302
627.569	14591.77507
627.768	14246.63548
627.968	14302.24191
628.167	14253.27264
628.367	14280.70867
628.566	14375.83813
628.766	14268.17701
628.965	14458.43612
629.165	14304.49987
629.364	14255.8888
629.564	14216.90727
629.763	14220.58381
629.963	14230.99033
630.162	14362.15037
630.362	14146.56611
630.561	14151.76822
630.76	13966.50988
630.96	14019.70392
631.159	14134.38274
631.358	14094.37272
631.558	13983.76856
631.757	13963.06248
631.956	14122.2149
632.155	13854.58601
632.355	13790.12041
632.554	13786.65246
632.753	13740.55137
632.952	13692.54068
633.152	13707.07386
633.351	13714.06299
633.55	13824.48921
633.749	13767.43484
633.948	13786.90144
634.147	13722.1672
634.346	13681.73907
634.545	13485.80397
634.744	13558.33366
634.944	13439.54657
635.143	13585.0727
635.342	13475.36718
635.541	13568.34832
635.74	13619.13462
635.939	13361.95432
636.138	13353.28966
636.336	13437.90552
636.535	13413.58693
636.734	13570.99873
636.933	13547.74064
637.132	13451.9447
637.331	13418.71667
637.53	13449.37082
637.729	13346.69241
637.928	13362.44907
638.126	13433.76031
638.325	13206.38312
638.524	13352.55171
638.723	13363.21299
638.921	13418.11107
639.12	13332.13348
639.319	13450.66991
639.518	13425.769
639.716	13251.18109
639.915	13388.24141
640.114	13459.06781
640.312	13446.72891
640.511	13586.54993
640.71	13449.52913
640.908	13438.08848
641.107	13554.31155
641.305	13236.89342
641.504	13394.24471
641.702	13294.3878
641.901	13252.07379
642.099	13342.07304
642.298	13193.01636
642.496	13357.74956
642.695	13247.1706
642.893	13227.20067
643.092	13270.60847
643.29	13183.19043
643.489	13300.43031
643.687	13398.60655
643.885	13192.70291
644.084	13391.13099
644.282	13341.51346
644.48	13345.54381
644.679	13159.01285
644.877	13234.0754
645.075	13320.26634
645.274	13184.80087
645.472	13081.78778
645.67	13111.29039
645.868	13104.84809
646.067	13195.07689
646.265	13206.00362
646.463	13072.83469
646.661	13064.3962
646.859	13218.47096
647.057	13138.77703
647.256	13086.53276
647.454	13071.22266
647.652	13009.89483
647.85	12981.29133
648.048	13038.23096
648.246	12961.66329
648.444	12852.74231
648.642	12919.54408
648.84	12769.11871
649.038	12605.75942
649.236	12663.0797
649.434	12619.33868
649.632	12569.82632
649.83	12611.1064
650.028	12376.05111
650.226	12446.33765
650.423	12563.40979
650.621	12440.09883
650.819	12358.85112
651.017	12247.06425
651.215	12389.87864
651.413	12253.65622
651.61	12115.38811
651.808	12139.25183
652.006	12274.41941
652.204	12151.99584
652.401	12063.95538
652.599	11982.46743
652.797	12045.73032
652.995	11975.02029
653.192	11735.48907
653.39	11978.11238
653.588	11950.6979
653.785	11791.85996
653.983	11835.47184
654.18	11775.06979
654.378	11770.79879
654.576	11738.88804
654.773	11750.68979
654.971	11807.33093
655.168	11836.26795
655.366	11687.17654
655.563	11423.74973
655.761	11715.88836
655.958	11642.26743
656.156	11472.22019
656.353	11666.0519
656.55	11542.83317
656.748	11653.00605
656.945	11448.54797
657.143	11444.12477
657.34	11371.95273
657.537	11381.94846
657.735	11467.19658
657.932	11300.12507
658.129	11256.41647
658.326	11310.42054
658.524	11329.6743
658.721	11227.23442
658.918	11076.53541
659.115	11051.29895
659.313	11077.97327
659.51	10931.17884
659.707	11042.71201
659.904	10956.21631
660.101	10858.52707
660.298	10999.7855
660.496	11018.34731
660.693	10901.5546
660.89	10932.91551
661.087	10944.80373
661.284	10920.98406
661.481	10946.37944
661.678	10972.2042
661.875	11077.06564
662.072	11038.66595
662.269	11213.12849
662.466	11006.00893
662.663	11071.03456
662.86	10912.95655
663.057	10952.96908
663.254	11080.69342
663.45	11139.1181
663.647	10931.74944
663.844	11019.04889
664.041	11122.66821
664.238	11053.50225
664.435	11068.69067
664.631	11056.65468
664.828	10945.43659
665.025	11008.67103
665.222	11024.76097
665.419	11011.85215
665.615	11137.30972
665.812	10996.83933
666.009	11261.52475
666.205	11149.00638
666.402	11131.09255
666.599	11290.69719
666.795	11163.67835
666.992	11094.35121
667.188	11112.02132
667.385	11112.11447
667.582	11460.31579
667.778	11246.68691
667.975	11209.5466
668.171	11122.90465
668.368	11311.72821
668.564	11242.65921
668.761	11392.26705
668.957	11269.75253
669.154	11232.91202
669.35	11238.14226
669.547	11272.53692
669.743	11503.58577
669.939	11534.60982
670.136	11357.36884
670.332	11346.49045
670.528	11368.54262
670.725	11271.1839
670.921	11337.52597
671.117	11317.77683
671.314	11252.3881
671.51	11247.96468
671.706	11327.86024
671.902	11309.44896
672.099	11403.88842
672.295	11313.75995
672.491	11290.68341
672.687	11294.47104
672.883	11224.12151
673.08	11234.82334
673.276	11291.19166
673.472	11160.75929
673.668	11187.40146
673.864	11311.03297
674.06	11139.43573
674.256	11173.36176
674.452	11033.36058
674.648	11103.59322
674.844	11012.24586
675.04	11298.42922
675.236	11108.62778
675.432	11153.97881
675.628	11179.58525
675.824	11054.16132
676.02	10911.46084
676.216	10973.02287
676.412	11033.44244
676.608	11043.2068
676.804	10952.26816
676.999	10893.04523
677.195	11006.99247
677.391	10894.88386
677.587	10949.3881
677.783	10922.47363
677.978	10996.0918
678.174	10891.15986
678.37	10987.74581
678.566	10942.86924
678.761	10905.68891
678.957	10820.59376
679.153	10791.01206
679.348	10896.40315
679.544	10874.37532
679.74	10895.02929
679.935	10789.28747
680.131	10852.6023
680.327	11003.35303
680.522	10650.42759
680.718	10824.26291
680.913	10845.97961
681.109	10695.48061
681.304	10755.21673
681.5	10839.87082
681.695	10630.71658
681.891	10743.39075
682.086	10726.34223
682.282	10719.7389
682.477	10640.25142
682.672	10609.47228
682.868	10664.44457
683.063	10578.19947
683.259	10686.35344
683.454	10545.35995
683.649	10506.15372
683.845	10622.85617
684.04	10707.69577
684.235	10629.14285
684.43	10572.04535
684.626	10608.5361
684.821	10453.79107
685.016	10417.96661
685.211	10475.23966
685.407	10465.18945
685.602	10557.00353
685.797	10424.97257
685.992	10383.4797
686.187	10387.23145
686.382	10513.33318
686.577	10293.40292
686.773	10406.52366
686.968	10372.89686
687.163	10386.75619
687.358	10318.49242
687.553	10399.87121
687.748	10331.36261
687.943	10328.01616
688.138	10270.6965
688.333	10292.86008
688.528	10123.59749
688.723	10267.62193
688.918	10043.15191
689.112	9943.48655
689.307	9944.47033
689.502	9883.21375
689.697	9862.86046
689.892	9811.06191
690.087	9577.86709
690.282	9780.14961
690.476	9644.38146
690.671	9604.16044
690.866	9719.70998
691.061	9461.40378
691.255	9535.51464
691.45	9337.63511
691.645	9410.27172
691.84	9220.23247
692.034	9286.97648
692.229	9274.74045
692.424	9343.66788
692.618	9166.68575
692.813	9018.43916
693.007	9008.56818
693.202	9054.69828
693.397	9027.41466
693.591	8949.6971
693.786	8891.17738
693.98	8781.11034
694.175	8895.0515
694.369	8775.06506
694.564	8851.52625
694.758	8685.62031
694.953	8852.17856
695.147	8771.59324
695.342	8681.90223
695.536	8591.78497
695.73	8537.66537
695.925	8505.01048
696.119	8477.91689
696.313	8399.61921
696.508	8314.50798
696.702	8345.03602
696.896	8325.48448
697.091	8337.98393
697.285	8292.10785
697.479	8229.03722
697.673	8272.87539
697.868	8324.31593
698.062	8360.33224
698.256	8113.62982
698.45	8166.01359
698.644	8151.83226
698.839	8254.58731
699.033	8165.14845
699.227	8175.30099
699.421	8189.47064
699.615	8244.12106
699.809	8225.71208
700.003	8249.31894
700.197	8286.36567
700.391	8301.14635
700.585	8026.29124
700.779	8261.36877
700.973	8263.54494
701.167	8309.66181
701.361	8262.24336
701.555	8314.46597
701.749	8198.31992
701.943	8367.68348
702.137	8274.09326
702.331	8231.79364
702.525	8267.20547
702.718	8315.45233
702.912	8187.84304
703.106	8241.60082
703.3	8166.23735
703.494	8284.93682
703.687	8151.50931
703.881	8190.25474
704.075	8086.35122
704.269	8225.88597
704.462	8276.5347
704.656	8258.53983
704.85	8159.38054
705.043	8126.6629
705.237	8085.77151
705.431	8237.68353
705.624	8126.64266
705.818	8148.39356
706.012	8297.55756
706.205	8199.73588
706.399	8102.04186
706.592	8223.67724
706.786	8248.13784
706.979	8174.01072
707.173	8290.41184
707.366	8313.03944
707.56	8282.41173
707.753	8243.77699
707.947	8180.92616
708.14	8157.6922
708.333	8242.92317
708.527	8268.99562
708.72	8173.05335
708.914	8367.56524
709.107	8197.04963
709.3	8216.94458
709.494	8148.3224
709.687	8189.10426
709.88	8436.9636
710.073	8325.68752
710.267	8212.55995
710.46	8306.13493
710.653	8351.06525
710.846	8259.6032
711.04	8306.38774
711.233	8344.52656
711.426	8342.44675
711.619	8311.96199
711.812	8231.25468
712.005	8422.64155
712.198	8408.36761
712.391	8387.15615
712.585	8344.04178
712.778	8454.79665
712.971	8412.57798
713.164	8431.12652
713.357	8524.11529
713.55	8457.0779
713.743	8494.30398
713.936	8395.16353
714.129	8429.91451
714.322	8489.66763
714.514	8439.08985
714.707	8483.16095
714.9	8600.11796
715.093	8621.32604
715.286	8467.59909
715.479	8519.41981
715.672	8571.06383
715.864	8490.60551
716.057	8457.94909
716.25	8576.27707
716.443	8695.29422
716.636	8625.1378
716.828	8697.35538
717.021	8479.50004
717.214	8551.75384
717.406	8619.98272
717.599	8565.83833
717.792	8593.38261
717.984	8444.39001
718.177	8420.69712
718.37	8423.34785
718.562	8366.64861
718.755	8263.48339
718.947	8232.65946
719.14	8243.60091
719.333	8136.7688
719.525	8261.81419
719.718	7946.47794
719.91	7878.79754
720.103	7904.52325
720.295	7749.77415
720.487	7684.90471
720.68	7584.07654
720.872	7510.56367
721.065	7333.03456
721.257	7303.9417
721.449	7245.81612
721.642	7178.4053
721.834	7089.23894
722.026	7069.64898
722.219	6849.01539
722.411	6802.0245
722.603	6842.3921
722.796	6726.65066
722.988	6675.40071
723.18	6608.47348
723.372	6549.76564
723.565	6405.66332
723.757	6458.95674
723.949	6346.61609
724.141	6424.29968
724.333	6348.66777
724.525	6224.72756
724.717	6270.68519
724.91	6154.86319
725.102	6196.33658
725.294	6178.87553
725.486	6093.64155
725.678	6094.83253
725.87	5935.63057
726.062	6125.26732
726.254	5912.48913
726.446	5812.02957
726.638	5836.84766
726.83	5801.69402
727.022	5749.61262
727.213	5775.40582
727.405	5821.3308
727.597	5720.31108
727.789	5687.22139
727.981	5659.02545
728.173	5713.1856
728.365	5669.66907
728.556	5658.1495
728.748	5639.66329
728.94	5682.12381
729.132	5562.99142
729.324	5521.68884
729.515	5477.19944
729.707	5506.71824
729.899	5597.2264
730.09	5469.2336
730.282	5551.84349
730.474	5649.30383
730.665	5577.41551
730.857	5580.38156
731.049	5469.48389
731.24	5639.9138
731.432	5620.81348
731.623	5491.98516
731.815	5591.11002
732.006	5529.86399
732.198	5522.1421
732.389	5563.02884
732.581	5563.68783
732.772	5567.87843
732.964	5512.42493
733.155	5523.77357
733.347	5478.31855
733.538	5560.7655
733.729	5531.2893
733.921	5533.61003
734.112	5595.36208
734.304	5669.55863
734.495	5584.99175
734.686	5544.77159
734.877	5647.60805
735.069	5666.69646
735.26	5608.96594
735.451	5673.77593
735.643	5626.63256
735.834	5841.59161
736.025	5746.79937
736.216	5733.90242
736.407	5951.6351
736.599	5925.18681
736.79	5968.73779
736.981	5997.12922
737.172	5896.992
737.363	6132.51151
737.554	6189.24088
737.745	6098.67666
737.936	6060.94685
738.127	6089.47386
738.318	6253.55934
738.509	6371.3549
738.7	6300.32279
738.891	6368.19566
739.082	6412.52767
739.273	6465.6294
739.464	6466.2707
739.655	6486.27541
739.846	6571.19801
740.037	6558.16858
740.228	6634.84634
740.419	6646.35937
740.609	6589.49894
740.8	6723.31136
740.991	6727.58923
741.182	6727.18513
741.373	6871.41285
741.563	6810.63463
741.754	6934.61017
741.945	6951.79939
742.136	6848.76217
742.326	6947.27179
742.517	7007.8944
742.708	7101.28916
742.898	7214.04147
743.089	6980.21842
743.28	7009.73343
743.47	7142.57202
743.661	7105.09768
743.851	7258.53203
744.042	7166.86133
744.233	7230.64507
744.423	7277.60957
744.614	7252.33736
744.804	7309.42422
744.995	7268.76836
745.185	7229.28363
745.376	7469.28491
745.566	7389.57893
745.756	7463.78392
745.947	7461.39899
746.137	7343.62119
746.328	7505.13747
746.518	7537.06198
746.708	7472.35057
746.899	7550.45842
747.089	7671.92659
747.279	7509.18729
747.47	7534.89695
747.66	7570.60667
747.85	7585.9227
748.04	7687.06882
748.231	7675.78585
748.421	7711.94514
748.611	7567.58771
748.801	7660.8857
748.991	7665.30522
749.182	7647.32714
749.372	7685.18409
749.562	7724.15602
749.752	7770.35144
749.942	7659.18838
750.132	7802.28533
750.322	7808.04685
750.512	7737.65458
750.702	7865.62179
750.892	7811.78712
751.082	7819.73136
751.272	7784.36884
751.462	7777.28927
751.652	7822.97275
751.842	7787.8792
752.032	7750.76226
752.222	7801.28724
752.412	7904.54814
752.602	7827.25971
752.792	7788.53605
752.981	7856.64938
753.171	7640.27826
753.361	7777.64849
753.551	7733.97918
753.741	7839.60441
753.93	7867.70356
754.12	7733.9525
754.31	7802.00749
754.5	7654.58196
754.689	7764.92801
754.879	7741.36233
755.069	7655.19773
755.258	7748.60063
755.448	7690.34939
755.638	7700.47913
755.827	7714.2912
756.017	7782.51094
756.206	7688.09512
756.396	7748.5622
756.586	7573.96452
756.775	7760.99283
756.965	7657.51186
757.154	7801.336
757.344	7627.14934
757.533	7538.08993
757.723	7618.54837
757.912	7650.68435
758.101	7541.26214
758.291	7696.61618
758.48	7649.47201
758.67	7491.49326
758.859	7491.81457
759.048	7499.63736
759.238	7542.41746
759.427	7594.61577
759.616	7522.54348
759.806	7627.79962
759.995	7551.13232
760.184	7490.89751
760.373	7475.98925
760.563	7500.84023
760.752	7443.05617
760.941	7513.96264
761.13	7310.55236
761.319	7272.94457
761.509	7223.35529
761.698	7155.15866
761.887	7052.81781
762.076	6931.72551
762.265	6817.46793
762.454	6789.37102
762.643	6706.0802
762.832	6523.57606
763.021	6466.69224
763.21	6345.97181
763.399	6206.36455
763.588	6230.80328
763.777	6068.0896
763.966	5875.4416
764.155	5753.6682
764.344	5704.58213
764.533	5717.57272
764.722	5511.59108
764.911	5378.17864
765.1	5316.24277
765.288	5231.46896
765.477	5190.07041
765.666	4994.45672
765.855	5022.40651
766.044	4860.71719
766.232	4749.5525
766.421	4688.85974
766.61	4571.53604
766.799	4566.61715
766.987	4424.56714
767.176	4436.21717
767.365	4356.248
767.553	4288.68891
767.742	4267.09552
767.931	4206.28402
768.119	4086.15527
768.308	3987.8389
768.497	4112.25265
768.685	3991.29588
768.874	3961.54811
769.062	3954.10817
769.251	3882.0268
769.439	3922.95962
769.628	3991.72635
769.816	3860.21942
770.005	3939.90814
770.193	3975.05143
770.382	4027.40836
770.57	4043.522
770.758	4185.43503
770.947	4182.26533
771.135	4253.7798
771.323	4282.59201
771.512	4425.07915
771.7	4384.41254
771.888	4375.26213
772.077	4576.40192
772.265	4597.56724
772.453	4622.05629
772.642	4651.69589
772.83	4716.45255
773.018	4747.97191
773.206	4896.32606
773.394	4854.33571
773.583	4988.6401
773.771	4997.15259
773.959	5182.25816
774.147	5199.44856
774.335	5319.8043
774.523	5308.34363
774.711	5425.36802
774.899	5476.87451
775.087	5502.32028
775.275	5424.841
775.463	5645.98075
775.651	5719.96768
775.839	5639.17126
776.027	5760.43999
776.215	5784.70279
776.403	5929.70787
776.591	5884.00461
776.779	5838.32811
776.967	5922.09867
777.155	6002.26331
777.343	5957.85524
777.531	6087.52928
777.718	5966.44361
777.906	6092.91228
778.094	6082.8292
778.282	6156.32909
778.47	6177.79218
778.657	6106.92673
778.845	6179.33422
779.033	6111.72904
779.22	6132.04157
779.408	6211.78081
779.596	6351.04686
779.783	6359.60258
779.971	6223.96824
780.159	6276.93799
780.346	6152.33252
780.534	6329.73827
780.722	6308.76185
780.909	6312.60745
781.097	6216.08924
781.284	6102.96833
781.472	6277.81098
781.659	6227.3572
781.847	6221.16945
782.034	6271.58279
782.222	6231.27321
782.409	6225.48905
782.597	6180.45344
782.784	6184.83398
782.971	6173.39224
783.159	6082.02673
783.346	6148.43703
783.533	6236.60161
783.721	6100.45674
783.908	6090.14549
784.095	6097.83338
784.283	6039.70126
784.47	6089.31998
784.657	6089.97067
784.844	6060.06325
785.032	6042.76449
785.219	6113.7707
785.406	6112.81637
785.593	6014.60326
785.78	6054.65908
785.968	6083.22604
786.155	5987.16998
786.342	5893.47906
786.529	5962.89152
786.716	6013.80395
786.903	6068.74025
787.09	5871.02484
787.277	5978.13037
787.464	5851.18246
787.651	5955.14192
787.838	5821.21052
788.025	5955.49601
788.212	5764.07092
788.399	5844.13237
788.586	5793.54973
788.773	5872.82427
788.96	5819.88421
789.147	5877.02895
789.334	5735.15603
789.521	5703.58347
789.707	5777.96361
789.894	5784.55753
790.081	5738.79228
790.268	5778.81815
790.455	5669.9276
790.641	5603.22492
790.828	5604.05313
791.015	5719.97583
791.202	5591.80704
791.388	5566.65362
791.575	5513.01193
791.762	5492.10797
791.948	5553.24757
792.135	5571.01199
792.322	5430.42594
792.508	5446.89612
792.695	5425.78515
792.881	5275.90476
793.068	5361.16649
793.254	5356.33756
793.441	5269.36654
793.627	5340.96605
793.814	5329.47314
794	5356.16068
794.187	5194.98867
794.373	5281.02046
794.56	5223.10631
794.746	5258.60523
794.933	5238.22015
795.119	5205.46389
795.305	5111.68814
795.492	5051.69747
795.678	5120.40281
795.864	5111.25899
796.051	5073.93665
796.237	5007.75912
796.423	5123.97581
796.61	4977.9046
796.796	5032.35571
796.982	5029.34448
797.168	5024.1959
797.355	5074.38133
797.541	5044.3238
797.727	5020.73431
797.913	4938.07629
798.099	5018.15369
798.285	4839.99467
798.471	4902.14672
798.658	4930.80169
798.844	4927.89183
799.03	4978.79938
799.216	4857.58435
799.402	4914.46157
799.588	4882.67145
799.774	4876.96033
799.96	4828.92309
800.146	4885.9169
800.332	4828.02399
800.518	4957.31995
800.704	4829.12739
800.89	4797.41839
801.075	4931.69714
801.261	4777.03864
801.447	4801.79299
801.633	4918.49106
801.819	4934.38258
802.005	4789.4842
802.19	4867.88883
802.376	4773.09334
802.562	4777.90624
802.748	4855.56173
802.934	4771.96422
803.119	4738.02097
803.305	4746.31161
803.491	4725.427
803.676	4771.53555
803.862	4664.08584
804.048	4851.30342
804.233	4686.74159
804.419	4793.49702
804.605	4676.28372
804.79	4753.815
804.976	4647.58693
805.161	4688.41206
805.347	4607.72869
805.532	4703.44781
805.718	4679.66633
805.903	4675.48936
806.089	4613.97336
806.274	4684.25762
806.46	4611.37467
806.645	4652.08555
806.831	4696.93376
807.016	4704.56701
807.201	4596.6379
807.387	4699.47876
807.572	4647.69216
807.757	4598.65852
807.943	4575.70529
808.128	4606.97315
808.313	4534.15336
808.499	4643.88812
808.684	4605.9309
808.869	4469.93352
809.054	4545.46291
809.24	4643.05873
809.425	4606.28604
809.61	4653.92894
809.795	4594.57584
809.98	4547.83066
810.165	4537.5002
810.35	4680.45819
810.536	4629.95905
810.721	4524.47926
810.906	4540.04675
811.091	4542.10148
811.276	4619.84602
811.461	4496.50272
811.646	4539.01747
811.831	4576.49686
812.016	4546.59533
812.201	4566.69919
812.386	4495.4904
812.571	4508.53762
812.756	4374.02472
812.941	4476.39674
813.125	4461.03368
813.31	4436.14557
813.495	4391.9133
813.68	4425.71631
813.865	4417.38617
814.05	4370.02845
814.234	4337.3144
814.419	4277.10145
814.604	4340.86037
814.789	4279.04518
814.973	4256.51144
815.158	4264.23396
815.343	4244.84109
815.528	4137.97164
815.712	4189.04309
815.897	4157.15263
816.081	4105.44734
816.266	4043.42221
816.451	4001.12548
816.635	3991.50342
816.82	3909.57561
817.004	3942.95484
817.189	3807.39877
817.374	3867.80244
817.558	3794.36458
817.743	3720.11194
817.927	3641.94354
818.111	3715.42966
818.296	3642.88201
818.48	3598.46978
818.665	3445.06376
818.849	3511.52402
819.034	3488.6155
819.218	3379.98096
819.402	3423.49424
819.587	3307.71028
819.771	3318.38858
819.955	3319.53005
820.14	3260.15882
820.324	3116.39052
820.508	3200.43843
820.692	3098.56057
820.877	2969.7859
821.061	3075.10478
821.245	3042.0361
821.429	2966.95321
821.613	2887.04559
821.798	2913.44772
821.982	2841.1147
822.166	2856.89452
822.35	2892.7019
822.534	2805.36864
822.718	2824.46998
822.902	2766.79163
823.086	2751.1767
823.27	2793.71385
823.454	2789.41227
823.638	2712.95227
823.822	2760.72325
824.006	2740.81031
824.19	2720.4524
824.374	2740.7568
824.558	2684.52394
824.742	2680.22878
824.926	2646.71135
825.11	2639.60872
825.294	2624.57889
825.477	2654.78398
825.661	2632.38644
825.845	2658.55386
826.029	2726.66398
826.213	2620.97194
826.396	2614.39638
826.58	2559.03846
826.764	2566.19537
826.948	2604.81153
827.131	2651.16196
827.315	2578.61236
827.499	2600.67807
827.682	2604.47949
827.866	2641.87026
828.05	2620.38582
828.233	2662.31643
828.417	2644.73848
828.6	2570.63144
828.784	2770.74623
828.967	2638.19708
829.151	2704.8024
829.335	2735.81628
829.518	2746.19123
829.701	2603.7648
829.885	2655.70753
830.068	2682.7851
830.252	2686.20268
830.435	2670.08585
830.619	2685.35055
830.802	2575.55807
830.985	2647.76015
831.169	2665.01907
831.352	2636.49931
831.535	2675.8546
831.719	2657.81975
831.902	2652.09218
832.085	2660.56113
832.269	2707.21045
832.452	2618.98095
832.635	2694.88985
832.818	2608.50456
833.002	2588.9397
833.185	2616.1781
833.368	2647.78889
833.551	2629.96505
833.734	2724.69425
833.917	2715.49458
834.1	2663.56089
834.284	2675.391
834.467	2702.2482
834.65	2694.09185
834.833	2599.19049
835.016	2721.64995
835.199	2577.45485
835.382	2703.20153
835.565	2599.15089
835.748	2578.28808
835.931	2587.59945
836.114	2631.04333
836.297	2668.86259
836.479	2611.47806
836.662	2576.07241
836.845	2716.64741
837.028	2605.93058
837.211	2611.70185
837.394	2681.38223
837.577	2699.06076
837.759	2602.24487
837.942	2687.47718
838.125	2702.01932
838.308	2668.16252
838.49	2618.5025
838.673	2704.05293
838.856	2620.00971
839.039	2628.66839
839.221	2670.88855
839.404	2609.24797
839.587	2640.96922
839.769	2651.42578
839.952	2626.03798
840.134	2657.91731
840.317	2617.77177
840.499	2651.38571
840.682	2644.43196
840.865	2760.42018
841.047	2654.97273
841.23	2671.44494
841.412	2733.02324
841.595	2635.95087
841.777	2759.4258
841.959	2663.07333
842.142	2747.94399
842.324	2821.25868
842.507	2766.39576
842.689	2687.84635
842.871	2780.06813
843.054	2765.23852
843.236	2773.44629
843.418	2685.11789
843.601	2714.13905
843.783	2788.45241
843.965	2736.63537
844.147	2788.72349
844.33	2744.25124
844.512	2799.43674
844.694	2768.18621
844.876	2816.60883
845.059	2745.652
845.241	2837.59246
845.423	2747.3057
845.605	2787.17173
845.787	2872.99641
845.969	2761.69805
846.151	2759.48473
846.333	2792.28818
846.515	2745.76018
846.697	2795.31069
846.879	2750.05018
847.061	2805.96016
847.243	2787.36581
847.425	2769.67371
847.607	2808.34189
847.789	2825.69109
847.971	2778.18322
848.153	2793.93605
848.335	2778.8728
848.517	2673.29681
848.699	2813.73013
848.881	2763.49417
849.062	2718.67423
849.244	2765.86908
849.426	2806.26379
849.608	2790.93155
849.789	2824.3265
849.971	2837.046
850.153	2789.17114
850.335	2752.36187
850.516	2815.16698
850.698	2814.70841
850.88	2717.59791
851.061	2784.24448
851.243	2738.92827
851.425	2741.73899
851.606	2710.53727
851.788	2796.79835
851.969	2760.71562
852.151	2737.29482
852.333	2673.51625
852.514	2771.511
852.696	2725.26504
852.877	2635.50324
853.059	2716.42648
853.24	2697.85864
853.422	2730.97237
853.603	2717.81095
853.784	2684.32594
853.966	2680.21948
854.147	2655.11967
854.329	2562.80277
854.51	2512.65704
854.691	2606.37821
854.873	2666.70148
855.054	2605.96299
855.235	2663.41701
855.416	2613.013
855.598	2568.36055
855.779	2514.26588
855.96	2623.92652
856.141	2572.5786
856.323	2551.05835
856.504	2493.61059
856.685	2535.42692
856.866	2476.79756
857.047	2475.20936
857.228	2468.97222
857.409	2456.68082
857.591	2501.58125
857.772	2471.0304
857.953	2488.12598
858.134	2435.59095
858.315	2458.43192
858.496	2366.78947
858.677	2389.74052
858.858	2339.25114
859.039	2393.18902
859.22	2417.75917
859.401	2282.94779
859.582	2366.21176
859.762	2390.94132
859.943	2359.93784
860.124	2317.96998
860.305	2296.77829
860.486	2341.01342
860.667	2291.51228
860.848	2293.51188
861.028	2366.2413
861.209	2359.73805
861.39	2345.6308
861.571	2303.01088
861.751	2317.3555
861.932	2368.73836
862.113	2317.46743
862.293	2329.30507
862.474	2305.60625
862.655	2293.32092
862.835	2352.67547
863.016	2339.74222
863.197	2308.24878
863.377	2342.60868
863.558	2240.80873
863.738	2290.23033
863.919	2263.7982
864.099	2351.16362
864.28	2325.19175
864.46	2252.2268
864.641	2321.56664
864.821	2235.03928
865.002	2227.91682
865.182	2255.09706
865.363	2315.91575
865.543	2361.05975
865.723	2309.86529
865.904	2278.63355
866.084	2225.77092
866.264	2315.49529
866.445	2277.05355
866.625	2249.23852
866.805	2318.53506
866.986	2269.11162
867.166	2253.00573
867.346	2255.4715
867.526	2231.18255
867.707	2256.95059
867.887	2232.97256
868.067	2184.69475
868.247	2222.41531
868.427	2189.62426
868.607	2164.64186
868.788	2139.61415
868.968	2157.51059
869.148	2189.5961
869.328	2150.01777
869.508	2122.82102
869.688	2133.0307
869.868	2114.40779
870.048	2154.73864
870.228	2163.88162
870.408	2139.91475
870.588	2115.36761
870.768	2149.18111
870.948	2074.20915
871.128	2090.70663
871.307	2096.60491
871.487	2076.86279
871.667	2083.38452
871.847	2109.12514
872.027	1993.15191
872.207	2053.96787
872.387	2055.03473
872.566	2046.39855
872.746	2070.46766
872.926	2051.85263
873.106	2061.86261
873.285	2037.10483
873.465	1995.82588
873.645	2087.69789
873.824	2023.9393
874.004	2053.25905
874.184	1994.29684
874.363	1940.17948
874.543	2035.4055
874.723	1939.62932
874.902	2046.14069
875.082	1981.27014
875.261	1997.74162
875.441	1920.34945
875.62	1918.17149
875.8	1926.91003
875.979	1947.00514
876.159	1932.59182
876.338	1979.54549
876.518	1945.7269
876.697	1972.33414
876.876	1959.07372
877.056	1934.32775
877.235	1907.73206
877.415	1907.99996
877.594	1988.47518
877.773	1937.41908
877.953	1912.5408
878.132	1892.42078
878.311	1955.61478
878.49	1908.61161
878.67	1857.48173
878.849	1936.05273
879.028	1880.97436
879.207	1893.06437
879.387	1916.20117
879.566	1847.90768
879.745	1837.05637
879.924	1826.7923
880.103	1861.12647
880.282	1920.2027
880.461	1855.49336
880.64	1857.43876
880.819	1815.11536
880.998	1794.76524
881.178	1807.83336
881.357	1877.44425
881.536	1871.88851
881.715	1844.71544
881.893	1814.60395
882.072	1791.13129
882.251	1867.18239
882.43	1743.36236
882.609	1798.74405
882.788	1764.90574
882.967	1736.1426
883.146	1737.03286
883.325	1719.9055
883.503	1772.51126
883.682	1757.63183
883.861	1769.32478
884.04	1729.21213
884.219	1657.34808
884.397	1771.28386
884.576	1785.15354
884.755	1726.50987
884.933	1738.43795
885.112	1711.95443
885.291	1766.30379
885.469	1705.50403
885.648	1668.80605
885.827	1735.30179
886.005	1677.21552
886.184	1636.68925
886.363	1693.61402
886.541	1619.28291
886.72	1688.74952
886.898	1721.32511
887.077	1664.96438
887.255	1662.67195
887.434	1703.03915
887.612	1695.93447
887.791	1633.61714
887.969	1642.05926
888.147	1648.28939
888.326	1661.31457
888.504	1609.86031
888.682	1737.82302
888.861	1647.07217
889.039	1647.37714
889.218	1656.01537
889.396	1609.12723
889.574	1664.71493
889.752	1567.42636
889.931	1560.39604
890.109	1663.69824
890.287	1626.44841
890.465	1578.9005
890.643	1656.61805
890.822	1641.71756
891	1646.91259
891.178	1625.03256
891.356	1540.95661
891.534	1579.09151
891.712	1590.58635
891.89	1613.92504
892.068	1613.48493
892.247	1608.5463
892.425	1647.29604
892.603	1642.97807
892.781	1597.60274
892.959	1545.04161
893.137	1627.44214
893.314	1594.90798
893.492	1593.15971
893.67	1528.61347
893.848	1666.33039
894.026	1541.77402
894.204	1570.34406
894.382	1547.88954
894.56	1555.06309
894.738	1528.63588
894.915	1528.3137
895.093	1542.55732
895.271	1531.08536
895.449	1532.94952
895.626	1502.15749
895.804	1542.47317
895.982	1569.70403
896.16	1443.37503
896.337	1469.19347
896.515	1508.54084
896.693	1474.91268
896.87	1482.77499
897.048	1444.51079
897.225	1478.6052
897.403	1381.11891
897.581	1431.34106
897.758	1391.71983
897.936	1380.04025
898.113	1436.05502
898.291	1372.18343
898.468	1396.06293
898.646	1309.13285
898.823	1314.82551
899.001	1302.69859
899.178	1265.1903
899.356	1326.78868
899.533	1304.14021
899.71	1237.48209
899.888	1242.74528
900.065	1248.69059
900.242	1186.46267
900.42	1132.89146
900.597	1217.24129
900.774	1136.79196
900.952	1127.60368
901.129	1125.20858
901.306	1157.09742
901.483	1068.56314
901.661	1075.87656
901.838	1061.53789
902.015	1084.83001
902.192	1007.98636
902.369	1001.7581
902.546	997.523
902.723	941.75105
902.901	966.05161
903.078	966.11937
903.255	915.20961
903.432	882.02231
903.609	935.95559
903.786	921.12424
903.963	917.46365
904.14	841.23816
904.317	819.38772
904.494	823.52864
904.671	826.83292
904.848	783.53291
905.024	835.70788
905.201	838.80082
905.378	776.31195
905.555	817.14651
905.732	817.57507
905.909	845.19157
906.086	756.87837
906.262	797.96898
906.439	797.85548
906.616	811.39601
906.793	857.67153
906.969	745.77695
907.146	837.27458
907.323	769.84697
907.5	788.93198
907.676	849.06485
907.853	789.46357
908.03	803.42126
908.206	799.50786
908.383	748.11821
908.559	817.185
908.736	807.7638
908.912	801.0184
909.089	761.15832
909.266	854.25594
909.442	838.11691
909.619	878.45549
909.795	861.24785
909.972	801.26808
910.148	828.05954
910.324	826.66269
910.501	796.82084
910.677	809.94333
910.854	846.31095
911.03	805.71623
911.206	857.80414
911.383	832.40436
911.559	812.5154
911.735	814.12581
911.912	856.5857
912.088	827.16409
912.264	819.74533
912.44	776.47672
912.617	734.01086
912.793	815.05524
912.969	734.52964
913.145	784.67839
913.321	736.74259
913.498	765.67667
913.674	812.03374
913.85	714.29805
914.026	762.00755
914.202	754.97593
914.378	696.47512
914.554	705.62484
914.73	688.18184
914.906	651.09363
915.082	662.18528
915.258	650.33831
915.434	684.22348
915.61	686.42676
915.786	627.31412
915.962	651.34081
916.138	684.94758
916.314	613.07808
916.49	668.58994
916.665	637.76099
916.841	654.20389
917.017	627.87281
917.193	599.73175
917.369	579.88806
917.545	583.48321
917.72	566.70985
917.896	542.95643
918.072	604.23008
918.247	563.82177
918.423	590.52471
918.599	549.79721
918.775	579.25122
918.95	660.15353
919.126	558.92839
919.301	565.7642
919.477	526.8618
919.653	567.02678
919.828	565.8352
920.004	552.82307
920.179	566.12036
920.355	542.22212
920.53	554.25776
920.706	538.90761
920.881	597.57987
921.057	503.17914
921.232	546.81375
921.408	585.85496
921.583	537.30697
921.759	527.08838
921.934	551.26865
922.109	515.60326
922.285	514.89377
922.46	549.82177
922.635	560.19976
922.811	538.92181
922.986	566.31419
923.161	588.19019
923.336	571.14784
923.512	568.1439
923.687	564.88945
923.862	564.77755
924.037	618.29324
924.212	574.47269
924.388	535.30723
924.563	575.64145
924.738	621.78509
924.913	602.05349
925.088	602.59469
925.263	568.50251
925.438	610.21069
925.613	603.20101
925.788	580.43333
925.963	618.22582
926.138	605.97726
926.313	576.30527
926.488	607.45924
926.663	562.85502
926.838	568.87691
927.013	589.62946
927.188	619.12117
927.363	568.58232
927.538	569.76056
927.713	613.10358
927.888	644.00864
928.062	643.60345
928.237	582.231
928.412	594.64413
928.587	629.01349
928.761	630.53931
928.936	618.62897
929.111	572.13947
929.286	606.42497
929.46	606.4687
929.635	607.68303
929.81	605.86534
929.984	559.92484
930.159	564.66665
930.334	556.12886
930.508	536.76685
930.683	527.4463
930.857	491.57326
931.032	513.29046
931.206	509.39223
931.381	501.98464
931.556	495.80798
931.73	488.57483
931.904	509.22401
932.079	502.39573
932.253	464.16123
932.428	435.81202
932.602	470.20513
932.777	412.57746
932.951	428.40929
933.125	400.78404
933.3	384.99938
933.474	437.57099
933.648	378.78929
933.823	428.07168
933.997	415.18678
934.171	384.46977
934.345	357.92608
934.52	309.36742
934.694	315.89429
934.868	313.60419
935.042	313.042
935.217	291.48503
935.391	339.75679
935.565	250.90538
935.739	281.94075
935.913	268.85738
936.087	285.59219
936.261	252.2659
936.435	222.81735
936.609	220.29342
936.783	233.75881
936.957	209.12603
937.131	158.37563
937.305	173.09559
937.479	166.61518
937.653	133.83323
937.827	188.19492
938.001	173.35848
938.175	93.36148
938.349	148.13071
938.523	126.60912
938.697	170.47498
938.87	119.68539
939.044	123.17759
939.218	86.37315
939.392	124.0542
939.566	84.45761
939.739	89.94133
939.913	120.94831
940.087	115.48632
940.261	92.52272
940.434	99.84724
940.608	100.20577
940.782	66.81288
940.955	86.95598
941.129	78.98693
941.302	82.80433
941.476	99.51533
941.65	95.97486
941.823	100.29864
941.997	74.061
942.17	52.4251
942.344	60.46602
942.517	62.90432
942.691	74.86408
942.864	66.50256
943.038	90.0704
943.211	131.6503
943.385	122.50604
943.558	113.7085
943.731	92.25324
943.905	66.81034
944.078	84.14111
944.251	104.7592
944.425	96.21337
944.598	93.71489
944.771	76.80465
944.945	66.61195
945.118	83.98448
945.291	80.87696
945.464	75.31458
945.638	76.3073
945.811	101.08581
945.984	102.53289
946.157	69.61016
946.33	131.54834
946.503	121.2795
946.677	83.00292
946.85	77.32322
947.023	111.8879
947.196	92.48403
947.369	111.49957
947.542	91.60977
947.715	89.37832
947.888	99.06773
948.061	125.85441
948.234	121.57841
948.407	82.34407
948.58	94.28873
948.753	123.62999
948.926	125.91387
949.099	85.47776
949.271	103.08461
949.444	66.01212
949.617	123.28017
949.79	94.7292
949.963	81.69128
950.136	89.00537
950.308	66.94262
950.481	66.96818
950.654	89.22911
950.827	112.36533
950.999	73.18272
951.172	101.11656
951.345	116.14027
951.517	93.38629
951.69	70.29762
951.863	77.41745
952.035	61.36372
952.208	110.32558
952.381	89.49024
952.553	62.57106
952.726	107.93777
952.898	98.64262
953.071	78.00659
953.243	66.91204
953.416	97.99346
953.588	73.74221
953.761	93.4982
953.933	77.7768
954.106	83.88535
954.278	82.44658
954.45	88.37109
954.623	73.99138
954.795	100.8505
954.967	105.55856
955.14	94.42939
955.312	63.35427
955.484	68.81119
955.657	90.24965
955.829	72.52515
956.001	62.34016
956.173	40.44896
956.346	114.56051
956.518	92.71486
956.69	94.94942
956.862	87.27523
957.034	79.53735
957.207	108.88337
957.379	93.4005
957.551	53.63578
957.723	109.55064
957.895	102.09302
958.067	59.67124
958.239	97.31068
958.411	114.45729
958.583	105.11087
958.755	22.46548
958.927	141.54399
959.099	48.1761
959.271	60.02294
959.443	85.69182
959.615	112.24914
959.787	88.71358
959.959	123.06099
960.13	80.56275
960.302	109.09477
960.474	133.58926
960.646	104.63538
960.818	89.36813
960.99	66.62466
961.161	105.33071
961.333	96.18044
961.505	72.73236
961.677	85.78416
961.848	81.98652
962.02	77.43513
962.192	96.60974
962.363	109.65838
962.535	125.60199
962.707	115.80892
962.878	108.91645
963.05	126.42364
963.221	103.54401
963.393	74.27911
963.564	126.25429
963.736	98.60518
963.907	87.05799
964.079	110.65288
964.25	68.48861
964.422	90.13092
964.593	82.10152
964.765	78.98693
964.936	101.93856
965.108	99.33684
965.279	110.23459
965.45	73.86536
965.622	116.14467
965.793	120.16484
965.964	102.43655
966.136	100.00474
966.307	143.78231
966.478	103.20043
966.65	103.54008
966.821	131.09563
966.992	139.34803
967.163	97.27742
967.334	119.49784
967.506	79.17463
967.677	90.70066
967.848	179.83567
968.019	137.34884
968.19	128.76469
968.361	149.55184
968.532	110.33395
968.703	83.00607
968.874	108.56827
969.045	111.44877
969.216	107.77255
969.387	94.05059
969.558	102.10078
969.729	111.22497
969.9	123.53212
970.071	153.34524
970.242	126.61872
970.413	145.58962
970.584	129.82508
970.755	127.09046
970.926	157.83391
971.097	145.2483
971.267	142.84377
971.438	148.44404
971.609	148.81916
971.78	113.45019
971.951	167.52959
972.121	132.57241
972.292	119.68992
972.463	166.72711
972.633	144.10717
972.804	108.62252
972.975	132.05802
973.145	140.88319
973.316	179.2521
973.487	157.0852
973.657	131.29959
973.828	162.38067
973.998	140.32361
974.169	164.84931
974.339	167.62887
974.51	162.30721
974.68	147.76702
974.851	184.83739
975.021	163.73615
975.192	192.43385
975.362	158.15178
975.533	136.30008
975.703	203.45589
975.874	191.99696
976.044	187.6919
976.214	151.39388
976.385	180.38845
976.555	186.8589
976.725	150.76573
976.896	172.61424
977.066	226.98328
977.236	207.0956
977.406	156.95558
977.577	149.02048
977.747	208.31896
977.917	186.96378
978.087	176.74889
978.257	208.73529
978.427	184.77484
978.598	167.08663
978.768	141.99701
978.938	179.41507
979.108	163.83571
979.278	189.40471
979.448	153.10985
979.618	190.41914
979.788	184.37587
979.958	148.9867
980.128	182.43042
980.298	150.02214
980.468	170.04019
980.638	187.12506
980.808	165.70102
980.978	134.24515
981.148	200.76945
981.317	176.89943
981.487	190.85966
981.657	184.61357
981.827	166.50954
981.997	183.3813
982.167	136.22943
982.336	171.84377
982.506	119.46161
982.676	163.351
982.846	151.66663
983.015	177.8414
983.185	127.14941
983.355	165.94363
983.524	153.48615
983.694	185.29899
983.864	149.6694
984.033	128.65275
984.203	145.1199
984.372	148.99233
984.542	141.09101
984.712	182.5286
984.881	189.31418
985.051	139.08204
985.22	188.67817
985.39	188.17366
985.559	152.76262
985.728	174.7342
985.898	172.47631
986.067	158.35769
986.237	186.78217
986.406	169.95393
986.576	165.53297
986.745	163.0399
986.914	161.64608
987.084	141.52794
987.253	152.28949
987.422	176.74223
987.591	187.8733
987.761	135.68518
987.93	133.87375
988.099	183.72522
988.268	179.09955
988.438	145.37878
988.607	157.18608
988.776	157.04443
988.945	161.87191
989.114	163.40034
989.283	165.47096
989.452	166.60261
989.621	168.518
989.791	125.50435
989.96	211.62123
990.129	168.8893
990.298	163.04606
990.467	156.46115
990.636	171.52742
990.805	157.33862
990.974	152.74309
991.142	173.81262
991.311	183.90644
991.48	175.05677
991.649	191.49516
991.818	180.41564
991.987	202.24741
992.156	176.98469
992.325	197.75494
992.493	203.78404
992.662	186.57871
992.831	161.20065
993	166.52102
993.168	154.24636
993.337	200.12047
993.506	181.15819
993.675	156.27867
993.843	159.6008
994.012	185.87962
994.181	161.56064
994.349	151.79001
994.518	217.68939
994.686	173.60189
994.855	139.79578
995.024	210.33367
995.192	142.63078
995.361	153.89898
995.529	231.56383
995.698	165.72604
995.866	129.3873
996.035	126.44938
996.203	204.09682
996.371	159.53458
996.54	197.29242
996.708	178.49274
996.877	146.81543
997.045	136.46883
997.213	161.90853
997.382	168.88294
997.55	165.78168
997.718	184.80957
997.887	143.81497
998.055	193.97902
998.223	168.3132
998.391	155.2126
998.56	148.13632
998.728	164.30859
998.896	175.16208
999.064	182.91958
999.232	201.88117
999.401	174.95145
999.569	165.31545
999.737	136.17273
999.905	169.16407
1000.073	150.09436
1000.241	108.10417
1000.409	177.28182
1000.577	166.83904
1000.745	169.842
1000.913	138.45779
1001.081	176.0375
1001.249	151.90192
1001.417	119.43901
1001.585	149.6355
1001.753	167.08814
1001.921	132.63256
1002.089	130.38948
1002.256	190.18814
1002.424	142.73189
1002.592	149.51797
1002.76	163.18263
1002.928	160.9951
1003.096	170.42738
1003.263	140.15872
1003.431	118.35617
1003.599	139.42302
1003.767	172.49581
1003.934	138.98065
1004.102	152.99218
1004.27	152.95756
1004.437	145.96012
1004.605	157.81601
1004.773	167.59724
1004.94	119.73532
1005.108	146.49625
1005.275	115.42944
1005.443	125.9234
1005.61	151.37097
1005.778	174.50377
1005.945	103.53222
1006.113	115.04735
1006.28	160.24211
1006.448	125.84486
1006.615	152.65649
1006.783	151.89618
1006.95	126.20455
1007.118	142.47705
1007.285	137.41915
1007.452	116.86056
1007.62	142.62539
1007.787	151.71825
1007.954	126.10427
1008.122	123.46192
1008.289	134.18921
1008.456	167.02508
1008.623	118.04284
1008.791	134.00091
1008.958	106.19383
1009.125	111.56491
1009.292	141.869
1009.459	103.18868
1009.627	141.14978
1009.794	122.03984
1009.961	118.79927
1010.128	123.46192
1010.295	103.42817
1010.462	108.32798
1010.629	94.07563
1010.796	146.15486
1010.963	105.20282
1011.13	107.98408
1011.297	148.79664
1011.464	110.22623
1011.631	91.17945
1011.798	132.53068
1011.965	91.36511
1012.132	105.52651
1012.299	134.99302
1012.466	92.49457
1012.633	146.2502
1012.799	103.31233
1012.966	105.56257
1013.133	98.22483
1013.3	108.36913
1013.467	126.28776
1013.633	116.82505
1013.8	108.70497
1013.967	94.76887
1014.134	107.18864
1014.3	106.44587
1014.467	90.84365
1014.634	103.07679
1014.8	82.34407
1014.967	88.00859
1015.134	131.29462
1015.3	94.58497
1015.467	92.04695
1015.633	108.3362
1015.8	96.28869
1015.966	81.01042
1016.133	106.7938
1016.3	67.48164
1016.466	125.38769
1016.632	125.50435
1016.799	107.78073
1016.965	108.21608
1017.132	123.94699
1017.298	154.58211
1017.465	94.19831
1017.631	112.47299
1017.797	110.89347
1017.964	89.24605
1018.13	76.1954
1018.296	107.86401
1018.463	74.32436
1018.629	98.76581
1018.795	79.33168
1018.961	84.46404
1019.128	111.35377
1019.294	95.71824
1019.46	121.51256
1019.626	129.51882
1019.792	96.08679
1019.959	71.61619
1020.125	123.40144
1020.291	79.43453
1020.457	71.31857
1020.623	97.2885
1020.789	96.27772
1020.955	58.12473
1021.121	95.48721
1021.287	76.53983
1021.453	57.0055
1021.619	98.51947
1021.785	90.48719
1021.951	102.17004
1022.117	77.44103
1022.283	93.16248
1022.449	63.471
1022.615	85.57991
1022.781	99.4663
1022.946	104.9631
1023.112	105.36275
1023.278	64.12531
1023.444	62.69489
1023.61	102.34798
1023.775	62.25438
1023.941	15.079
1024.107	54.55167
1024.273	46.39264
1024.438	76.68682
1024.604	57.5739
1024.77	70.03112
1024.935	82.30653
1025.101	59.01114
1025.267	74.85838
1025.432	75.53553
1025.598	92.4143
1025.763	70.88431
1025.929	113.03261
1026.095	77.09352
1026.26	45.93442
1026.426	68.51995
1026.591	87.69295
1026.757	94.41501
1026.922	81.01042
1027.087	42.80968
1027.253	64.71425
1027.418	71.20934
1027.584	116.34645
1027.749	76.99334
1027.914	86.02755
1028.08	76.40757
1028.245	84.78365
1028.41	79.79453
1028.576	63.78727
1028.741	90.92446
1028.906	42.02154
1029.072	82.6987
1029.237	83.01871
1029.402	105.65042
1029.567	72.95337
1029.732	33.53199
1029.898	77.7768
1030.063	59.80594
1030.228	77.44693
1030.393	40.81106
1030.558	26.81981
1030.723	78.45134
1030.888	100.99309
1031.053	54.45223
1031.218	53.17206
1031.383	78.99896
1031.548	68.82952
1031.713	56.11657
1031.878	40.46286
1032.043	45.16669
1032.208	60.89976
1032.373	38.34847
1032.538	44.14751
1032.703	110.46262
1032.868	41.14688
1033.033	65.53028
1033.198	48.07889
1033.362	43.48112
1033.527	88.38454
1033.692	19.10708
1033.857	92.81971
1034.021	103.62447
1034.186	68.3065
1034.351	16.31326
1034.516	42.47884
1034.68	45.597
1034.845	53.4324
1035.01	66.59672
1035.174	85.93527
1035.339	77.43513
1035.504	63.03783
1035.668	94.95303
1035.833	84.59527
1035.997	63.27375
1036.162	44.93252
1036.326	62.91151
1036.491	40.35867
1036.655	60.58719
1036.82	79.35284
1036.984	64.92325
1037.149	78.99896
1037.313	50.97406
1037.478	18.10361
1037.642	112.46445
1037.807	49.19462
1037.971	52.75482
1038.135	49.51342
1038.3	36.11547
1038.464	39.11555
1038.628	55.42173
1038.792	37.6625
1038.957	47.49376
1039.121	47.38729
1039.285	48.39808
1039.449	65.03515
1039.614	50.29292
1039.778	44.60874
1039.942	78.1977
1040.106	83.36399
1040.27	49.51153
1040.434	31.7538
1040.599	58.12695
1040.763	54.86652
1040.927	65.36587
1041.091	66.61703
1041.255	70.96647
1041.419	33.86381
1041.583	43.02364
1041.747	42.36692
1041.911	71.53428
1042.075	35.10534
1042.239	49.28584
1042.403	48.8644
1042.567	25.25742
1042.731	84.92461
1042.894	38.45305
1043.058	42.15276
1043.222	20.45127
1043.386	45.38188
1043.55	37.22491
1043.714	45.39924
1043.877	61.15388
1044.041	31.30127
1044.205	41.13901
1044.369	49.6348
1044.532	43.6047
1044.696	5.57665
1044.86	98.7583
1045.023	41.58829
1045.187	31.85233
1045.351	35.09729
1045.514	46.28957
1045.678	38.33235
1045.841	-9.08599
