Data from 3_57 pm cloudy_Subt2__1__15-59-37-591.txt Node

Date: Tue Oct 07 15:59:37 EDT 2025
User: brett
Spectrometer: USB4F03499
Trigger mode: 4
Integration Time (sec): 1.000000E-2
Scans to average: 1
Electric dark correction enabled: true
Nonlinearity correction enabled: true
Boxcar width: 0
XAxis mode: Wavelengths
Number of Pixels in Spectrum: 3648
>>>>>Begin Spectral Data<<<<<
345.386	44.99922
345.605	44.99922
345.824	44.99922
346.044	-14.18537
346.263	-12.83734
346.482	3.61765
346.701	-20.10794
346.92	27.45433
347.139	-2.98501
347.358	34.47953
347.577	28.34784
347.796	-1.86538
348.015	-45.09491
348.234	-7.90931
348.453	14.14185
348.672	-33.10087
348.891	2.94709
349.11	0.70855
349.329	133.15255
349.548	183.22335
349.767	207.41917
349.986	193.96141
350.205	231.00238
350.424	180.48692
350.643	186.3851
350.862	220.72031
351.08	194.94887
351.299	180.41893
351.518	221.23845
351.737	188.14782
351.956	234.7364
352.174	234.47974
352.393	181.901
352.612	220.53787
352.831	243.42839
353.049	209.19184
353.268	232.60325
353.487	237.21575
353.705	263.21595
353.924	240.48818
354.143	215.29969
354.361	233.2486
354.58	214.42874
354.798	246.02989
355.017	221.54926
355.236	259.32811
355.454	227.75656
355.673	280.3099
355.891	244.79874
356.11	235.3575
356.328	240.25532
356.547	275.85382
356.765	246.22609
356.984	236.43243
357.202	288.24689
357.42	283.47571
357.639	232.62803
357.857	290.43555
358.076	292.24769
358.294	290.90479
358.512	266.60361
358.731	293.36683
358.949	256.58787
359.167	254.39691
359.386	263.0942
359.604	247.11217
359.822	230.94114
360.04	331.47016
360.259	304.78445
360.477	259.35719
360.695	318.30968
360.913	311.58744
361.131	285.15573
361.35	276.44435
361.568	292.9519
361.786	279.49517
362.004	298.28137
362.222	309.03605
362.44	260.05326
362.658	294.47504
362.876	301.32489
363.094	297.63217
363.312	255.5041
363.53	248.03596
363.749	264.57878
363.967	237.30102
364.184	314.46956
364.402	293.71351
364.62	283.23699
364.838	295.58321
365.056	291.22967
365.274	331.84304
365.492	289.85452
365.71	291.37412
365.928	322.07181
366.146	296.4692
366.364	310.84306
366.581	286.55144
366.799	301.70551
367.017	297.47606
367.235	344.2042
367.453	336.69446
367.67	363.33037
367.888	360.84165
368.106	378.63888
368.323	352.72631
368.541	395.1955
368.759	363.98842
368.977	370.16056
369.194	340.12503
369.412	429.44328
369.629	369.81119
369.847	381.84203
370.065	356.89965
370.282	362.99463
370.5	383.03059
370.717	387.07318
370.935	398.94702
371.152	427.28525
371.37	380.06597
371.588	414.97181
371.805	465.57178
372.022	398.2608
372.24	428.91514
372.457	416.39113
372.675	453.47153
372.892	467.07257
373.11	416.85883
373.327	478.42735
373.544	399.17991
373.762	439.42111
373.979	449.45563
374.196	449.89007
374.414	425.81475
374.631	441.45185
374.848	431.52252
375.066	442.87278
375.283	475.11187
375.5	399.3653
375.717	465.24568
375.935	508.10903
376.152	461.49759
376.369	488.40631
376.586	498.8723
376.803	457.89325
377.02	477.39977
377.238	505.36774
377.455	463.83163
377.672	473.78629
377.889	441.46667
378.106	500.44183
378.323	474.14875
378.54	459.20253
378.757	446.63102
378.974	488.91237
379.191	458.26248
379.408	474.27805
379.625	501.67285
379.842	488.24104
380.059	452.89531
380.276	533.48946
380.493	524.4494
380.71	516.12966
380.927	475.42254
381.143	546.11133
381.36	494.14987
381.577	502.95891
381.794	482.03977
382.011	431.36309
382.228	533.82521
382.444	496.4824
382.661	480.69693
382.878	514.89881
383.095	526.36862
383.311	519.93171
383.528	567.67728
383.745	491.03836
383.962	568.70514
384.178	555.02172
384.395	587.95817
384.612	567.02629
384.828	551.10582
385.045	554.92991
385.261	535.96639
385.478	594.88179
385.695	528.07958
385.911	574.51307
386.128	544.69637
386.344	532.40897
386.561	582.24343
386.777	559.35488
386.994	589.53073
387.21	561.36019
387.427	608.79092
387.643	541.50328
387.86	582.78202
388.076	526.21572
388.292	557.01376
388.509	598.76439
388.725	576.53546
388.942	568.57535
389.158	566.89386
389.374	559.48708
389.591	536.2001
389.807	519.74697
390.023	561.94961
390.239	609.84645
390.456	603.90621
390.672	576.42157
390.888	587.81929
391.104	608.35272
391.321	593.67198
391.537	557.2284
391.753	561.23732
391.969	643.39165
392.185	623.32387
392.401	677.94011
392.618	601.09638
392.834	671.0496
393.05	652.23801
393.266	639.8341
393.482	636.14646
393.698	654.58566
393.914	718.27653
394.13	673.23966
394.346	711.73477
394.562	674.08672
394.778	681.40484
394.994	721.49451
395.21	748.39318
395.426	686.30344
395.642	698.42755
395.858	715.65748
396.073	671.79316
396.289	749.74378
396.505	787.79031
396.721	762.07427
396.937	773.65713
397.153	761.78071
397.369	773.5203
397.584	774.61186
397.8	764.38945
398.016	818.01842
398.232	783.45381
398.447	805.94452
398.663	821.18745
398.879	762.98865
399.094	817.07211
399.31	843.45076
399.526	829.34437
399.741	821.82619
399.957	813.97342
400.173	911.19568
400.388	857.3424
400.604	848.82233
400.82	914.34579
401.035	928.44538
401.251	976.10999
401.466	934.05995
401.682	924.96283
401.897	1000.80736
402.113	1022.64629
402.328	1018.44228
402.544	1011.04304
402.759	1046.05675
402.974	1077.39537
403.19	1075.27324
403.405	1143.79512
403.621	1213.11423
403.836	1187.52712
404.051	1251.98815
404.267	1311.7786
404.482	1278.74114
404.697	1220.50071
404.913	1303.79751
405.128	1345.07593
405.343	1372.23748
405.559	1377.00442
405.774	1406.2302
405.989	1557.67617
406.204	1471.25798
406.42	1504.46449
406.635	1547.6906
406.85	1581.30503
407.065	1604.69926
407.28	1580.68495
407.495	1617.20901
407.71	1565.39842
407.926	1684.95254
408.141	1752.1064
408.356	1793.37692
408.571	1748.02373
408.786	1784.66742
409.001	1769.84427
409.216	1873.57882
409.431	1914.21949
409.646	1855.71887
409.861	1884.08634
410.076	1890.16237
410.291	1871.93574
410.506	1954.2413
410.721	1854.97769
410.936	1913.80704
411.15	1952.93884
411.365	1935.33635
411.58	1961.57576
411.795	1986.87152
412.01	2110.51694
412.225	2044.82079
412.439	2052.35358
412.654	2029.66664
412.869	2081.93882
413.084	2047.12716
413.299	2130.4732
413.513	2014.3858
413.728	2120.03504
413.943	2079.20496
414.157	2114.90459
414.372	2177.14998
414.587	2237.33872
414.801	2227.56662
415.016	2220.58831
415.231	2264.66523
415.445	2277.15672
415.66	2264.98217
415.874	2381.78603
416.089	2280.03312
416.304	2414.84339
416.518	2384.18717
416.733	2396.93608
416.947	2313.88681
417.162	2401.04651
417.376	2516.83858
417.59	2479.21846
417.805	2579.54797
418.019	2456.10523
418.234	2447.4819
418.448	2426.88149
418.663	2515.61133
418.877	2474.78798
419.091	2580.5084
419.306	2561.90824
419.52	2586.36517
419.734	2577.45621
419.949	2706.90617
420.163	2723.49505
420.377	2534.6063
420.591	2535.83491
420.806	2709.14433
421.02	2576.0419
421.234	2670.7476
421.448	2727.38836
421.663	2727.34361
421.877	2664.72387
422.091	2598.05821
422.305	2633.65164
422.519	2658.81801
422.733	2842.90039
422.947	2738.65606
423.161	2722.78885
423.376	2714.77636
423.59	2747.25707
423.804	2703.86063
424.018	2695.59315
424.232	2852.42447
424.446	2827.51894
424.66	2771.71725
424.874	2802.7426
425.088	2726.87363
425.302	2826.17323
425.515	2930.09799
425.729	2993.12396
425.943	2955.94145
426.157	2888.37402
426.371	2894.06698
426.585	2808.38588
426.799	2990.16501
427.013	3018.73117
427.226	2998.47263
427.44	2810.46669
427.654	2900.80197
427.868	2927.04066
428.081	2974.31365
428.295	2915.32214
428.509	2990.60472
428.723	3004.18223
428.936	2935.69904
429.15	2852.05771
429.364	2906.68964
429.577	2820.64612
429.791	2791.55191
430.005	2979.07183
430.218	2961.76903
430.432	2864.38364
430.645	2913.18845
430.859	2854.28421
431.073	2943.31944
431.286	3014.28045
431.5	2990.24166
431.713	2860.1082
431.927	2866.79514
432.14	3027.70681
432.354	2892.96903
432.567	2980.94817
432.781	3009.07651
432.994	3017.38663
433.207	3046.66936
433.421	3113.3606
433.634	2995.17277
433.848	3129.54537
434.061	3065.94276
434.274	2867.41622
434.488	2975.60747
434.701	2803.89459
434.914	2967.11329
435.127	3010.05582
435.341	3106.9372
435.554	3060.24878
435.767	3190.81443
435.98	3153.58031
436.194	3041.85138
436.407	3102.13908
436.62	3294.69091
436.833	3241.63348
437.046	3171.42641
437.259	3030.42031
437.473	3223.94267
437.686	3275.58099
437.899	3213.03654
438.112	3291.73334
438.325	3216.70596
438.538	3247.1011
438.751	3464.32835
438.964	3321.66741
439.177	3431.82667
439.39	3360.08643
439.603	3611.40482
439.816	3493.41953
440.029	3607.82607
440.242	3698.69043
440.455	3722.73412
440.668	3827.62484
440.881	3544.69837
441.094	3591.51987
441.306	3831.65468
441.519	3911.40761
441.732	3964.26932
441.945	3937.40312
442.158	3772.42318
442.37	3714.27845
442.583	3885.32787
442.796	4050.49438
443.009	4074.90804
443.222	3892.3194
443.434	3792.35709
443.647	4118.42684
443.86	4280.96429
444.072	4326.29536
444.285	4156.38607
444.498	4214.61237
444.71	4178.75992
444.923	4164.23942
445.136	4199.01772
445.348	4012.60502
445.561	4130.2464
445.773	4104.24759
445.986	3930.81043
446.198	4273.91671
446.411	4351.53115
446.623	4435.66797
446.836	4427.18788
447.048	4449.03115
447.261	4523.33631
447.473	4497.56935
447.686	4322.50554
447.898	4419.385
448.11	4732.37493
448.323	4758.19708
448.535	4668.4958
448.748	4463.52381
448.96	4456.63722
449.172	4551.98185
449.385	4364.28503
449.597	4635.66798
449.809	4683.46506
450.021	4746.04266
450.234	4727.09047
450.446	4623.97516
450.658	4539.15402
450.87	4690.09225
451.083	4768.50043
451.295	4801.64447
451.507	4715.4307
451.719	4647.7343
451.931	4773.39904
452.143	4819.46627
452.356	4780.36477
452.568	4785.52046
452.78	4830.89619
452.992	4914.88098
453.204	5072.68719
453.416	4891.03926
453.628	4767.35207
453.84	4802.43609
454.052	4928.75959
454.264	4982.46035
454.476	4946.21592
454.688	5174.75359
454.9	5287.90317
455.112	5029.75826
455.324	4816.55924
455.536	5061.95924
455.747	5139.83383
455.959	5081.72572
456.171	5250.19432
456.383	5087.57701
456.595	4905.03228
456.807	4984.92064
457.018	4938.60682
457.23	5165.15677
457.442	5071.44445
457.654	5226.89962
457.865	5117.26332
458.077	5082.73432
458.289	4962.44139
458.501	5058.47403
458.712	5447.11477
458.924	5374.96906
459.136	5221.16831
459.347	5201.21445
459.559	5185.68695
459.77	5541.1518
459.982	5543.30228
460.194	5385.4302
460.405	5237.67773
460.617	5204.2479
460.828	5583.29469
461.04	5470.93272
461.251	5373.71534
461.463	5877.15199
461.674	5712.10872
461.886	5714.62975
462.097	5471.48167
462.309	5555.0381
462.52	5492.54006
462.731	5819.15097
462.943	5490.43608
463.154	5355.90555
463.366	5526.70959
463.577	5594.76372
463.788	5832.95546
464	5928.32009
464.211	5822.56998
464.422	6280.47611
464.634	6113.55327
464.845	6069.45733
465.056	6212.53916
465.267	6146.40808
465.478	5867.90904
465.69	6019.64091
465.901	6105.90218
466.112	6091.10648
466.323	6134.5065
466.534	6232.89427
466.745	6300.46195
466.957	6287.93362
467.168	6302.18866
467.379	6307.28201
467.59	6143.49849
467.801	5978.22261
468.012	6353.1843
468.223	6375.74497
468.434	6259.08547
468.645	6582.09891
468.856	6760.46444
469.067	6544.22579
469.278	6527.07416
469.489	6696.64595
469.7	6462.94791
469.911	6338.72993
470.122	6853.72876
470.333	6969.44601
470.543	6558.09456
470.754	6846.50693
470.965	6906.24455
471.176	6920.69638
471.387	7110.55061
471.598	6928.21396
471.808	6908.05848
472.019	7088.01853
472.23	7102.86464
472.441	6807.57798
472.651	7043.0579
472.862	6814.8918
473.073	7278.65347
473.283	7135.96981
473.494	7119.70465
473.705	7131.44374
473.915	7242.36502
474.126	7473.20004
474.337	7365.59434
474.547	7545.37667
474.758	7662.57792
474.968	7533.44335
475.179	7719.62315
475.389	7564.76742
475.6	7694.24187
475.81	7790.86865
476.021	7930.29307
476.231	8027.51956
476.442	7971.29905
476.652	7810.16531
476.863	7977.64204
477.073	7828.13175
477.284	8118.58198
477.494	8189.42789
477.704	8449.06053
477.915	8705.2565
478.125	8232.55843
478.335	8454.27359
478.546	8772.4877
478.756	8516.65905
478.966	8833.52817
479.177	8697.5286
479.387	9024.57216
479.597	8893.23852
479.807	8943.38595
480.018	8911.62044
480.228	9058.16778
480.438	9205.65389
480.648	9388.76966
480.858	9447.08867
481.068	9172.81605
481.279	9530.29449
481.489	9678.84585
481.699	9837.23962
481.909	9656.37192
482.119	10326.38611
482.329	10193.42713
482.539	10356.00569
482.749	9892.09879
482.959	10195.30625
483.169	10590.2579
483.379	10527.57584
483.589	10639.07575
483.799	10544.62526
484.009	10384.37657
484.219	10753.52297
484.429	10745.30588
484.639	10573.19511
484.849	10806.979
485.059	11135.38077
485.268	11320.08114
485.478	11313.06046
485.688	10939.96796
485.898	11103.83551
486.108	11275.30092
486.317	11325.70055
486.527	11517.43048
486.737	11644.97276
486.947	11697.50487
487.156	11758.29947
487.366	11752.84973
487.576	11494.32148
487.785	11745.46334
487.995	11745.19301
488.205	11908.28822
488.414	12036.7683
488.624	11891.42704
488.834	12159.81712
489.043	11846.243
489.253	11722.88276
489.462	12105.73245
489.672	12381.80176
489.882	12426.40413
490.091	12436.56758
490.301	12293.3357
490.51	12561.66922
490.72	12607.0573
490.929	12616.38762
491.138	12823.96379
491.348	12543.70011
491.557	12699.8433
491.767	12911.89056
491.976	12798.3662
492.185	12699.01346
492.395	12860.53036
492.604	13051.70491
492.813	13069.67912
493.023	13277.88447
493.232	13179.02526
493.441	13016.87797
493.651	13334.03732
493.86	12909.45039
494.069	13106.00777
494.278	13345.45368
494.488	13498.14271
494.697	13332.08741
494.906	13304.99759
495.115	13556.94889
495.324	13482.06174
495.533	13592.89214
495.743	13687.40572
495.952	14042.47484
496.161	13911.82089
496.37	13984.23227
496.579	14155.26324
496.788	14176.46049
496.997	14403.59924
497.206	14308.8541
497.415	14254.31457
497.624	14461.87856
497.833	14512.2513
498.042	14566.25524
498.251	14735.84299
498.46	14664.98451
498.669	14792.8107
498.878	14717.42082
499.087	14848.3481
499.296	14967.14571
499.504	15150.72126
499.713	15023.51889
499.922	15092.80017
500.131	15297.91058
500.34	15359.7381
500.549	15344.12272
500.757	15171.42076
500.966	15393.90479
501.175	15474.40786
501.384	15420.24582
501.592	15368.60753
501.801	15563.18155
502.01	15448.27917
502.218	15341.2003
502.427	15505.90059
502.636	15608.16978
502.844	15640.4113
503.053	15609.15755
503.262	15518.04994
503.47	15669.41353
503.679	15661.82708
503.887	15699.84344
504.096	15682.74923
504.304	15736.31212
504.513	15821.84823
504.721	15723.45773
504.93	15733.37797
505.138	15805.6691
505.347	15804.69498
505.555	15786.62453
505.764	15931.52939
505.972	15882.03061
506.18	15899.73963
506.389	15780.03943
506.597	15703.48766
506.806	15943.49923
507.014	16006.31225
507.222	15855.90634
507.431	15996.54892
507.639	15872.31979
507.847	15964.21269
508.055	15983.39652
508.264	15992.72079
508.472	16034.41266
508.68	16225.95636
508.888	16082.91485
509.096	16158.18128
509.305	16147.17906
509.513	16135.59735
509.721	16134.06823
509.929	16132.79961
510.137	16089.29251
510.345	16295.15526
510.553	16339.02677
510.762	16322.35046
510.97	16300.88068
511.178	16418.4939
511.386	16607.60333
511.594	16470.71097
511.802	16543.10073
512.01	16615.9261
512.218	16598.36718
512.426	16603.72088
512.634	16671.30916
512.842	16646.77171
513.049	16586.55504
513.257	16704.2437
513.465	16882.10625
513.673	16850.53822
513.881	16815.77113
514.089	16678.96136
514.297	16897.69273
514.504	16872.51378
514.712	17023.36585
514.92	17056.44981
515.128	17203.35146
515.336	17131.84408
515.543	17104.91054
515.751	17155.46356
515.959	17192.53296
516.166	17067.30346
516.374	17154.48061
516.582	17228.59222
516.789	17178.43771
516.997	17167.63902
517.205	17057.36787
517.412	17305.07943
517.62	17095.22196
517.827	17060.81949
518.035	17070.24845
518.243	17136.41457
518.45	16890.01629
518.658	16897.87625
518.865	17130.40097
519.073	17076.67093
519.28	16989.01032
519.488	17040.22961
519.695	16917.35455
519.902	16944.12543
520.11	16841.37499
520.317	16917.95771
520.525	17054.56099
520.732	16690.86984
520.939	16983.40073
521.147	16768.78397
521.354	16799.13991
521.561	16810.1108
521.769	16777.66361
521.976	16792.29967
522.183	16936.30653
522.391	16876.1529
522.598	17029.39601
522.805	16843.11925
523.012	16972.63875
523.219	16966.36697
523.427	16973.89765
523.634	17102.79507
523.841	17015.49444
524.048	16863.94087
524.255	17167.42079
524.462	17138.14144
524.669	17021.63239
524.877	17089.86178
525.084	17046.00733
525.291	17259.04718
525.498	17124.05741
525.705	17206.75033
525.912	17339.11834
526.119	17294.2949
526.326	17257.01517
526.533	17401.8946
526.74	17582.54139
526.947	17325.29463
527.153	17446.47171
527.36	17500.3904
527.567	17470.59148
527.774	17616.78638
527.981	17500.46787
528.188	17561.37313
528.395	17673.89887
528.602	17622.53678
528.808	17531.39938
529.015	17550.35466
529.222	17707.57126
529.429	17583.6758
529.635	17644.05914
529.842	17617.12968
530.049	17630.4135
530.256	17774.17819
530.462	17770.47573
530.669	17765.10325
530.876	17859.27747
531.082	17736.11347
531.289	17797.70201
531.495	17918.64976
531.702	17960.57483
531.909	17859.59981
532.115	18188.47433
532.322	17917.05056
532.528	18159.36491
532.735	17998.09779
532.941	18157.19705
533.148	18016.37952
533.354	17990.84004
533.561	18021.28606
533.767	18115.21364
533.974	18061.26951
534.18	18076.35453
534.387	17948.25054
534.593	18247.87389
534.799	18179.99274
535.006	18253.94139
535.212	18146.32961
535.418	18192.65679
535.625	18215.07887
535.831	18126.64707
536.037	18144.29189
536.244	18034.60475
536.45	17915.75119
536.656	17911.99677
536.862	18161.36647
537.068	18248.17159
537.275	18186.02464
537.481	18392.92739
537.687	18286.40983
537.893	18575.39371
538.099	18518.39863
538.305	18304.81859
538.512	18367.02438
538.718	18376.77386
538.924	18371.64254
539.13	18072.04549
539.336	18496.90465
539.542	18423.3707
539.748	18608.63945
539.954	18289.9084
540.16	18613.13487
540.366	18387.51137
540.572	18451.06826
540.778	18224.61992
540.984	18459.64862
541.19	18315.44727
541.396	18304.64054
541.602	18517.44069
541.807	18348.08801
542.013	18379.63836
542.219	18215.30185
542.425	18537.77194
542.631	18261.72166
542.837	18154.7971
543.042	18219.86188
543.248	18344.66816
543.454	18189.86587
543.66	18167.91492
543.865	18120.62522
544.071	18277.62217
544.277	18132.01425
544.483	18369.66415
544.688	18131.43825
544.894	18082.63322
545.1	18321.14702
545.305	18292.86399
545.511	18276.3745
545.716	18182.931
545.922	18059.20687
546.128	18305.57373
546.333	18214.12109
546.539	18210.5321
546.744	18179.92711
546.95	18051.70443
547.155	18069.09797
547.361	18220.60791
547.566	17857.07219
547.772	18060.2446
547.977	18243.85676
548.182	18019.76536
548.388	17987.22616
548.593	18102.95795
548.799	18095.50978
549.004	18021.5052
549.209	18004.17982
549.415	18208.31024
549.62	18009.2227
549.825	18025.29786
550.031	17858.68807
550.236	17974.31787
550.441	18179.42637
550.646	18134.09072
550.852	18150.2424
551.057	17949.25559
551.262	18259.25974
551.467	18129.34963
551.672	18000.31944
551.878	17946.30437
552.083	18191.22242
552.288	18226.80226
552.493	18218.96234
552.698	18168.54697
552.903	18057.49043
553.108	18290.72143
553.313	18261.97862
553.518	18091.48596
553.723	18272.61623
553.928	18368.00655
554.133	18484.59684
554.338	18359.3204
554.543	18507.73832
554.748	18294.5397
554.953	18381.86974
555.158	18336.34373
555.363	18370.09228
555.568	18199.80899
555.773	18374.37138
555.978	18374.72677
556.182	18426.84059
556.387	18470.83652
556.592	18410.34886
556.797	18465.7703
557.002	18532.38605
557.206	18383.74229
557.411	18376.58014
557.616	18396.76753
557.821	18386.48688
558.025	18153.50896
558.23	18327.25275
558.435	18403.3673
558.64	18316.01605
558.844	18537.37092
559.049	18406.17824
559.253	18467.30685
559.458	18321.37486
559.663	18424.66791
559.867	18354.20653
560.072	18264.83358
560.276	18176.75144
560.481	18251.62944
560.685	18462.33393
560.89	18094.12172
561.094	18353.34364
561.299	18127.55504
561.503	18099.77429
561.708	18246.38137
561.912	18113.5963
562.117	18168.7936
562.321	18166.10804
562.525	18319.60061
562.73	17999.9897
562.934	18118.37538
563.139	18109.55104
563.343	18176.08505
563.547	18027.73846
563.752	18051.36471
563.956	18271.75684
564.16	17878.33693
564.364	17875.22643
564.569	18002.97188
564.773	18062.15201
564.977	17865.43547
565.181	18152.42878
565.385	17920.52344
565.59	18028.09569
565.794	17986.10052
565.998	18090.86484
566.202	17775.26315
566.406	17973.66751
566.61	17850.1069
566.814	17834.89337
567.018	17830.8615
567.222	18167.62522
567.426	17553.99358
567.63	17752.8787
567.834	17786.2601
568.038	17836.79016
568.242	17813.39028
568.446	17717.3432
568.65	17620.77417
568.854	17745.0419
569.058	17936.63348
569.262	17796.48106
569.466	17780.34319
569.67	17799.17321
569.874	17503.0763
570.078	17818.79835
570.281	17727.25324
570.485	17709.63755
570.689	17661.62424
570.893	17598.50871
571.097	17614.96919
571.3	17494.22713
571.504	17483.57094
571.708	17379.65416
571.912	17617.28496
572.115	17550.79985
572.319	17310.64018
572.523	17524.96655
572.726	17305.61501
572.93	17299.38254
573.133	17430.32572
573.337	17293.4383
573.541	17260.26067
573.744	17270.47352
573.948	17358.07067
574.151	17176.27939
574.355	17106.0348
574.558	17104.43229
574.762	17223.06689
574.965	17171.72662
575.169	17271.98956
575.372	17171.52031
575.576	17417.05229
575.779	17042.59784
575.983	17154.09111
576.186	16998.78683
576.389	16961.34974
576.593	16995.8064
576.796	16943.83121
577	16985.02447
577.203	17182.23439
577.406	17001.80522
577.609	16820.34523
577.813	17097.51922
578.016	16951.68778
578.219	16984.17537
578.423	16766.14454
578.626	16630.33106
578.829	16839.86541
579.032	16710.94322
579.235	17064.64751
579.438	16794.57305
579.642	16784.0607
579.845	16806.7893
580.048	16885.22653
580.251	16716.22745
580.454	16808.0322
580.657	16852.55911
580.86	16706.85688
581.063	16753.5997
581.266	16819.57986
581.469	16858.62887
581.672	16540.56621
581.875	16734.16074
582.078	16765.95719
582.281	16705.3428
582.484	16775.68534
582.687	16806.72063
582.89	16809.53656
583.093	16611.07274
583.296	16633.91227
583.499	16920.66999
583.702	16585.8652
583.904	16687.86702
584.107	16619.56232
584.31	16693.3183
584.513	16681.25385
584.716	16702.85032
584.918	16634.62266
585.121	16732.01055
585.324	16766.74073
585.527	16671.66302
585.729	16774.84098
585.932	16682.23282
586.135	16783.14468
586.337	16616.038
586.54	16875.60294
586.743	16766.25221
586.945	16796.7216
587.148	16777.66003
587.35	16645.27437
587.553	16620.85028
587.755	16673.12557
587.958	16684.70785
588.161	16552.66056
588.363	16589.98992
588.566	16500.65393
588.768	16792.35308
588.971	16568.32548
589.173	16601.3551
589.375	16581.77934
589.578	16511.68136
589.78	16658.60359
589.983	16314.18008
590.185	16452.69429
590.387	16297.24433
590.59	16266.44873
590.792	16305.63754
590.994	16000.4391
591.197	16073.221
591.399	15863.69909
591.601	15985.6913
591.803	15830.94323
592.006	15667.77366
592.208	15715.46152
592.41	15572.84869
592.612	15484.42519
592.815	15503.44757
593.017	15576.60134
593.219	15187.48705
593.421	15248.10769
593.623	15105.36953
593.825	15213.36191
594.027	15124.5469
594.229	14925.57071
594.432	14910.74618
594.634	14995.4373
594.836	14861.14663
595.038	14803.95036
595.24	14729.21044
595.442	14821.21475
595.644	14663.74729
595.846	14624.1769
596.048	14844.8989
596.249	14500.98565
596.451	14574.56334
596.653	14614.60106
596.855	14463.76728
597.057	14400.85775
597.259	14384.14132
597.461	14327.36208
597.663	14293.81613
597.864	14182.18663
598.066	14370.07192
598.268	14241.94816
598.47	14096.47704
598.671	14271.55536
598.873	14094.73884
599.075	14202.49821
599.277	14314.58968
599.478	14210.75546
599.68	14420.79366
599.882	14333.96688
600.083	14366.05668
600.285	14381.50939
600.487	14298.35666
600.688	14398.51374
600.89	14324.84407
601.091	14494.03899
601.293	14376.66902
601.494	14327.97028
601.696	14510.94974
601.898	14427.2147
602.099	14485.80408
602.301	14510.40382
602.502	14627.55949
602.703	14685.91042
602.905	14431.60974
603.106	14828.32596
603.308	14739.02699
603.509	14910.76665
603.711	14532.61495
603.912	14652.42739
604.113	14596.59368
604.315	14679.28624
604.516	14865.00251
604.717	14736.76252
604.919	14775.0591
605.12	14771.99663
605.321	14834.72514
605.522	14850.00654
605.724	14823.15799
605.925	14828.52938
606.126	15166.3292
606.327	14935.9606
606.528	15123.8302
606.729	14951.38498
606.931	15159.30664
607.132	15114.51619
607.333	14911.99816
607.534	15255.9085
607.735	15157.3035
607.936	15284.08104
608.137	15154.99971
608.338	15366.97894
608.539	15255.94861
608.74	15245.68546
608.941	15057.69092
609.142	15341.96994
609.343	15255.0851
609.544	15387.18155
609.745	15282.47582
609.946	15377.88089
610.147	15216.07208
610.348	15421.16071
610.549	15298.56227
610.75	15489.81101
610.95	15358.81022
611.151	15281.49676
611.352	15476.24151
611.553	15550.38498
611.754	15319.58906
611.954	15554.71
612.155	15449.25492
612.356	15417.07307
612.557	15356.32077
612.757	15463.71875
612.958	15221.14836
613.159	15378.08493
613.359	15301.27543
613.56	15290.32262
613.761	15446.81154
613.961	15374.41146
614.162	15187.62486
614.362	15275.05613
614.563	15307.30427
614.764	15449.85916
614.964	15165.80098
615.165	15324.70974
615.365	15219.50955
615.566	15105.70293
615.766	15335.88736
615.967	15358.75692
616.167	15099.48646
616.368	15031.00871
616.568	15145.41691
616.768	15051.43254
616.969	15299.18119
617.169	15209.40467
617.37	15093.7007
617.57	15146.71693
617.77	15079.69179
617.971	15190.17875
618.171	14882.49175
618.371	14989.9995
618.571	14912.62931
618.772	14960.37982
618.972	14798.42692
619.172	14928.19575
619.372	14713.52531
619.573	14826.515
619.773	14864.06685
619.973	14780.74541
620.173	14923.45444
620.373	14903.25764
620.573	14738.12182
620.774	14791.97836
620.974	14790.55286
621.174	14852.87573
621.374	14707.29942
621.574	14803.11971
621.774	14641.0407
621.974	14818.85491
622.174	14735.00912
622.374	14735.49791
622.574	14797.80735
622.774	14695.16435
622.974	14548.31555
623.174	14711.97904
623.374	14677.689
623.574	14847.62567
623.774	14697.69773
623.973	14877.72127
624.173	14617.86257
624.373	14705.22526
624.573	14697.52403
624.773	14640.1965
624.973	14688.06409
625.172	14579.28336
625.372	14521.73024
625.572	14635.73122
625.772	14678.21776
625.971	14440.40891
626.171	14594.16218
626.371	14565.2166
626.57	14261.26578
626.77	14512.15842
626.97	14421.33988
627.169	14416.12164
627.369	14390.78431
627.569	14504.71591
627.768	14269.07058
627.968	14369.06139
628.167	14349.67487
628.367	14387.96119
628.566	14374.60526
628.766	14251.1657
628.965	14413.80231
629.165	14422.60864
629.364	14235.91944
629.564	14327.11118
629.763	14341.63943
629.963	14202.14665
630.162	14276.10079
630.362	14099.97773
630.561	14162.36814
630.76	14145.70261
630.96	13856.80099
631.159	13951.74251
631.358	13985.67748
631.558	13992.39458
631.757	13966.75933
631.956	13905.07511
632.155	13888.83992
632.355	13761.29189
632.554	13861.31577
632.753	13829.99503
632.952	13767.19704
633.152	13707.81301
633.351	13861.66024
633.55	13875.49848
633.749	13759.30374
633.948	13862.55079
634.147	13716.9931
634.346	13630.24811
634.545	13764.43781
634.744	13574.8386
634.944	13584.1433
635.143	13471.51377
635.342	13440.63688
635.541	13641.02303
635.74	13621.84453
635.939	13492.74214
636.138	13384.56841
636.336	13352.93279
636.535	13581.82625
636.734	13626.92152
636.933	13547.4943
637.132	13424.11181
637.331	13372.16631
637.53	13426.46404
637.729	13297.18985
637.928	13566.15294
638.126	13452.23338
638.325	13343.06168
638.524	13424.22372
638.723	13378.72946
638.921	13388.30882
639.12	13430.40495
639.319	13361.75518
639.518	13527.99153
639.716	13246.99464
639.915	13265.84057
640.114	13361.28567
640.312	13520.37915
640.511	13483.82909
640.71	13500.5174
640.908	13431.93073
641.107	13440.75459
641.305	13322.3475
641.504	13298.43947
641.702	13282.32052
641.901	13479.40035
642.099	13340.84163
642.298	13378.94886
642.496	13272.78354
642.695	13212.44863
642.893	13371.76266
643.092	13287.10823
643.29	13310.01185
643.489	13277.52723
643.687	13270.29513
643.885	13225.94642
644.084	13270.6995
644.282	13166.91491
644.48	13318.69921
644.679	13588.29822
644.877	13365.8321
645.075	13112.1845
645.274	13169.78029
645.472	13257.84766
645.67	13105.13476
645.868	13171.57775
646.067	13155.43206
646.265	13164.38818
646.463	13225.25236
646.661	13087.78675
646.859	13107.90991
647.057	13052.84653
647.256	13060.68028
647.454	13112.34116
647.652	13054.95023
647.85	12875.68028
648.048	13036.01512
648.246	13065.80622
648.444	13016.94508
648.642	12811.97047
648.84	12762.96519
649.038	12769.9237
649.236	12648.06656
649.434	12698.83473
649.632	12606.98787
649.83	12546.87445
650.028	12577.58987
650.226	12492.35399
650.423	12446.02834
650.621	12386.70288
650.819	12294.63261
651.017	12393.46107
651.215	12408.33326
651.413	12306.55457
651.61	12300.15416
651.808	12154.75079
652.006	12123.6079
652.204	12149.78173
652.401	12088.30954
652.599	11985.17327
652.797	11961.848
652.995	12057.4273
653.192	11786.4013
653.39	12023.12809
653.588	11931.75762
653.785	11863.43487
653.983	11844.08052
654.18	11722.68234
654.378	11809.90584
654.576	11790.78418
654.773	11685.51368
654.971	11727.39601
655.168	11668.7752
655.366	11650.5315
655.563	11654.67248
655.761	11522.83058
655.958	11632.18397
656.156	11641.17115
656.353	11633.34228
656.55	11502.25592
656.748	11620.29646
656.945	11474.8609
657.143	11342.56389
657.34	11485.81015
657.537	11504.65933
657.735	11397.11115
657.932	11171.02956
658.129	11275.84246
658.326	11207.88086
658.524	11359.92061
658.721	11278.1351
658.918	11192.34961
659.115	11143.50695
659.313	11260.67093
659.51	11013.54955
659.707	10965.75032
659.904	10978.59167
660.101	10986.13958
660.298	11012.32557
660.496	11022.03558
660.693	11015.3982
660.89	10981.84611
661.087	10918.98618
661.284	11018.10772
661.481	11052.35528
661.678	10964.09007
661.875	10987.31753
662.072	11014.81512
662.269	10961.09389
662.466	11058.87422
662.663	11092.42675
662.86	11051.3888
663.057	11042.22484
663.254	11058.80951
663.45	11012.97792
663.647	11081.98473
663.844	11088.63455
664.041	10958.17071
664.238	11097.51607
664.435	10944.51923
664.631	10977.7259
664.828	11042.56058
665.025	11141.2041
665.222	10985.17364
665.419	10998.82031
665.615	11189.19291
665.812	11134.29006
666.009	11094.07136
666.205	11078.92807
666.402	11146.58359
666.599	11058.32797
666.795	11316.87182
666.992	11332.13185
667.188	11338.98283
667.385	11243.66727
667.582	11355.8036
667.778	11206.11405
667.975	11304.70899
668.171	11266.26047
668.368	11397.05741
668.564	11267.00316
668.761	11313.3313
668.957	11295.08015
669.154	11380.20687
669.35	11284.12539
669.547	11231.96384
669.743	11311.52985
669.939	11314.02635
670.136	11316.7946
670.332	11418.04965
670.528	11191.24851
670.725	11315.2
670.921	11372.69045
671.117	11519.17897
671.314	11382.96269
671.51	11447.39417
671.706	11402.37006
671.902	11464.61717
672.099	11407.57708
672.295	11067.62054
672.491	11372.07767
672.687	11271.60238
672.883	11114.69907
673.08	11328.01893
673.276	11348.97866
673.472	11349.36239
673.668	11249.12129
673.864	11377.67315
674.06	11165.74608
674.256	11193.77082
674.452	11057.70329
674.648	11184.98285
674.844	11218.54692
675.04	11274.57695
675.236	11069.03984
675.432	11171.43716
675.628	11075.08216
675.824	11101.12573
676.02	11105.95525
676.216	11033.75615
676.412	11027.29532
676.608	11025.25719
676.804	11048.4088
676.999	11132.78254
677.195	10876.92085
677.391	11019.54614
677.587	10964.87869
677.783	11021.56447
677.978	10895.52608
678.174	11043.36133
678.37	10950.12575
678.566	10960.32686
678.761	10945.7676
678.957	10901.98015
679.153	10860.59611
679.348	10824.36025
679.544	10962.64673
679.74	10837.73917
679.935	10842.15164
680.131	10904.4831
680.327	10856.56165
680.522	10698.37435
680.718	10802.37961
680.913	10717.87619
681.109	10681.46542
681.304	10820.86663
681.5	10823.88862
681.695	10705.21854
681.891	10683.1501
682.086	10776.25585
682.282	10650.64645
682.477	10686.23107
682.672	10633.8146
682.868	10575.68109
683.063	10553.3652
683.259	10648.7337
683.454	10632.64841
683.649	10581.64032
683.845	10569.49952
684.04	10653.35613
684.235	10615.12758
684.43	10582.61833
684.626	10494.19976
684.821	10664.02252
685.016	10557.38525
685.211	10718.90986
685.407	10374.45583
685.602	10436.76488
685.797	10484.72372
685.992	10351.75921
686.187	10613.20165
686.382	10453.09067
686.577	10207.58155
686.773	10360.04949
686.968	10336.25841
687.163	10340.28179
687.358	10278.9024
687.553	10494.04713
687.748	10359.64069
687.943	10313.01633
688.138	10262.58169
688.333	10347.69566
688.528	10194.17516
688.723	10234.91644
688.918	10146.1946
689.112	10125.2304
689.307	10018.99012
689.502	9891.82225
689.697	9782.92074
689.892	9872.79953
690.087	9780.32394
690.282	9807.45278
690.476	9769.09961
690.671	9699.36577
690.866	9467.53717
691.061	9602.87462
691.255	9411.25695
691.45	9508.65419
691.645	9467.11261
691.84	9321.38607
692.034	9269.01019
692.229	9218.37753
692.424	9135.69134
692.618	9224.52939
692.813	9180.67174
693.007	9175.7261
693.202	9040.66493
693.397	9059.66714
693.591	8874.58831
693.786	8976.62666
693.98	8823.22882
694.175	8830.77235
694.369	8840.82812
694.564	8830.59109
694.758	8855.82897
694.953	8683.44616
695.147	8747.69943
695.342	8671.80106
695.536	8643.77634
695.73	8535.44734
695.925	8562.9272
696.119	8569.35437
696.313	8521.63564
696.508	8475.00539
696.702	8431.56997
696.896	8262.10863
697.091	8368.31122
697.285	8426.97849
697.479	8253.45401
697.673	8261.77734
697.868	8326.04198
698.062	8363.04437
698.256	8148.90985
698.45	8128.26894
698.644	8147.6384
698.839	8146.794
699.033	8212.26275
699.227	8282.59198
699.421	8184.2906
699.615	8277.41518
699.809	8319.17938
700.003	8331.93147
700.197	8316.69668
700.391	8298.92694
700.585	8178.03502
700.779	8237.44581
700.973	8340.23529
701.167	8164.39327
701.361	8273.8343
701.555	8266.87104
701.749	8279.95611
701.943	8191.84895
702.137	8373.4661
702.331	8272.98038
702.525	8302.46953
702.718	8301.39647
702.912	8292.1701
703.106	8227.54207
703.3	8004.12716
703.494	8135.70551
703.687	8306.16118
703.881	8231.44694
704.075	8281.47286
704.269	8070.70859
704.462	8258.53136
704.656	8302.68459
704.85	8306.13295
705.043	8267.50922
705.237	8132.89684
705.431	8234.4772
705.624	8113.56648
705.818	8090.90729
706.012	8163.13341
706.205	8281.37409
706.399	8101.79513
706.592	8157.32301
706.786	8170.93414
706.979	8254.66875
707.173	8198.42225
707.366	8348.29978
707.56	8203.24135
707.753	8208.99935
707.947	8237.90301
708.14	8220.59437
708.333	8180.51795
708.527	8260.85728
708.72	8190.56769
708.914	8259.80432
709.107	8322.0892
709.3	8209.79155
709.494	8151.03612
709.687	8173.07037
709.88	8390.3708
710.073	8318.53672
710.267	8362.24748
710.46	8206.25156
710.653	8402.1017
710.846	8323.47437
711.04	8257.80646
711.233	8295.95093
711.426	8241.58626
711.619	8344.26372
711.812	8298.08847
712.005	8381.96397
712.198	8379.52301
712.391	8442.13162
712.585	8369.43731
712.778	8316.48596
712.971	8454.73149
713.164	8458.48902
713.357	8447.95471
713.55	8510.07221
713.743	8453.63359
713.936	8428.44448
714.129	8452.34615
714.322	8375.03971
714.514	8591.65046
714.707	8342.88603
714.9	8506.22388
715.093	8468.27998
715.286	8455.52097
715.479	8467.90625
715.672	8515.61351
715.864	8565.28172
716.057	8510.94125
716.25	8552.37253
716.443	8567.90794
716.636	8396.16921
716.828	8569.96993
717.021	8561.07713
717.214	8576.15072
717.406	8641.41966
717.599	8558.69161
717.792	8525.12061
717.984	8365.25569
718.177	8445.10154
718.37	8375.76807
718.562	8411.76584
718.755	8359.89787
718.947	8171.23976
719.14	8157.51718
719.333	8129.61381
719.525	7991.15306
719.718	7965.97856
719.91	8000.00923
720.103	7828.22065
720.295	7726.79977
720.487	7757.78376
720.68	7640.17935
720.872	7614.14154
721.065	7407.00717
721.257	7501.58424
721.449	7236.65732
721.642	7226.68526
721.834	7035.47942
722.026	7159.56176
722.219	6827.93371
722.411	6912.88145
722.603	6804.43903
722.796	6817.71193
722.988	6697.99235
723.18	6648.95088
723.372	6520.69462
723.565	6547.5882
723.757	6500.46521
723.949	6457.7781
724.141	6407.14315
724.333	6423.03473
724.525	6309.10188
724.717	6253.51179
724.91	6252.22752
725.102	6260.82283
725.294	6106.88034
725.486	6096.38263
725.678	5962.93993
725.87	6047.11424
726.062	6017.33691
726.254	5995.06025
726.446	5822.76837
726.638	5824.61223
726.83	5824.41832
727.022	5789.33578
727.213	5727.18526
727.405	5842.05637
727.597	5699.06452
727.789	5660.97071
727.981	5688.78122
728.173	5751.92132
728.365	5711.41458
728.556	5713.89816
728.748	5503.28973
728.94	5657.87197
729.132	5609.78068
729.324	5487.38707
729.515	5449.89712
729.707	5514.48016
729.899	5517.89188
730.09	5619.17586
730.282	5562.60485
730.474	5571.01201
730.665	5484.04637
730.857	5555.10883
731.049	5571.37156
731.24	5508.54309
731.432	5489.41757
731.623	5481.71793
731.815	5591.8606
732.006	5671.72046
732.198	5523.89448
732.389	5545.75864
732.581	5500.35203
732.772	5535.59194
732.964	5460.08988
733.155	5554.56446
733.347	5544.16737
733.538	5562.51734
733.729	5553.06601
733.921	5510.32788
734.112	5627.1274
734.304	5617.28653
734.495	5628.77602
734.686	5722.60501
734.877	5725.35751
735.069	5540.36258
735.26	5770.69631
735.451	5715.52527
735.643	5674.39183
735.834	5729.42545
736.025	5916.34405
736.216	5844.55406
736.407	5760.65322
736.599	5856.0563
736.79	5959.50828
736.981	5984.90871
737.172	6020.47321
737.363	6084.41553
737.554	6034.50777
737.745	6020.65772
737.936	6218.1453
738.127	6207.80558
738.318	6284.17178
738.509	6337.27499
738.7	6269.21239
738.891	6345.06089
739.082	6458.02788
739.273	6387.80858
739.464	6464.03337
739.655	6475.09039
739.846	6327.32797
740.037	6588.72193
740.228	6578.96553
740.419	6637.17184
740.609	6718.36274
740.8	6852.08036
740.991	6726.34828
741.182	6649.48268
741.373	6744.1562
741.563	6986.94012
741.754	6931.38744
741.945	6926.76113
742.136	6956.6211
742.326	7073.90838
742.517	7063.14824
742.708	6954.35173
742.898	7030.52552
743.089	6985.9187
743.28	7025.34449
743.47	7158.17421
743.661	7179.14815
743.851	7173.12087
744.042	7179.48939
744.233	7346.21975
744.423	7345.66022
744.614	7296.63721
744.804	7360.64142
744.995	7294.2603
745.185	7163.6698
745.376	7398.79642
745.566	7467.4889
745.756	7402.20065
745.947	7371.12159
746.137	7606.49386
746.328	7444.55355
746.518	7489.34352
746.708	7494.85216
746.899	7492.85219
747.089	7575.78818
747.279	7483.22513
747.47	7596.94306
747.66	7567.39301
747.85	7583.69808
748.04	7645.30859
748.231	7559.87556
748.421	7662.28096
748.611	7658.28882
748.801	7707.09025
748.991	7682.84848
749.182	7724.16875
749.372	7703.7143
749.562	7666.58786
749.752	7715.75912
749.942	7614.45883
750.132	7766.47147
750.322	7767.29321
750.512	7695.90249
750.702	7800.17861
750.892	7683.09088
751.082	7829.36269
751.272	7739.66082
751.462	7817.54737
751.652	7746.65308
751.842	7710.55969
752.032	7726.79977
752.222	7853.39671
752.412	7830.22377
752.602	7850.71926
752.792	7818.91507
752.981	7752.67448
753.171	7727.00146
753.361	7804.07688
753.551	7849.31878
753.741	7847.25974
753.93	7720.25391
754.12	7623.00406
754.31	7794.84501
754.5	7805.52309
754.689	7759.7408
754.879	7790.51602
755.069	7674.71877
755.258	7779.97151
755.448	7728.64308
755.638	7659.70846
755.827	7697.24408
756.017	7717.04874
756.206	7704.6492
756.396	7721.63495
756.586	7718.04026
756.775	7689.59865
756.965	7643.42595
757.154	7707.22113
757.344	7683.24054
757.533	7602.11111
757.723	7427.43553
757.912	7638.57545
758.101	7577.5999
758.291	7726.01633
758.48	7506.85018
758.67	7580.24716
758.859	7494.53444
759.048	7574.54279
759.238	7613.35835
759.427	7572.6166
759.616	7548.99695
759.806	7565.26711
759.995	7549.89631
760.184	7421.40536
760.373	7417.37711
760.563	7425.41218
760.752	7437.86224
760.941	7339.59274
761.13	7258.82691
761.319	7200.4118
761.509	7130.00987
761.698	7079.61376
761.887	7003.00982
762.076	6991.96081
762.265	6850.95249
762.454	6831.79575
762.643	6712.78146
762.832	6511.39979
763.021	6463.46057
763.21	6418.34479
763.399	6234.00046
763.588	6110.01099
763.777	6066.84328
763.966	5881.18193
764.155	5869.29455
764.344	5695.33478
764.533	5567.27411
764.722	5524.35938
764.911	5432.05812
765.1	5269.83001
765.288	5263.34298
765.477	5211.91519
765.666	4911.63502
765.855	4994.98471
766.044	4808.03455
766.232	4812.85722
766.421	4654.26264
766.61	4525.76392
766.799	4545.12535
766.987	4371.61863
767.176	4373.13257
767.365	4285.99311
767.553	4235.64692
767.742	4165.25517
767.931	4142.00683
768.119	4094.04181
768.308	4071.08671
768.497	4067.22867
768.685	4012.43551
768.874	4030.59167
769.062	4009.90471
769.251	3946.04619
769.439	3946.15691
769.628	3884.41464
769.816	3899.76439
770.005	3975.33621
770.193	3968.68183
770.382	4136.04164
770.57	4053.44656
770.758	4234.95866
770.947	4216.55623
771.135	4251.49561
771.323	4310.75038
771.512	4272.70876
771.7	4358.81274
771.888	4466.18442
772.077	4527.60198
772.265	4612.47898
772.453	4613.71717
772.642	4728.20111
772.83	4795.92671
773.018	4850.60702
773.206	4763.98383
773.394	4944.76125
773.583	4960.20074
773.771	5078.40326
773.959	5132.77219
774.147	5218.27905
774.335	5336.6074
774.523	5249.87852
774.711	5461.19657
774.899	5362.35756
775.087	5497.06218
775.275	5630.8575
775.463	5499.60316
775.651	5718.71799
775.839	5706.92929
776.027	5784.17203
776.215	5895.3033
776.403	5844.59634
776.591	5964.59975
776.779	6022.72157
776.967	5993.68894
777.155	6022.9588
777.343	6097.22761
777.531	6055.3764
777.718	6069.91545
777.906	6152.463
778.094	6073.60783
778.282	6283.56282
778.47	6185.51229
778.657	6311.85859
778.845	6100.3612
779.033	6201.15747
779.22	6122.8239
779.408	6212.52782
779.596	6219.39846
779.783	6301.63384
779.971	6184.87786
780.159	6309.54103
780.346	6173.00677
780.534	6320.53266
780.722	6190.02105
780.909	6215.78394
781.097	6216.83622
781.284	6203.35135
781.472	6275.57112
781.659	6200.21858
781.847	6194.02953
782.034	6158.79088
782.222	6146.35457
782.409	6259.09707
782.597	6204.11185
782.784	6068.99058
782.971	6266.75752
783.159	6235.22178
783.346	6256.75836
783.533	6192.52807
783.721	6208.81216
783.908	6166.63652
784.095	6044.74354
784.283	6111.23469
784.47	6104.02305
784.657	6209.29338
784.844	5916.16985
785.032	6087.3851
785.219	6042.73912
785.406	6070.6988
785.593	6030.30985
785.78	6187.96129
785.968	6072.01118
786.155	6082.65127
786.342	5945.1288
786.529	5980.6016
786.716	5912.7812
786.903	5960.77646
787.09	5975.57481
787.277	5944.95126
787.464	5883.88461
787.651	6000.78317
787.838	5835.94339
788.025	5921.31656
788.212	5854.72212
788.399	5842.88402
788.586	5767.32065
788.773	5863.58779
788.96	5762.68327
789.147	5916.71544
789.334	5708.91409
789.521	5806.27131
789.707	5727.74467
789.894	5739.33679
790.081	5709.5492
790.268	5688.60245
790.455	5599.64906
790.641	5748.00274
790.828	5612.80912
791.015	5627.7249
791.202	5614.57318
791.388	5581.41741
791.575	5541.79964
791.762	5446.77395
791.948	5479.88648
792.135	5573.76468
792.322	5387.07236
792.508	5437.62516
792.695	5405.48656
792.881	5359.93513
793.068	5397.01388
793.254	5365.11217
793.441	5359.40248
793.627	5335.7001
793.814	5182.66853
794	5280.6613
794.187	5215.82878
794.373	5269.72865
794.56	5218.83855
794.746	5230.24158
794.933	5291.17646
795.119	5137.9031
795.305	5212.9139
795.492	5147.96511
795.678	5110.0994
795.864	5122.06572
796.051	5032.44387
796.237	5146.27809
796.423	5090.55
796.61	5011.87471
796.796	5026.06765
796.982	5086.42731
797.168	5058.14753
797.355	5099.26803
797.541	5058.15536
797.727	4959.08254
797.913	5035.47029
798.099	4920.25636
798.285	4985.81943
798.471	4955.28076
798.658	4904.36016
798.844	4934.69038
799.03	4928.19959
799.216	4943.9779
799.402	4885.99958
799.588	4940.84473
799.774	4910.9647
799.96	4861.93456
800.146	4873.57256
800.332	4833.82095
800.518	4821.03909
800.704	4938.71934
800.89	4875.80873
801.075	4864.95142
801.261	4800.99386
801.447	4901.33704
801.633	4839.63661
801.819	4852.51613
802.005	4811.41869
802.19	4812.18846
802.376	4835.37484
802.562	4746.3707
802.748	4801.86453
802.934	4878.60544
803.119	4815.44598
803.305	4780.36477
803.491	4820.02137
803.676	4796.50235
803.862	4733.50312
804.048	4787.51366
804.233	4713.75214
804.419	4734.72043
804.605	4709.35848
804.79	4744.47995
804.976	4742.25076
805.161	4731.57597
805.347	4550.85401
805.532	4586.99469
805.718	4656.18057
805.903	4667.15516
806.089	4605.63354
806.274	4627.42687
806.46	4658.62212
806.645	4690.21278
806.831	4598.66862
807.016	4685.12703
807.201	4676.20239
807.387	4641.63599
807.572	4622.17772
807.757	4687.34073
807.943	4678.53019
808.128	4610.76312
808.313	4627.92727
808.499	4624.43721
808.684	4618.81748
808.869	4613.32042
809.054	4644.28671
809.24	4649.87926
809.425	4469.47341
809.61	4512.09544
809.795	4591.29017
809.98	4606.2262
810.165	4616.11745
810.35	4503.27713
810.536	4601.40727
810.721	4520.17926
810.906	4485.14361
811.091	4579.26922
811.276	4512.39524
811.461	4487.13829
811.646	4569.11202
811.831	4485.19041
812.016	4566.57091
812.201	4520.92373
812.386	4430.42248
812.571	4504.23582
812.756	4454.82249
812.941	4492.34187
813.125	4354.3907
813.31	4403.47231
813.495	4504.07543
813.68	4342.35609
813.865	4410.03929
814.05	4424.50186
814.234	4358.35838
814.419	4294.09939
814.604	4331.47884
814.789	4335.61266
814.973	4269.4553
815.158	4236.56744
815.343	4180.59338
815.528	4101.09426
815.712	4115.5892
815.897	4142.66381
816.081	4171.28844
816.266	3972.87381
816.451	4055.86568
816.635	4037.09309
816.82	4070.3035
817.004	3885.57834
817.189	3928.59964
817.374	3765.38602
817.558	3778.77973
817.743	3821.05042
817.927	3708.21974
818.111	3674.23515
818.296	3687.67341
818.48	3552.08169
818.665	3528.99264
818.849	3481.49769
819.034	3472.954
819.218	3425.99419
819.402	3359.47991
819.587	3299.21328
819.771	3237.77037
819.955	3169.78458
820.14	3182.5442
820.324	3246.17035
820.508	3100.04758
820.692	3097.26838
820.877	3092.67226
821.061	3058.29933
821.245	2987.94638
821.429	2955.29502
821.613	2976.97614
821.798	2914.22553
821.982	2855.38949
822.166	2878.43498
822.35	2850.92636
822.534	2852.89102
822.718	2808.62589
822.902	2792.52481
823.086	2803.94169
823.27	2763.30556
823.454	2773.55901
823.638	2702.27964
823.822	2765.66403
824.006	2769.67983
824.19	2696.24548
824.374	2849.65949
824.558	2634.241
824.742	2693.50708
824.926	2650.62007
825.11	2627.87803
825.294	2656.62947
825.477	2655.56558
825.661	2607.09261
825.845	2599.89728
826.029	2607.61223
826.213	2567.50074
826.396	2631.86646
826.58	2525.35047
826.764	2593.06844
826.948	2574.28806
827.131	2616.49989
827.315	2704.4882
827.499	2626.49423
827.682	2607.34843
827.866	2630.14128
828.05	2651.40344
828.233	2693.30009
828.417	2661.15377
828.6	2697.55107
828.784	2690.35763
828.967	2699.3915
829.151	2727.44458
829.335	2643.91229
829.518	2666.79227
829.701	2691.05443
829.885	2734.58261
830.068	2654.39021
830.252	2696.3574
830.435	2683.36824
830.619	2715.28935
830.802	2625.38018
830.985	2682.92924
831.169	2640.78068
831.352	2637.28114
831.535	2623.47762
831.719	2700.27484
831.902	2684.12619
832.085	2600.86488
832.269	2668.413
832.452	2597.85354
832.635	2620.62317
832.818	2610.33016
833.002	2631.44867
833.185	2669.08448
833.368	2641.27394
833.551	2667.23213
833.734	2669.23893
833.917	2700.65914
834.1	2727.85837
834.284	2740.71305
834.467	2712.40063
834.65	2649.01725
834.833	2759.36312
835.016	2592.14835
835.199	2563.6236
835.382	2690.44434
835.565	2602.02013
835.748	2623.94622
835.931	2635.32475
836.114	2632.86816
836.297	2675.89532
836.479	2652.92178
836.662	2554.93475
836.845	2599.67005
837.028	2539.90309
837.211	2606.22559
837.394	2591.46827
837.577	2652.96349
837.759	2562.32071
837.942	2631.9784
838.125	2583.97661
838.308	2588.62194
838.49	2602.59956
838.673	2666.2943
838.856	2576.97193
839.039	2654.47431
839.221	2645.61996
839.404	2685.08132
839.587	2665.71988
839.769	2717.84123
839.952	2571.52745
840.134	2620.12508
840.317	2694.62599
840.499	2707.36806
840.682	2668.13926
840.865	2656.03424
841.047	2674.50969
841.23	2649.29709
841.412	2720.27074
841.595	2672.16762
841.777	2700.89817
841.959	2756.52604
842.142	2737.27983
842.324	2729.49268
842.507	2760.93611
842.689	2786.42005
842.871	2690.30746
843.054	2795.13121
843.236	2752.38445
843.418	2692.14815
843.601	2772.14643
843.783	2743.47708
843.965	2783.18367
844.147	2780.14706
844.33	2849.99374
844.512	2781.50472
844.694	2784.56171
844.876	2804.91755
845.059	2782.83301
845.241	2827.98421
845.423	2748.0859
845.605	2787.95138
845.787	2829.13128
845.969	2825.89273
846.151	2807.04309
846.333	2818.01106
846.515	2738.21823
846.697	2840.77184
846.879	2847.49431
847.061	2786.99146
847.243	2757.99388
847.425	2782.9302
847.607	2822.62655
847.789	2830.62623
847.971	2769.60489
848.153	2733.35316
848.335	2740.13215
848.517	2787.5188
848.699	2800.99975
848.881	2759.07361
849.062	2756.90801
849.244	2727.11982
849.426	2785.21843
849.608	2682.46454
849.789	2813.67752
849.971	2731.7863
850.153	2760.8375
850.335	2707.35379
850.516	2776.45428
850.698	2784.30134
850.88	2792.25167
851.061	2793.34043
851.243	2708.4831
851.425	2767.48774
851.606	2786.21083
851.788	2738.2991
851.969	2615.68913
852.151	2697.47661
852.333	2694.08312
852.514	2693.1989
852.696	2670.8595
852.877	2697.75915
853.059	2744.25763
853.24	2698.63973
853.422	2675.52501
853.603	2663.39202
853.784	2670.52381
853.966	2712.24427
854.147	2648.6058
854.329	2571.9368
854.51	2650.18575
854.691	2673.88089
854.873	2676.85976
855.054	2556.65063
855.235	2621.44761
855.416	2584.5796
855.598	2606.71298
855.779	2583.98109
855.96	2549.56499
856.141	2545.16341
856.323	2539.30535
856.504	2594.68662
856.685	2555.00982
856.866	2481.76679
857.047	2548.11005
857.228	2469.75677
857.409	2422.92511
857.591	2438.5635
857.772	2416.34686
857.953	2482.63523
858.134	2453.12279
858.315	2348.17682
858.496	2479.63983
858.677	2396.81274
858.858	2372.54604
859.039	2306.93676
859.22	2368.25248
859.401	2328.87514
859.582	2355.46373
859.762	2429.44055
859.943	2427.7939
860.124	2326.10421
860.305	2347.92275
860.486	2347.04469
860.667	2351.05504
860.848	2306.90082
861.028	2268.36465
861.209	2356.33003
861.39	2319.13524
861.571	2362.55096
861.751	2310.7952
861.932	2317.08094
862.113	2308.80763
862.293	2294.40147
862.474	2344.16216
862.655	2372.79966
862.835	2301.00064
863.016	2262.82484
863.197	2361.48549
863.377	2374.85528
863.558	2254.21176
863.738	2272.11794
863.919	2245.67591
864.099	2271.14225
864.28	2249.3115
864.46	2282.42787
864.641	2250.92718
864.821	2284.17472
865.002	2271.78857
865.182	2281.10099
865.363	2294.65844
865.543	2288.40998
865.723	2327.44751
865.904	2243.68456
866.084	2328.44191
866.264	2300.53678
866.445	2280.99143
866.625	2268.94253
866.805	2245.81466
866.986	2320.29884
867.166	2271.65182
867.346	2164.74828
867.526	2218.30291
867.707	2149.37251
867.887	2187.48322
868.067	2244.39139
868.247	2281.00663
868.427	2239.84718
868.607	2132.78667
868.788	2134.08224
868.968	2187.78724
869.148	2160.90112
869.328	2118.14308
869.508	2097.26011
869.688	2121.17522
869.868	2107.81977
870.048	2130.25059
870.228	2147.81806
870.408	2114.35203
870.588	2087.6907
870.768	2051.89086
870.948	2079.22052
871.128	2139.99497
871.307	2112.16021
871.487	2056.54966
871.667	2113.70273
871.847	2019.15817
872.027	2078.43775
872.207	2072.69884
872.387	2032.59547
872.566	2068.30137
872.746	1932.79882
872.926	2052.64441
873.106	2047.87243
873.285	2001.97866
873.465	2036.77136
873.645	2026.22567
873.824	2015.22177
874.004	1944.11628
874.184	1988.74682
874.363	2026.61519
874.543	1967.49617
874.723	1959.47034
874.902	1918.98238
875.082	1976.775
875.261	1971.04473
875.441	1982.51497
875.62	1946.48854
875.8	1946.76138
875.979	1891.65357
876.159	1891.01247
876.338	1950.72125
876.518	1963.44673
876.697	1889.50928
876.876	1934.46842
877.056	1937.23856
877.235	1994.25513
877.415	1955.3809
877.594	1951.18878
877.773	1977.36223
877.953	1881.55182
878.132	1898.51316
878.311	1920.42044
878.49	1911.52474
878.67	1864.6386
878.849	1899.7742
879.028	1840.41718
879.207	1818.57506
879.387	1878.86014
879.566	1872.03632
879.745	1841.03478
879.924	1880.62321
880.103	1865.10297
880.282	1841.4958
880.461	1878.55586
880.64	1852.93139
880.819	1863.65935
880.998	1797.68583
881.178	1876.51072
881.357	1898.37867
881.536	1831.32006
881.715	1887.92396
881.893	1818.58458
882.072	1803.6097
882.251	1788.36166
882.43	1812.1609
882.609	1797.41627
882.788	1785.89357
882.967	1779.4595
883.146	1723.99818
883.325	1816.34972
883.503	1788.18188
883.682	1745.67256
883.861	1753.11375
884.04	1691.71247
884.219	1798.58566
884.397	1714.64868
884.576	1788.07518
884.755	1788.96874
884.933	1712.64065
885.112	1763.79948
885.291	1722.43719
885.469	1783.93738
885.648	1693.03398
885.827	1723.33413
886.005	1715.27348
886.184	1672.64842
886.363	1722.09357
886.541	1702.15086
886.72	1787.40364
886.898	1683.82251
887.077	1664.69795
887.255	1681.58381
887.434	1607.91288
887.612	1625.34601
887.791	1657.87012
887.969	1674.82336
888.147	1674.65769
888.326	1637.59178
888.504	1614.92669
888.682	1607.60824
888.861	1691.55971
889.039	1687.59494
889.218	1701.54741
889.396	1650.4571
889.574	1663.3832
889.752	1652.5305
889.931	1583.62186
890.109	1610.12202
890.287	1630.44738
890.465	1589.31151
890.643	1635.02937
890.822	1619.05885
891	1659.43702
891.178	1582.07923
891.356	1643.17079
891.534	1623.6468
891.712	1627.65685
891.89	1589.11382
892.068	1602.54915
892.247	1646.6688
892.425	1685.39319
892.603	1602.1733
892.781	1589.86258
892.959	1553.32241
893.137	1581.28669
893.314	1598.91114
893.492	1573.67716
893.67	1524.06854
893.848	1543.34759
894.026	1619.44688
894.204	1535.88896
894.382	1500.57394
894.56	1554.79595
894.738	1575.37477
894.915	1552.6295
895.093	1586.08358
895.271	1598.1087
895.449	1526.26818
895.626	1530.7705
895.804	1546.48121
895.982	1512.78901
896.16	1415.23878
896.337	1521.35736
896.515	1479.37856
896.693	1505.67683
896.87	1476.08464
897.048	1495.63643
897.225	1411.90999
897.403	1473.05143
897.581	1418.20603
897.758	1465.42763
897.936	1389.43022
898.113	1353.19697
898.291	1399.8289
898.468	1388.28509
898.646	1404.45803
898.823	1355.39247
899.001	1284.13762
899.178	1287.51985
899.356	1280.28127
899.533	1279.12687
899.71	1283.52653
899.888	1256.47742
900.065	1236.57151
900.242	1265.94381
900.42	1182.29301
900.597	1186.77001
900.774	1121.39632
900.952	1157.58377
901.129	1130.34099
901.306	1087.65692
901.483	1081.27809
901.661	1092.91639
901.838	1090.49217
902.015	1058.57815
902.192	1015.30287
902.369	1005.82477
902.546	1027.59965
902.723	985.98396
902.901	973.37944
903.078	927.83626
903.255	925.80701
903.432	940.45865
903.609	890.01904
903.786	858.84048
903.963	879.1264
904.14	881.25244
904.317	799.48515
904.494	847.23289
904.671	838.55164
904.848	811.61825
905.024	806.00133
905.201	779.61539
905.378	760.75447
905.555	887.65691
905.732	814.03084
905.909	812.21404
906.086	750.05091
906.262	814.05956
906.439	789.94579
906.616	824.20958
906.793	807.28366
906.969	749.8749
907.146	854.43259
907.323	870.94879
907.5	803.93046
907.676	850.97111
907.853	825.17513
908.03	844.56975
908.206	834.13289
908.383	841.66045
908.559	821.27431
908.736	860.91199
908.912	847.62826
909.089	803.45896
909.266	812.59182
909.442	856.36518
909.619	836.79003
909.795	846.81496
909.972	811.90165
910.148	826.69681
910.324	842.7398
910.501	810.72785
910.677	854.3669
910.854	846.03854
911.03	821.8011
911.206	894.55369
911.383	819.05411
911.559	793.69517
911.735	799.67903
911.912	789.80544
912.088	822.53058
912.264	795.48446
912.44	823.11516
912.617	792.71557
912.793	728.5294
912.969	786.69827
913.145	781.13141
913.321	772.53077
913.498	777.4113
913.674	685.03409
913.85	752.27301
914.026	781.38428
914.202	775.44996
914.378	750.88234
914.554	754.53747
914.73	709.78779
914.906	658.48934
915.082	701.32457
915.258	717.9471
915.434	657.66475
915.61	650.013
915.786	678.5483
915.962	655.44988
916.138	656.20417
916.314	590.85779
916.49	621.19781
916.665	611.1694
916.841	647.35475
917.017	584.8031
917.193	578.59912
917.369	571.92687
917.545	585.40498
917.72	570.82862
917.896	614.07758
918.072	597.37012
918.247	610.76383
918.423	571.58255
918.599	629.68117
918.775	560.30134
918.95	549.03477
919.126	569.63901
919.301	554.5024
919.477	508.98758
919.653	556.86144
919.828	536.98811
920.004	520.66105
920.179	551.56118
920.355	502.37206
920.53	569.36505
920.706	566.11047
920.881	558.86671
921.057	585.36269
921.232	531.15123
921.408	576.79336
921.583	587.57992
921.759	555.39759
921.934	560.88189
922.109	598.85071
922.285	512.41897
922.46	546.24968
922.635	529.1442
922.811	512.25073
922.986	588.00638
923.161	537.3678
923.336	540.09335
923.512	579.94924
923.687	528.3417
923.862	530.42934
924.037	614.72828
924.212	617.01097
924.388	574.59155
924.563	576.46522
924.738	585.29929
924.913	595.19167
925.088	581.45991
925.263	618.73449
925.438	585.78921
925.613	628.15824
925.788	606.50826
925.963	625.62921
926.138	601.31296
926.313	588.11261
926.488	548.98754
926.663	603.20051
926.838	631.15602
927.013	613.49731
927.188	605.68108
927.363	572.70165
927.538	580.46681
927.713	575.52364
927.888	602.04968
928.062	596.16046
928.237	621.46605
928.412	587.78254
928.587	623.25664
928.761	606.1236
928.936	627.12845
929.111	560.88189
929.286	611.63722
929.46	590.82586
929.635	545.91399
929.81	558.36781
929.984	594.79592
930.159	553.40024
930.334	560.25029
930.508	543.08983
930.683	567.85085
930.857	515.51449
931.032	511.91541
931.206	555.30579
931.381	529.22108
931.556	482.31639
931.73	487.19859
931.904	489.13123
932.079	495.51464
932.253	473.8036
932.428	450.9762
932.602	453.39283
932.777	434.36941
932.951	444.67944
933.125	415.96364
933.3	445.43017
933.474	447.22346
933.648	366.35227
933.823	350.44639
933.997	388.41359
934.171	352.12546
934.345	305.6328
934.52	320.16485
934.694	344.40549
934.868	343.20725
935.042	337.13033
935.217	282.34182
935.391	278.55033
935.565	317.13162
935.739	243.93992
935.913	249.7235
936.087	259.80491
936.261	193.14445
936.435	259.16779
936.609	232.23265
936.783	220.15239
936.957	203.28989
937.131	177.01704
937.305	159.46813
937.479	169.67571
937.653	148.0314
937.827	166.77835
938.001	188.65065
938.175	168.82223
938.349	111.07924
938.523	137.4712
938.697	152.3897
938.87	99.34088
939.044	124.01352
939.218	129.58582
939.392	120.43209
939.566	77.48297
939.739	88.54654
939.913	97.25195
940.087	98.47942
940.261	102.28519
940.434	56.04403
940.608	107.73398
940.782	92.19817
940.955	92.25781
941.129	85.40311
941.302	78.06033
941.476	74.69124
941.65	84.53688
941.823	54.25993
941.997	63.73679
942.17	94.56942
942.344	90.32705
942.517	122.85239
942.691	96.90143
942.864	109.74452
943.038	105.41171
943.211	68.90451
943.385	99.92691
943.558	96.69967
943.731	114.2732
943.905	86.61756
944.078	70.46618
944.251	107.82544
944.425	156.12995
944.598	103.47332
944.771	105.54775
944.945	128.80235
945.118	84.82107
945.291	89.52323
945.464	130.79722
945.638	90.53368
945.811	107.49789
945.984	118.97726
946.157	67.09835
946.33	86.6604
946.503	109.85227
946.677	125.09489
946.85	94.89797
947.023	109.37968
947.196	82.16449
947.369	102.29687
947.542	96.9088
947.715	133.69701
947.888	87.6345
948.061	135.60479
948.234	100.12034
948.407	97.6848
948.58	112.96915
948.753	127.80958
948.926	102.23082
949.099	107.51013
949.271	113.95482
949.444	100.3099
949.617	101.81807
949.79	98.91209
949.963	119.34014
950.136	127.73704
950.308	87.87166
950.481	115.79803
950.654	100.10136
950.827	117.66117
950.999	74.01985
951.172	117.56709
951.345	80.16875
951.517	81.95005
951.69	55.49937
951.863	101.67913
952.035	54.38222
952.208	111.16164
952.381	74.70262
952.553	89.07568
952.726	135.53396
952.898	67.11369
953.071	103.39283
953.243	104.55665
953.416	135.62535
953.588	90.20142
953.761	74.24929
953.933	109.85227
954.106	72.44781
954.278	101.13121
954.45	105.93923
954.623	125.03037
954.795	102.80193
954.967	69.57078
955.14	76.28986
955.312	66.42445
955.484	85.26854
955.657	82.16136
955.829	90.10322
956.001	121.1696
956.173	71.43273
956.346	77.47708
956.518	57.83443
956.69	100.24745
956.862	105.96338
957.034	77.02658
957.207	95.22286
957.379	116.54191
957.551	97.99449
957.723	84.73495
957.895	109.6201
958.067	96.21903
958.239	111.53117
958.411	63.97516
958.583	119.32655
958.755	114.85004
958.927	75.4803
959.099	98.13245
959.271	105.5036
959.443	112.18147
959.615	105.27975
959.787	135.26388
959.959	64.76836
960.13	90.32705
960.302	102.12669
960.474	118.82935
960.646	157.8258
960.818	114.73813
960.99	93.1393
961.161	80.50756
961.333	89.2079
961.505	121.52361
961.677	107.80909
961.848	95.09291
962.02	78.27226
962.192	75.13312
962.363	118.29686
962.535	99.68413
962.707	84.30018
962.878	104.17637
963.05	89.34021
963.221	80.95215
963.393	70.65237
963.564	139.34205
963.736	110.5896
963.907	105.74754
964.079	73.56666
964.25	137.33852
964.422	90.96745
964.593	99.669
964.765	112.16871
964.936	129.5172
965.108	81.20073
965.279	90.9951
965.45	78.0514
965.622	86.86774
965.793	125.45909
965.964	102.15771
966.136	114.2263
966.307	140.16236
966.478	138.58504
966.65	101.03082
966.821	145.30015
966.992	107.8582
967.163	95.88335
967.334	133.70713
967.506	143.52364
967.677	92.65275
967.848	146.16796
968.019	125.92589
968.19	99.49435
968.361	119.19656
968.532	86.63402
968.703	131.78451
968.874	96.02078
969.045	88.86541
969.216	127.55672
969.387	108.26895
969.558	148.63016
969.729	115.40519
969.9	151.10972
970.071	126.33534
970.242	150.84589
970.413	133.05575
970.584	137.34372
970.755	121.23848
970.926	130.822
971.097	156.10633
971.267	99.10958
971.438	148.16567
971.609	141.85733
971.78	57.38463
971.951	126.03784
972.121	150.10643
972.292	142.80536
972.463	187.58818
972.633	159.41636
972.804	113.91599
972.975	156.27707
973.145	150.62775
973.316	162.27566
973.487	146.78955
973.657	164.42804
973.828	177.6819
973.998	147.84112
974.169	164.57102
974.339	179.59143
974.51	138.65502
974.68	185.32181
974.851	178.99802
975.021	166.79725
975.192	207.72095
975.362	175.6806
975.533	206.11522
975.703	182.04723
975.874	170.59305
976.044	167.38224
976.214	230.08941
976.385	172.32307
976.555	160.98926
976.725	159.3923
976.896	152.30081
977.066	192.25328
977.236	174.56796
977.406	171.13953
977.577	130.91905
977.747	184.69213
977.917	190.02205
978.087	208.7205
978.257	157.29603
978.427	150.01153
978.598	126.73503
978.768	191.79837
978.938	156.87802
979.108	196.93221
979.278	154.63369
979.448	159.51021
979.618	190.14112
979.788	152.94345
979.958	168.74213
980.128	166.57337
980.298	159.76416
980.468	170.8747
980.638	164.58968
980.808	173.21184
980.978	185.18871
981.148	173.79761
981.317	151.02979
981.487	160.54157
981.657	144.27095
981.827	138.39265
981.997	171.97281
982.167	151.54603
982.336	125.90679
982.506	150.36984
982.676	153.05535
982.846	176.98369
983.015	131.91638
983.185	126.87088
983.355	155.64683
983.524	134.27185
983.694	177.23421
983.864	160.52339
984.033	159.56444
984.203	134.81619
984.372	144.26005
984.542	134.12944
984.712	171.12434
984.881	182.36242
985.051	139.91735
985.22	156.12405
985.39	166.75947
985.559	183.63643
985.728	161.10118
985.898	161.07078
986.067	190.34348
986.237	206.52079
986.406	184.13945
986.576	145.22331
986.745	154.96944
986.914	168.04763
987.084	167.96519
987.253	138.64278
987.422	183.13903
987.591	143.07243
987.761	163.25249
987.93	165.88923
988.099	168.98503
988.268	187.72132
988.438	165.13054
988.607	168.04128
988.776	162.33237
988.945	178.27958
989.114	197.61123
989.283	160.74114
989.452	191.91029
989.621	184.92992
989.791	134.1396
989.96	130.12081
990.129	188.62938
990.298	178.34672
990.467	150.61637
990.636	167.91029
990.805	184.87421
990.974	170.28037
991.142	179.09644
991.311	179.1775
991.48	203.69168
991.649	142.25664
991.818	137.833
991.987	220.86542
992.156	202.27278
992.325	162.99164
992.493	126.69989
992.662	185.18967
992.831	155.35847
993	128.39855
993.168	145.05982
993.337	190.94618
993.506	202.00539
993.675	210.51146
993.843	173.79106
994.012	182.26424
994.181	206.87526
994.349	190.45539
994.518	157.34359
994.686	166.64756
994.855	161.79107
995.024	146.6378
995.192	199.08852
995.361	179.21509
995.529	151.21022
995.698	203.26694
995.866	143.58864
996.035	155.11719
996.203	177.12897
996.371	183.7276
996.54	201.46101
996.708	160.41148
996.877	185.49659
997.045	149.55951
997.213	181.65664
997.382	147.46082
997.55	137.67419
997.718	196.76108
997.887	193.62557
998.055	159.21057
998.223	205.85688
998.391	160.49917
998.56	182.36242
998.728	187.3846
998.896	161.53058
999.064	182.6414
999.232	178.24824
999.401	174.6733
999.569	163.92476
999.737	122.52602
999.905	166.66014
1000.073	145.36261
1000.241	152.3897
1000.409	172.5534
1000.577	138.72319
1000.745	181.80279
1000.913	162.68045
1001.081	165.74604
1001.249	166.09428
1001.417	185.9373
1001.585	152.6966
1001.753	184.615
1001.921	182.44685
1002.089	153.49716
1002.256	154.30377
1002.424	169.16423
1002.592	120.28373
1002.76	212.95819
1002.928	167.39308
1003.096	154.56267
1003.263	132.08525
1003.431	148.15448
1003.599	142.48583
1003.767	156.63641
1003.934	146.49817
1004.102	121.52821
1004.27	113.70087
1004.437	135.66025
1004.605	153.08426
1004.773	176.22029
1004.94	151.76991
1005.108	128.38873
1005.275	132.97522
1005.443	146.80617
1005.61	158.8868
1005.778	149.73809
1005.945	191.21721
1006.113	159.33454
1006.28	116.52423
1006.448	133.36631
1006.615	146.81171
1006.783	137.14067
1006.95	149.3243
1007.118	141.08445
1007.285	148.27758
1007.452	157.81525
1007.62	143.46049
1007.787	162.57466
1007.954	120.25645
1008.122	120.95501
1008.289	165.08708
1008.456	104.36853
1008.623	109.96002
1008.791	92.46411
1008.958	85.84092
1009.125	119.08917
1009.292	159.40432
1009.459	112.94344
1009.627	121.924
1009.794	118.41773
1009.961	131.89142
1010.128	78.58408
1010.295	99.80361
1010.462	96.89775
1010.629	113.87315
1010.796	119.12984
1010.963	131.67261
1011.13	114.39375
1011.297	137.38009
1011.464	116.63614
1011.631	144.41564
1011.798	116.64941
1011.965	122.30223
1012.132	96.32727
1012.299	124.68509
1012.466	91.10009
1012.633	149.313
1012.799	143.15187
1012.966	96.36021
1013.133	158.13917
1013.3	127.04534
1013.467	139.37893
1013.633	76.38433
1013.8	136.29703
1013.967	98.95349
1014.134	85.72252
1014.3	112.85723
1014.467	86.10072
1014.634	100.5679
1014.8	102.14607
1014.967	93.30642
1015.134	108.7248
1015.3	122.17185
1015.467	101.80647
1015.633	95.78965
1015.8	139.4803
1015.966	103.04529
1016.133	80.85255
1016.3	101.78716
1016.466	95.00628
1016.632	91.77503
1016.799	120.87974
1016.965	120.19915
1017.132	103.60095
1017.298	90.77473
1017.465	96.15099
1017.631	114.42412
1017.797	62.63714
1017.964	103.46547
1018.13	71.45176
1018.296	84.16586
1018.463	95.25183
1018.629	106.29516
1018.795	110.28741
1018.961	85.30094
1019.128	118.87887
1019.294	85.39986
1019.46	87.77311
1019.626	92.44652
1019.792	115.88357
1019.959	80.26539
1020.125	81.85372
1020.291	69.10992
1020.457	123.482
1020.623	80.27455
1020.789	69.21919
1020.955	114.7599
1021.121	76.24338
1021.287	94.11459
1021.453	85.75512
1021.619	92.66331
1021.785	91.32391
1021.951	81.81637
1022.117	115.09131
1022.283	72.79731
1022.449	76.58777
1022.615	71.90756
1022.781	66.84404
1022.946	77.91577
1023.112	129.61531
1023.278	82.81698
1023.444	46.77767
1023.61	68.58181
1023.775	108.84498
1023.941	37.15228
1024.107	96.69599
1024.273	97.47209
1024.438	98.73333
1024.604	91.90793
1024.77	92.06184
1024.935	116.58757
1025.101	91.10355
1025.267	81.27553
1025.432	90.87973
1025.598	77.62445
1025.763	63.90228
1025.929	93.79312
1026.095	61.18474
1026.26	76.92054
1026.426	81.6392
1026.591	66.20823
1026.757	84.09236
1026.922	71.80112
1027.087	62.63714
1027.253	66.66855
1027.418	93.25835
1027.584	98.22944
1027.749	71.13232
1027.914	100.25126
1028.08	67.20001
1028.245	77.8098
1028.41	119.67594
1028.576	65.74061
1028.741	98.45323
1028.906	89.747
1029.072	64.55437
1029.237	82.7397
1029.402	46.21637
1029.567	78.25439
1029.732	42.193
1029.898	105.39167
1030.063	94.13607
1030.228	121.78893
1030.393	60.64605
1030.558	85.72252
1030.723	62.53955
1030.888	76.16338
1031.053	87.67788
1031.218	17.14477
1031.383	74.25495
1031.548	36.15795
1031.713	71.47354
1031.878	79.27045
1032.043	49.35734
1032.208	85.17608
1032.373	53.71478
1032.538	34.92843
1032.703	39.85386
1032.868	26.33173
1033.033	27.23668
1033.198	48.9171
1033.362	74.47311
1033.527	66.89495
1033.692	50.11791
1033.857	53.47458
1034.021	78.80785
1034.186	37.85385
1034.351	73.01279
1034.516	46.66933
1034.68	78.81384
1034.845	46.44904
1035.01	40.628
1035.174	59.97442
1035.339	65.99197
1035.504	78.39014
1035.668	74.58786
1035.833	37.4003
1035.997	48.46932
1036.162	87.08163
1036.326	81.60812
1036.491	79.17361
1036.655	73.70942
1036.82	51.15025
1036.984	75.80737
1037.149	48.56826
1037.313	42.8726
1037.478	60.28952
1037.642	60.85599
1037.807	64.55683
1037.971	32.36109
1038.135	67.10346
1038.3	70.47425
1038.464	77.91873
1038.628	54.02583
1038.792	77.58307
1038.957	52.79919
1039.121	56.04403
1039.285	45.88417
1039.449	103.80902
1039.614	34.37026
1039.778	55.50361
1039.942	33.24875
1040.106	61.87034
1040.27	10.10663
1040.434	52.71145
1040.599	76.83205
1040.763	11.00017
1040.927	30.45637
1041.091	76.38725
1041.255	82.9667
1041.419	40.28923
1041.583	61.73015
1041.747	74.47878
1041.911	45.56063
1042.075	38.17948
1042.239	54.59148
1042.403	26.2228
1042.567	36.15519
1042.731	62.31569
1042.894	51.58226
1043.058	75.3885
1043.222	25.76216
1043.386	69.67474
1043.55	53.70657
1043.714	47.35532
1043.877	34.0502
1044.041	52.25572
1044.205	57.61942
1044.369	66.11145
1044.532	99.15853
1044.696	13.12861
1044.86	15.81474
1045.023	87.0982
1045.187	17.03944
1045.351	37.05315
1045.514	49.363
1045.678	-7.79561
1045.841	33.14827
