Data from Subt1__2__18-43-30-775.txt Node

Date: Tue Oct 07 18:43:30 EDT 2025
User: brett
Spectrometer: USB4F03499
Trigger mode: 4
Integration Time (sec): 1.230000E-3
Scans to average: 1
Electric dark correction enabled: true
Nonlinearity correction enabled: true
Boxcar width: 0
XAxis mode: Wavelengths
Number of Pixels in Spectrum: 3648
>>>>>Begin Spectral Data<<<<<
345.386	-19.07342
345.605	-19.07342
345.824	-19.07342
346.044	36.1842
346.263	-19.08889
346.482	-8.93756
346.701	9.11971
346.92	32.81913
347.139	0.09399
347.358	-32.64498
347.577	12.50506
347.796	1.22287
348.015	3.47831
348.234	5.73896
348.453	-1.03322
348.672	-12.32179
348.891	-10.06046
349.11	0.09405
349.329	-16.82947
349.548	-23.59614
349.767	12.51136
349.986	-3.28953
350.205	9.12253
350.424	-5.54714
350.643	9.11971
350.862	13.62046
351.08	-30.38121
351.299	30.5398
351.518	13.62466
351.737	-13.43518
351.956	11.36735
352.174	1.22206
352.393	-33.72888
352.612	19.25689
352.831	21.52047
353.049	18.13559
353.268	40.70491
353.487	9.10917
353.705	-26.96639
353.924	32.79125
354.143	31.68026
354.361	7.9898
354.58	-8.93409
354.798	-7.79849
355.017	-3.2903
355.236	31.68026
355.454	19.25763
355.673	82.39794
355.891	0.09396
356.11	20.40814
356.328	41.81443
356.547	-25.85534
356.765	33.9194
356.984	-15.70458
357.202	-17.94835
357.42	4.59977
357.639	-37.1262
357.857	13.63044
358.076	0.09401
358.294	-15.70033
358.512	38.43391
358.731	15.88774
358.949	23.78507
359.167	0.09394
359.386	-7.79519
359.604	-17.94765
359.822	24.906
360.04	54.22515
360.259	14.76676
360.477	46.30693
360.695	28.29219
360.913	-10.05038
361.131	21.51135
361.35	58.76333
361.568	-3.28966
361.786	3.47523
362.004	-7.79909
362.222	39.55927
362.44	13.61418
362.658	-17.94696
362.876	10.24693
363.094	9.11724
363.312	21.51218
363.53	6.85984
363.749	36.18979
363.967	29.41047
364.184	14.75933
364.402	-12.31083
364.62	37.3113
364.838	-1.03365
365.056	-3.28979
365.274	19.26282
365.492	14.74229
365.71	-50.62572
365.928	60.99392
366.146	1.22183
366.364	11.36386
366.581	30.53039
366.799	5.73142
367.017	19.2643
367.235	57.59393
367.453	57.60058
367.67	49.66834
367.888	26.0053
368.106	26.02128
368.323	0.09391
368.541	69.95422
368.759	24.88396
368.977	14.74455
369.194	49.7008
369.412	51.94367
369.629	55.31136
369.847	9.10567
370.065	37.27257
370.282	92.50058
370.5	49.67978
370.717	66.58538
370.935	27.12513
371.152	32.75727
371.37	74.4871
371.588	92.54328
371.805	20.36731
372.022	58.68189
372.24	67.72667
372.457	32.77864
372.675	57.56293
372.892	86.82769
373.11	64.33389
373.327	143.07785
373.544	56.4285
373.762	46.25549
373.979	90.17417
374.196	38.3867
374.414	128.59667
374.631	92.50413
374.848	69.92206
375.066	92.50058
375.283	66.57515
375.5	91.28101
375.717	73.27424
375.935	143.26446
376.152	135.34444
376.369	110.51432
376.586	24.85732
376.803	68.81292
377.02	92.38036
377.238	72.18564
377.455	75.5722
377.672	65.39699
377.889	78.98366
378.106	98.08438
378.323	101.54715
378.54	72.14425
378.757	104.75437
378.974	62.04177
379.191	172.46285
379.408	96.93024
379.625	74.3505
379.842	104.79432
380.059	122.76066
380.276	94.68545
380.493	102.59365
380.71	110.37922
380.927	138.53207
381.143	106.02768
381.36	101.39171
381.577	127.3205
381.794	67.62303
382.011	112.65143
382.228	136.23951
382.444	152.05004
382.661	162.14047
382.878	127.22835
383.095	171.16932
383.311	181.14404
383.528	221.74643
383.745	139.58058
383.962	144.04194
384.178	164.36614
384.395	145.21892
384.612	150.82396
384.828	118.2726
385.045	163.28758
385.261	162.12813
385.478	107.09507
385.695	201.36334
385.911	173.38734
386.128	164.31618
386.344	133.90777
386.561	172.19983
386.777	123.85542
386.994	145.23548
387.21	94.65291
387.427	159.78049
387.643	95.75489
387.86	139.74027
388.076	116.03925
388.292	144.26714
388.509	138.51096
388.725	172.29156
388.942	122.88736
389.158	181.15778
389.374	167.75762
389.591	86.75145
389.807	136.25506
390.023	143.99285
390.239	147.44095
390.456	201.27196
390.672	212.63196
390.888	162.09114
391.104	169.8213
391.321	166.43344
391.537	201.25676
391.753	189.93236
391.969	227.11825
392.185	272.03462
392.401	300.0671
392.618	252.77334
392.834	216.89252
393.05	303.01116
393.266	301.81594
393.482	250.48956
393.698	267.31808
393.914	308.00758
394.13	245.98873
394.346	295.46161
394.562	208.89173
394.778	248.39324
394.994	264.89372
395.21	298.57901
395.426	271.80947
395.642	348.73384
395.858	350.21389
396.073	367.5544
396.289	378.06624
396.505	334.37717
396.721	337.47251
396.937	368.73625
397.153	307.63718
397.369	282.80495
397.584	383.76776
397.8	384.65313
398.016	352.22169
398.232	416.86882
398.447	354.41195
398.663	430.28299
398.879	355.52669
399.094	454.46299
399.31	459.17684
399.526	405.79926
399.741	463.23024
399.957	388.82078
400.173	474.43619
400.388	504.12169
400.604	405.40919
400.82	474.19304
401.035	495.48679
401.251	575.72439
401.466	526.59233
401.682	636.78661
401.897	693.78518
402.113	689.42187
402.328	679.75958
402.544	775.59499
402.759	785.97842
402.974	801.86157
403.19	787.7945
403.405	965.92505
403.621	1003.44989
403.836	1019.59621
404.051	1043.81364
404.267	1170.99618
404.482	1030.73314
404.697	1098.80798
404.913	1146.02746
405.128	1351.541
405.343	1105.86147
405.559	1281.39359
405.774	1292.7586
405.989	1513.04566
406.204	1495.51507
406.42	1444.58433
406.635	1490.12791
406.85	1450.39218
407.065	1490.16975
407.28	1523.65528
407.495	1569.16525
407.71	1522.3765
407.926	1565.01298
408.141	1696.05455
408.356	1687.97577
408.571	1637.94108
408.786	1643.69619
409.001	1672.84416
409.216	1739.59413
409.431	1793.65904
409.646	1660.23216
409.861	1803.99877
410.076	1721.72042
410.291	1781.04411
410.506	1732.10866
410.721	1796.06618
410.936	1829.66794
411.15	1703.02899
411.365	1758.95753
411.58	1867.88915
411.795	1747.27977
412.01	1881.3098
412.225	1884.74558
412.439	1862.95822
412.654	1792.73756
412.869	1897.88038
413.084	1811.11989
413.299	1890.62016
413.513	1707.53507
413.728	1920.7144
413.943	1860.65006
414.157	2044.18159
414.372	1977.71171
414.587	1993.95494
414.801	2185.67896
415.016	2017.76675
415.231	2098.16117
415.445	2055.04644
415.66	2067.50163
415.874	2284.33997
416.089	2086.27674
416.304	2296.56103
416.518	2166.39061
416.733	2212.04689
416.947	2172.31109
417.162	2173.0203
417.376	2160.15621
417.59	2467.47262
417.805	2396.88926
418.019	2307.11658
418.234	2357.22513
418.448	2246.59115
418.663	2305.26278
418.877	2330.85644
419.091	2372.11232
419.306	2242.42976
419.52	2417.08908
419.734	2345.80264
419.949	2492.40403
420.163	2463.04046
420.377	2419.66858
420.591	2459.77191
420.806	2431.95144
421.02	2425.2777
421.234	2562.21713
421.448	2461.80804
421.663	2480.47782
421.877	2477.2321
422.091	2383.56156
422.305	2385.9599
422.519	2352.42867
422.733	2666.05128
422.947	2491.93921
423.161	2511.93241
423.376	2440.60262
423.59	2598.28768
423.804	2499.81626
424.018	2590.08327
424.232	2524.89356
424.446	2703.76859
424.66	2621.40599
424.874	2551.66654
425.088	2468.38103
425.302	2603.68229
425.515	2698.36141
425.729	2736.13388
425.943	2782.98727
426.157	2818.11424
426.371	2676.74888
426.585	2781.05126
426.799	2791.0408
427.013	2933.71166
427.226	3077.4142
427.44	2691.02991
427.654	2751.2299
427.868	2759.91652
428.081	2874.64933
428.295	2762.58454
428.509	2761.29794
428.723	2731.41544
428.936	2814.33304
429.15	2641.12035
429.364	2747.01618
429.577	2558.88466
429.791	2820.37332
430.005	2917.08986
430.218	2749.07766
430.432	2683.28567
430.645	2695.84113
430.859	2618.3847
431.073	2690.00577
431.286	2829.30874
431.5	2954.20187
431.713	2661.54052
431.927	2683.82483
432.14	2814.08814
432.354	2709.43852
432.567	2772.41695
432.781	2807.72548
432.994	2844.36163
433.207	2873.99406
433.421	2923.09134
433.634	3009.7708
433.848	2960.88361
434.061	2841.3032
434.274	2634.14941
434.488	2757.38207
434.701	2691.17344
434.914	2781.5302
435.127	2919.29174
435.341	3064.57667
435.554	2993.34641
435.767	3087.84735
435.98	3158.58851
436.194	2879.63458
436.407	2911.58981
436.62	3220.56021
436.833	3193.69133
437.046	3131.96037
437.259	3052.44574
437.473	3221.68788
437.686	3228.94499
437.899	3193.91011
438.112	3359.97722
438.325	3225.44767
438.538	3274.62147
438.751	3607.06979
438.964	3300.76177
439.177	3351.02966
439.39	3488.87955
439.603	3745.89446
439.816	3506.5064
440.029	3805.01922
440.242	3944.60801
440.455	3981.27221
440.668	3850.70786
440.881	3667.58255
441.094	3673.88738
441.306	3878.27374
441.519	4283.75024
441.732	4225.67926
441.945	4126.66844
442.158	3936.70731
442.37	3868.59369
442.583	4172.89638
442.796	4454.87782
443.009	4362.40648
443.222	4215.81764
443.434	3863.96401
443.647	4465.02768
443.86	4684.85083
444.072	4795.97701
444.285	4449.99646
444.498	4675.46822
444.71	4430.03595
444.923	4629.31496
445.136	4506.02221
445.348	4403.08697
445.561	4396.48807
445.773	4566.32662
445.986	4060.11371
446.198	4660.21224
446.411	4587.31687
446.623	4858.42321
446.836	4789.94387
447.048	4882.92414
447.261	4885.07341
447.473	5081.27441
447.686	4681.16166
447.898	4839.24545
448.11	5112.6811
448.323	5355.01779
448.535	5131.03412
448.748	4863.27459
448.96	4829.98679
449.172	4958.64913
449.385	4687.90511
449.597	5046.21962
449.809	5126.67344
450.021	5256.49199
450.234	5280.70925
450.446	4955.04043
450.658	5018.54602
450.87	5066.60143
451.083	5180.94606
451.295	5291.19102
451.507	5091.38773
451.719	5189.83058
451.931	5301.76936
452.143	5410.87846
452.356	5087.55269
452.568	5292.18791
452.78	5282.06947
452.992	5475.71898
453.204	5485.14815
453.416	5394.636
453.628	5141.5284
453.84	5414.41142
454.052	5274.17199
454.264	5515.68699
454.476	5449.29745
454.688	5799.03153
454.9	5732.49242
455.112	5509.21101
455.324	5330.82257
455.536	5627.46623
455.747	5749.26229
455.959	5620.27581
456.171	5784.80609
456.383	5661.56888
456.595	5503.33569
456.807	5537.2408
457.018	5478.55152
457.23	5751.95176
457.442	5634.88629
457.654	5911.73325
457.865	5723.01563
458.077	5462.94262
458.289	5506.48259
458.501	5691.74619
458.712	5903.24492
458.924	6184.07873
459.136	5824.092
459.347	5802.0907
459.559	5717.54261
459.77	6170.88244
459.982	6192.90854
460.194	6162.06199
460.405	5712.16885
460.617	5839.67171
460.828	6039.39205
461.04	6111.2042
461.251	5946.30067
461.463	6629.35
461.674	6402.60008
461.886	6169.01413
462.097	5878.97554
462.309	6250.81452
462.52	5866.93268
462.731	6506.98169
462.943	6082.05807
463.154	5890.40471
463.366	5988.60057
463.577	6273.42982
463.788	6463.25105
464	6649.11054
464.211	6576.61735
464.422	7132.68928
464.634	6887.3362
464.845	6870.97395
465.056	6845.86665
465.267	6825.55786
465.478	6512.13721
465.69	6825.96779
465.901	6666.61425
466.112	6838.44612
466.323	6940.97717
466.534	7132.96433
466.745	7200.81718
466.957	7091.04626
467.168	7095.59275
467.379	7078.35203
467.59	6838.11731
467.801	6773.28088
468.012	7012.46611
468.223	7166.04972
468.434	6914.48081
468.645	7531.34343
468.856	7595.5923
469.067	7437.41263
469.278	7367.588
469.489	7574.56882
469.7	7183.93187
469.911	7122.17217
470.122	7677.91366
470.333	8124.35527
470.543	7476.95577
470.754	7678.09701
470.965	7798.69727
471.176	7909.10292
471.387	8036.52488
471.598	7873.19664
471.808	7648.18101
472.019	7933.79282
472.23	7870.00575
472.441	7762.36969
472.651	7903.3937
472.862	7957.08893
473.073	8219.52339
473.283	8121.36842
473.494	8035.26296
473.705	8027.09825
473.915	8068.96254
474.126	8542.86857
474.337	8301.93532
474.547	8579.20813
474.758	8669.96623
474.968	8713.27898
475.179	8619.20386
475.389	8640.04428
475.6	8668.29805
475.81	8974.60463
476.021	9077.8328
476.231	9223.03654
476.442	9088.61919
476.652	8895.7188
476.863	8997.78697
477.073	9091.77173
477.284	9153.01296
477.494	9181.39706
477.704	9808.64777
477.915	9958.0856
478.125	9398.03127
478.335	9720.31178
478.546	9890.09007
478.756	9722.65877
478.966	9967.35903
479.177	10047.77863
479.387	10133.40097
479.597	9946.66593
479.807	10051.51875
480.018	9994.39936
480.228	10260.44506
480.438	10382.59484
480.648	10394.18669
480.858	10556.30625
481.068	10200.28276
481.279	10662.92118
481.489	11040.76308
481.699	11192.93714
481.909	10787.74504
482.119	11439.90237
482.329	11524.15802
482.539	11507.88371
482.749	11191.45915
482.959	11498.52131
483.169	11832.56437
483.379	11828.84741
483.589	12049.25624
483.799	11928.13476
484.009	11670.37537
484.219	11912.35271
484.429	12199.84147
484.639	12012.32874
484.849	12268.89316
485.059	12590.88147
485.268	12621.37197
485.478	12760.30398
485.688	12319.20222
485.898	12555.23929
486.108	12826.89282
486.317	12927.93509
486.527	13005.28924
486.737	13372.01305
486.947	13217.52758
487.156	13429.61105
487.366	13152.42335
487.576	12951.80443
487.785	13154.093
487.995	13103.17826
488.205	13342.61809
488.414	13399.77371
488.624	13196.11839
488.834	13385.91925
489.043	13220.58996
489.253	13310.42956
489.462	13417.06426
489.672	13889.07425
489.882	13572.66144
490.091	13752.73717
490.301	13598.41975
490.51	14058.64062
490.72	13898.92667
490.929	14085.08028
491.138	14247.59332
491.348	14123.41077
491.557	14092.0311
491.767	14228.79376
491.976	14050.21205
492.185	14198.81503
492.395	14216.44251
492.604	14514.51581
492.813	14542.56083
493.023	14673.07055
493.232	14469.9702
493.441	14529.49583
493.651	14659.40256
493.86	14548.12538
494.069	14612.18332
494.278	14705.95835
494.488	14799.08039
494.697	14959.95376
494.906	14662.65192
495.115	15085.74163
495.324	14804.18916
495.533	15141.27917
495.743	15220.84273
495.952	15484.82086
496.161	15332.36733
496.37	15488.39591
496.579	15725.65036
496.788	15694.41393
496.997	16039.03306
497.206	15788.50159
497.415	15619.41717
497.624	15835.44998
497.833	15863.41737
498.042	16105.25494
498.251	16228.52929
498.46	16240.13247
498.669	16154.77949
498.878	16224.18148
499.087	16258.66893
499.296	16454.62374
499.504	16348.34966
499.713	16391.55798
499.922	16438.32824
500.131	16486.4424
500.34	16431.95529
500.549	16568.15177
500.757	16362.78006
500.966	16622.19223
501.175	16483.14472
501.384	16847.14682
501.592	16542.74944
501.801	16691.38856
502.01	16509.79191
502.218	16741.4364
502.427	16752.61234
502.636	16729.70088
502.844	16707.47489
503.053	16766.37375
503.262	16507.29701
503.47	16695.13632
503.679	16668.64319
503.887	16834.15372
504.096	16591.3533
504.304	16563.52228
504.513	16668.95327
504.721	16549.16483
504.93	16439.14883
505.138	16646.67326
505.347	16504.96108
505.555	16362.53747
505.764	16484.02497
505.972	16399.5513
506.18	16369.2226
506.389	16369.10052
506.597	16172.14527
506.806	16266.11591
507.014	16357.42216
507.222	16251.63658
507.431	16367.18184
507.639	16168.10819
507.847	16419.22593
508.055	16407.94729
508.264	16270.68519
508.472	16443.60001
508.68	16146.96934
508.888	16286.12724
509.096	16152.29719
509.305	16203.72182
509.513	16045.9772
509.721	16267.79302
509.929	16278.2247
510.137	16259.9883
510.345	16196.10532
510.553	16352.72883
510.762	16047.68132
510.97	16235.14899
511.178	16395.56393
511.386	16416.70879
511.594	16492.16311
511.802	16390.73533
512.01	16188.40177
512.218	16466.71739
512.426	16531.27613
512.634	16575.69905
512.842	16657.59249
513.049	16543.95259
513.257	16626.59988
513.465	16793.9522
513.673	16673.46525
513.881	16784.06482
514.089	16733.08571
514.297	16882.73332
514.504	16705.58773
514.712	16919.11241
514.92	16874.04535
515.128	16942.39106
515.336	16800.5579
515.543	16840.26363
515.751	16978.82073
515.959	16964.42336
516.166	16753.41814
516.374	17052.20682
516.582	17015.29683
516.789	16940.18968
516.997	16897.07201
517.205	16857.32754
517.412	16891.56365
517.62	17090.21229
517.827	17010.48746
518.035	17097.06452
518.243	16886.49342
518.45	16818.74328
518.658	16640.68072
518.865	16548.30496
519.073	16877.59988
519.28	16787.72451
519.488	16632.58256
519.695	16680.96942
519.902	16521.99017
520.11	16580.57874
520.317	16627.63803
520.525	16720.7604
520.732	16314.77043
520.939	16764.57916
521.147	16408.46128
521.354	16658.40805
521.561	16564.55208
521.769	16372.92673
521.976	16336.54476
522.183	16538.06748
522.391	16309.90428
522.598	16510.93032
522.805	16322.85362
523.012	16417.4756
523.219	16284.45121
523.427	16412.19642
523.634	16314.00381
523.841	16413.84814
524.048	16227.90434
524.255	16413.58607
524.462	16353.17249
524.669	16228.47952
524.877	16436.30412
525.084	16378.945
525.291	16502.73174
525.498	16392.03435
525.705	16516.74058
525.912	16624.92057
526.119	16401.28244
526.326	16449.89981
526.533	16340.68652
526.74	16681.34811
526.947	16501.10435
527.153	16595.77117
527.36	16582.41727
527.567	16573.65803
527.774	16365.16506
527.981	16616.92627
528.188	16677.58485
528.395	16758.83093
528.602	16555.41506
528.808	16599.94046
529.015	16479.46252
529.222	16837.14575
529.429	16475.48677
529.635	16727.00454
529.842	16525.32486
530.049	16532.99481
530.256	16361.75035
530.462	16601.2729
530.669	16477.73107
530.876	16545.3139
531.082	16528.75762
531.289	16646.06932
531.495	16503.75464
531.702	16628.8329
531.909	16700.77184
532.115	16743.61297
532.322	16387.85201
532.528	16395.63169
532.735	16480.41115
532.941	16534.87069
533.148	16308.43142
533.354	16297.1632
533.561	16500.14045
533.767	16310.25119
533.974	16413.01968
534.18	16326.50327
534.387	16185.70978
534.593	16241.65019
534.799	16389.58291
535.006	16264.037
535.212	16248.72478
535.418	16501.23553
535.625	16311.59603
535.831	16208.49918
536.037	16232.89534
536.244	16242.48268
536.45	16010.8137
536.656	16097.45239
536.862	16347.19173
537.068	16405.70645
537.275	16373.89651
537.481	16094.46498
537.687	16311.28832
537.893	16410.04542
538.099	16432.21625
538.305	16380.55895
538.512	16216.47236
538.718	16373.35437
538.924	16098.92195
539.13	16130.76746
539.336	16214.21523
539.542	16251.63658
539.748	16342.23826
539.954	16208.85839
540.16	16344.04913
540.366	16282.77638
540.572	16066.14328
540.778	16221.84689
540.984	16173.42889
541.19	16152.60508
541.396	15983.07175
541.602	16069.79088
541.807	16032.13275
542.013	16150.08957
542.219	15869.4414
542.425	15965.08801
542.631	15866.63364
542.837	15863.34595
543.042	15812.67184
543.248	15963.04475
543.454	15682.24653
543.66	15868.96792
543.865	15791.561
544.071	15841.85891
544.277	15631.59633
544.483	15807.63123
544.688	15578.42961
544.894	15731.05887
545.1	15684.13261
545.305	15613.60132
545.511	15657.56205
545.716	15565.20189
545.922	15491.11887
546.128	15446.98203
546.333	15505.98574
546.539	15627.28751
546.744	15666.85179
546.95	15511.89833
547.155	15283.29298
547.361	15363.46839
547.566	15179.17275
547.772	15516.54239
547.977	15377.27457
548.182	15323.40681
548.388	15299.8843
548.593	15268.29731
548.799	15147.32021
549.004	15116.14003
549.209	15143.80604
549.415	15397.9177
549.62	15181.95674
549.825	15145.45813
550.031	14969.50437
550.236	15310.63651
550.441	15260.72987
550.646	15308.04896
550.852	15242.01261
551.057	15078.4423
551.262	15186.81323
551.467	15297.82758
551.672	15115.67222
551.878	15340.63615
552.083	15266.30629
552.288	15192.04284
552.493	15212.34899
552.698	15168.69077
552.903	15070.6801
553.108	15397.65168
553.313	15175.99517
553.518	15277.92907
553.723	15106.90629
553.928	15365.0623
554.133	15193.76941
554.338	15174.66321
554.543	15281.12203
554.748	15107.37012
554.953	15326.23489
555.158	15258.82611
555.363	15103.52499
555.568	15251.519
555.773	15345.57286
555.978	15346.34384
556.182	15373.6318
556.387	15211.56791
556.592	15156.01327
556.797	15315.41523
557.002	15321.85345
557.206	15309.77537
557.411	15272.3511
557.616	15217.19423
557.821	15382.05808
558.025	15271.28598
558.23	15292.78659
558.435	15237.58194
558.64	15096.76093
558.844	15214.07503
559.049	15106.5886
559.253	15126.61326
559.458	15084.54517
559.663	15185.74471
559.867	15011.23012
560.072	14954.90605
560.276	14922.61221
560.481	15019.25678
560.685	14854.88053
560.89	14998.15978
561.094	15026.29103
561.299	14693.252
561.503	14644.48019
561.708	14881.46636
561.912	14792.8149
562.117	14714.97813
562.321	14774.94401
562.525	14656.15161
562.73	14783.56041
562.934	14645.02452
563.139	14545.7493
563.343	14648.99129
563.547	14578.24632
563.752	14520.60754
563.956	14574.1932
564.16	14550.18084
564.364	14562.24953
564.569	14438.49423
564.773	14392.57848
564.977	14477.91076
565.181	14555.81853
565.385	14522.79479
565.59	14476.64967
565.794	14414.41292
565.998	14275.37399
566.202	14238.58505
566.406	14346.96789
566.61	14329.02845
566.814	14197.08435
567.018	14146.25615
567.222	14254.95482
567.426	14099.17842
567.63	13967.5178
567.834	13918.9485
568.038	14083.49255
568.242	13926.86718
568.446	13724.05472
568.65	13843.94987
568.854	13632.50759
569.058	13851.20045
569.262	13774.68107
569.466	13870.21748
569.67	13669.51369
569.874	13646.4711
570.078	13565.18933
570.281	13608.90473
570.485	13590.37545
570.689	13547.28445
570.893	13316.84625
571.097	13476.96133
571.3	13302.29929
571.504	13341.39088
571.708	13239.69894
571.912	13233.55221
572.115	13115.91291
572.319	13261.34756
572.523	12981.59421
572.726	13023.83558
572.93	12969.54488
573.133	13063.52241
573.337	12869.99212
573.541	12921.47705
573.744	12760.79128
573.948	12722.61698
574.151	12730.7923
574.355	12768.24556
574.558	12672.16027
574.762	12801.89654
574.965	12583.38954
575.169	12589.4416
575.372	12519.11295
575.576	12425.07382
575.779	12360.45189
575.983	12398.97541
576.186	12154.78684
576.389	12298.09579
576.593	12154.92162
576.796	12246.70744
577	12065.49302
577.203	12280.11946
577.406	12066.75745
577.609	12107.79139
577.813	11898.0706
578.016	11950.84893
578.219	11942.62783
578.423	12032.39916
578.626	11958.17436
578.829	11994.49795
579.032	11841.90205
579.235	11964.71036
579.438	11902.9269
579.642	11781.90833
579.845	11571.94638
580.048	11789.61939
580.251	11739.52579
580.454	11948.96744
580.657	11737.37644
580.86	11784.25304
581.063	11507.52464
581.266	11742.54027
581.469	11705.77257
581.672	11715.28217
581.875	11686.95523
582.078	11768.0893
582.281	11624.98691
582.484	11700.17061
582.687	11964.05276
582.89	11781.77329
583.093	11507.29745
583.296	11640.62323
583.499	11763.33184
583.702	11636.82314
583.904	11693.58307
584.107	11857.57437
584.31	11754.99117
584.513	11785.24497
584.716	11731.97108
584.918	11940.04575
585.121	11826.99831
585.324	11939.25243
585.527	11894.41362
585.729	11856.17439
585.932	11967.19064
586.135	11870.41796
586.337	11863.83837
586.54	11966.87124
586.743	12010.65736
586.945	11990.95192
587.148	11961.05478
587.35	12037.715
587.553	11928.55
587.755	12060.4402
587.958	11875.55829
588.161	11922.72338
588.363	11909.65225
588.566	11946.21687
588.768	11984.23963
588.971	11965.78676
589.173	11943.66573
589.375	11971.24681
589.578	11728.48751
589.78	11942.12769
589.983	11604.76601
590.185	11713.28546
590.387	11571.67656
590.59	11498.46292
590.792	11533.62554
590.994	11436.54712
591.197	11219.43463
591.399	11264.87858
591.601	11164.16735
591.803	11080.66757
592.006	11042.02787
592.208	11075.27497
592.41	10811.57241
592.612	10783.19382
592.815	10712.24672
593.017	10726.48934
593.219	10474.92175
593.421	10473.96412
593.623	10208.13173
593.825	10501.04744
594.027	10102.83011
594.229	10181.89886
594.432	10147.59656
594.634	10067.07243
594.836	9963.28503
595.038	10036.68794
595.24	9799.40139
595.442	9778.71356
595.644	9818.16374
595.846	9616.68422
596.048	9722.29586
596.249	9605.36461
596.451	9596.99024
596.653	9560.45369
596.855	9437.45247
597.057	9389.68306
597.259	9337.59819
597.461	9286.24217
597.663	9174.16649
597.864	9138.92988
598.066	9213.01557
598.268	9203.95877
598.47	9177.15149
598.671	9147.68069
598.873	9178.957
599.075	9124.86745
599.277	9207.92921
599.478	9230.25304
599.68	9187.7936
599.882	9320.98415
600.083	9161.76213
600.285	9456.6733
600.487	9065.50203
600.688	9369.69932
600.89	9172.5469
601.091	9289.3089
601.293	9386.07471
601.494	9461.90725
601.696	9273.60944
601.898	9443.27087
602.099	9369.07141
602.301	9474.63311
602.502	9393.4401
602.703	9756.68399
602.905	9371.8766
603.106	9833.99588
603.308	9491.30882
603.509	9747.59612
603.711	9478.04561
603.912	9736.1595
604.113	9562.972
604.315	9556.97491
604.516	9616.37242
604.717	9756.79609
604.919	9642.39565
605.12	9792.23336
605.321	9784.93429
605.522	9755.22004
605.724	9942.19467
605.925	9907.05393
606.126	9984.16635
606.327	10077.26135
606.528	10014.69543
606.729	10009.95404
606.931	10103.41371
607.132	10266.25857
607.333	9822.78815
607.534	10097.15271
607.735	10148.98311
607.936	10159.40061
608.137	10129.33585
608.338	10288.11156
608.539	10074.60875
608.74	10236.34833
608.941	10278.77703
609.142	10293.65777
609.343	10324.76904
609.544	10385.9462
609.745	10171.97341
609.946	10549.13095
610.147	10188.39398
610.348	10330.65566
610.549	10315.27721
610.75	10386.5421
610.95	10240.78238
611.151	10394.09415
611.352	10397.19679
611.553	10438.71007
611.754	10401.59562
611.954	10558.66369
612.155	10431.35926
612.356	10450.26741
612.557	10281.11093
612.757	10420.93727
612.958	10440.09882
613.159	10449.11134
613.359	10380.14333
613.56	10495.7593
613.761	10502.93064
613.961	10437.44556
614.162	10307.47939
614.362	10337.28699
614.563	10408.45348
614.764	10506.45187
614.964	10443.84195
615.165	10345.53089
615.365	10417.92271
615.566	10436.39633
615.766	10293.61629
615.967	10453.96013
616.167	10213.53877
616.368	10358.6398
616.568	10259.60907
616.768	10309.91586
616.969	10438.67476
617.169	10305.68929
617.37	10358.11824
617.57	10177.13937
617.77	10189.73725
617.971	10172.59108
618.171	10216.60958
618.371	10257.48768
618.571	10204.94363
618.772	10408.40185
618.972	10225.6416
619.172	10261.51024
619.372	10059.73593
619.573	10184.64285
619.773	10302.91851
619.973	10027.04504
620.173	10170.64214
620.373	10169.14226
620.573	10159.28774
620.774	10278.17668
620.974	10080.19487
621.174	10087.7645
621.374	10183.29903
621.574	10132.81859
621.774	9921.58825
621.974	10128.56256
622.174	9979.98092
622.374	10181.04322
622.574	10000.62753
622.774	9991.53577
622.974	10033.98248
623.174	10172.04386
623.374	10116.6191
623.574	10121.81004
623.774	9918.47748
623.973	10178.06798
624.173	10096.71109
624.373	10045.44196
624.573	9994.49158
624.773	9972.48619
624.973	10035.79613
625.172	10291.84127
625.372	9909.31149
625.572	10132.55346
625.772	9949.74071
625.971	9980.52565
626.171	9864.78539
626.371	10031.69265
626.57	9722.23575
626.77	10010.81473
626.97	9934.82733
627.169	9902.92653
627.369	9800.7568
627.569	9930.60595
627.768	9767.12012
627.968	9889.54456
628.167	9729.52475
628.367	9786.01175
628.566	9796.56082
628.766	9819.38893
628.965	9591.88048
629.165	9684.96107
629.364	9598.23467
629.564	9441.51143
629.763	9576.56342
629.963	9566.60544
630.162	9516.24036
630.362	9501.04946
630.561	9315.34228
630.76	9418.37114
630.96	9292.37837
631.159	9331.40037
631.358	9420.56405
631.558	9353.18081
631.757	9212.83558
631.956	9157.47285
632.155	9041.23213
632.355	9049.3734
632.554	9095.152
632.753	9021.13921
632.952	8987.78352
633.152	8968.01145
633.351	8801.57786
633.55	8908.6291
633.749	8792.97993
633.948	8806.22268
634.147	8746.88937
634.346	8631.61781
634.545	8728.31535
634.744	8681.90955
634.944	8727.87951
635.143	8865.95232
635.342	8721.19387
635.541	8856.46261
635.74	8647.32378
635.939	8766.20377
636.138	8525.67696
636.336	8624.60383
636.535	8578.97001
636.734	8694.95979
636.933	8586.78621
637.132	8649.25511
637.331	8515.55428
637.53	8713.89133
637.729	8578.4078
637.928	8691.65713
638.126	8663.24649
638.325	8569.35628
638.524	8624.5478
638.723	8751.62032
638.921	8608.70488
639.12	8789.06745
639.319	8817.20212
639.518	8737.0378
639.716	8678.58321
639.915	8852.09973
640.114	8792.35038
640.312	8818.9431
640.511	8747.6141
640.71	8910.59443
640.908	8889.25036
641.107	8992.52799
641.305	8707.24677
641.504	8969.59179
641.702	8767.29563
641.901	8868.10108
642.099	8889.33005
642.298	8920.92643
642.496	8830.36008
642.695	8840.1017
642.893	8813.93369
643.092	8980.74694
643.29	8923.59342
643.489	8864.01809
643.687	9048.45314
643.885	8839.49093
644.084	8883.61289
644.282	8925.76165
644.48	9119.43502
644.679	9095.9641
644.877	8918.18537
645.075	8969.72699
645.274	9033.99995
645.472	8928.47091
645.67	8909.01364
645.868	8961.37724
646.067	8872.50106
646.265	9015.23108
646.463	8916.10067
646.661	9039.2841
646.859	8787.56729
647.057	8727.53192
647.256	8960.18866
647.454	8998.25376
647.652	8951.04172
647.85	8836.96346
648.048	8765.62977
648.246	8750.97234
648.444	8751.08091
648.642	8714.91177
648.84	8618.77561
649.038	8681.13127
649.236	8482.56184
649.434	8580.02033
649.632	8306.0455
649.83	8418.5869
650.028	8216.20644
650.226	8347.45121
650.423	8245.12777
650.621	8396.7422
650.819	8086.83937
651.017	8138.81249
651.215	8116.47374
651.413	8123.43134
651.61	7948.53912
651.808	8013.42972
652.006	7960.67256
652.204	7786.4459
652.401	7843.91169
652.599	7845.03988
652.797	7843.6472
652.995	7716.95495
653.192	7632.9353
653.39	7781.57441
653.588	7748.01718
653.785	7605.29782
653.983	7637.34986
654.18	7558.81164
654.378	7527.67639
654.576	7599.92264
654.773	7579.87754
654.971	7471.77367
655.168	7452.80653
655.366	7450.29073
655.563	7439.5806
655.761	7442.98041
655.958	7375.78489
656.156	7396.77853
656.353	7276.64697
656.55	7311.36236
656.748	7381.00059
656.945	7235.59044
657.143	7258.25095
657.34	7267.6218
657.537	7197.64824
657.735	7215.12969
657.932	7101.93995
658.129	7197.87297
658.326	7056.01684
658.524	7257.07374
658.721	7074.25656
658.918	7183.92456
659.115	7084.47399
659.313	7167.69305
659.51	7016.46349
659.707	7177.37156
659.904	6968.25351
660.101	7000.73073
660.298	7143.02407
660.496	7027.1436
660.693	7084.93335
660.89	7198.70654
661.087	7195.3463
661.284	7043.4437
661.481	7114.15118
661.678	7202.33606
661.875	7098.61745
662.072	7184.92295
662.269	7107.89916
662.466	7318.34822
662.663	7217.75006
662.86	7204.27728
663.057	7215.35642
663.254	7210.17068
663.45	7210.02238
663.647	7158.54262
663.844	7269.7103
664.041	7272.04657
664.238	7250.61674
664.435	7308.97526
664.631	7314.26996
664.828	7390.01552
665.025	7211.68525
665.222	7330.68321
665.419	7330.19296
665.615	7451.41827
665.812	7405.27804
666.009	7563.35209
666.205	7498.28687
666.402	7642.92034
666.599	7378.52511
666.795	7598.14348
666.992	7441.88246
667.188	7609.25584
667.385	7674.5609
667.582	7756.54053
667.778	7706.97414
667.975	7872.52991
668.171	7709.68942
668.368	7716.09008
668.564	7749.02335
668.761	7812.16955
668.957	7597.9516
669.154	7759.11718
669.35	7731.41483
669.547	7732.54337
669.743	7870.80963
669.939	7748.4399
670.136	7812.64132
670.332	7665.17223
670.528	7708.80006
670.725	7919.61308
670.921	7764.5861
671.117	7746.69453
671.314	7798.95507
671.51	7729.90637
671.706	7690.56297
671.902	7679.12167
672.099	7850.16197
672.295	7657.88338
672.491	7767.49781
672.687	7801.54635
672.883	7640.13434
673.08	7809.52133
673.276	7873.51944
673.472	7795.84119
673.668	7686.61924
673.864	7774.78267
674.06	7706.8422
674.256	7748.34753
674.452	7656.49192
674.648	7634.61156
674.844	7594.56716
675.04	7745.43425
675.236	7661.7379
675.432	7691.68208
675.628	7585.23312
675.824	7588.9273
676.02	7741.52274
676.216	7622.19377
676.412	7572.95421
676.608	7555.72067
676.804	7460.27779
676.999	7685.78557
677.195	7526.12224
677.391	7606.00322
677.587	7450.72814
677.783	7609.83726
677.978	7453.97678
678.174	7650.29072
678.37	7326.2013
678.566	7593.86036
678.761	7439.14754
678.957	7429.34652
679.153	7381.94533
679.348	7525.68244
679.544	7396.78151
679.74	7396.0834
679.935	7414.6904
680.131	7553.79193
680.327	7426.83871
680.522	7464.77394
680.718	7268.57474
680.913	7445.92115
681.109	7296.47834
681.304	7370.36357
681.5	7456.88117
681.695	7431.35243
681.891	7331.02558
682.086	7421.62757
682.282	7253.26016
682.477	7373.59311
682.672	7284.46052
682.868	7253.83401
683.063	7260.1985
683.259	7311.48838
683.454	7293.70515
683.649	7285.97796
683.845	7251.64943
684.04	7220.79925
684.235	7253.42922
684.43	7154.45632
684.626	7207.24733
684.821	7229.91301
685.016	6935.73165
685.211	7136.83017
685.407	7128.78279
685.602	7171.59882
685.797	7000.8039
685.992	7133.81657
686.187	7134.76958
686.382	7116.37221
686.577	6928.98959
686.773	7005.75407
686.968	6916.73619
687.163	7055.91775
687.358	6899.95236
687.553	6850.11989
687.748	6934.7855
687.943	6958.14055
688.138	6811.7976
688.333	6934.88587
688.528	6726.91537
688.723	6699.77709
688.918	6645.09266
689.112	6624.81186
689.307	6516.36933
689.502	6384.41386
689.697	6393.81538
689.892	6358.95939
690.087	6210.94394
690.282	6270.89333
690.476	5956.17044
690.671	5957.29819
690.866	5878.13434
691.061	5890.84487
691.255	5690.97728
691.45	5777.68165
691.645	5525.30275
691.84	5613.89067
692.034	5476.35889
692.229	5551.19818
692.424	5456.46041
692.618	5507.42784
692.813	5298.73492
693.007	5321.25948
693.202	5083.83913
693.397	5152.35042
693.591	5195.56045
693.786	5111.32543
693.98	4998.80716
694.175	5082.27592
694.369	5020.44792
694.564	5029.46496
694.758	4896.13202
694.953	4873.67325
695.147	4794.44793
695.342	4649.25432
695.536	4646.73575
695.73	4766.13085
695.925	4441.17321
696.119	4532.49127
696.313	4329.32434
696.508	4366.98811
696.702	4293.16546
696.896	4383.73559
697.091	4381.89253
697.285	4469.65109
697.479	4288.63576
697.673	4333.64888
697.868	4280.68131
698.062	4358.24807
698.256	4362.95075
698.45	4318.02521
698.644	4350.42475
698.839	4372.8382
699.033	4225.30486
699.227	4485.88723
699.421	4357.05168
699.615	4375.7622
699.809	4356.77291
700.003	4490.92217
700.197	4320.07035
700.391	4488.2916
700.585	4431.59386
700.779	4525.28443
700.973	4518.36442
701.167	4397.40335
701.361	4426.27141
701.555	4552.61071
701.749	4426.11513
701.943	4330.68699
702.137	4348.42841
702.331	4393.34199
702.525	4395.93849
702.718	4372.98291
702.912	4367.70015
703.106	4356.34781
703.3	4319.23091
703.494	4405.77903
703.687	4299.5379
703.881	4321.12235
704.075	4283.2737
704.269	4274.6934
704.462	4335.06363
704.656	4309.2413
704.85	4421.64942
705.043	4298.69855
705.237	4264.39837
705.431	4360.67953
705.624	4321.09289
705.818	4332.26322
706.012	4388.31315
706.205	4385.67313
706.399	4231.76936
706.592	4462.34186
706.786	4215.78268
706.979	4344.78793
707.173	4203.21609
707.366	4313.12211
707.56	4260.73963
707.753	4339.63416
707.947	4311.91762
708.14	4241.39781
708.333	4086.05208
708.527	4326.16285
708.72	4247.14086
708.914	4266.42944
709.107	4172.77984
709.3	4311.99445
709.494	4184.1502
709.687	4279.91517
709.88	4216.50531
710.073	4244.40378
710.267	4114.57702
710.46	4201.05286
710.653	4312.41458
710.846	4298.04825
711.04	4313.04568
711.233	4314.22327
711.426	4195.82158
711.619	4320.23734
711.812	4307.78381
712.005	4382.88007
712.198	4175.04923
712.391	4310.82002
712.585	4356.62737
712.778	4355.74607
712.971	4301.20037
713.164	4414.11849
713.357	4309.27531
713.55	4338.97032
713.743	4380.09759
713.936	4387.77661
714.129	4383.13977
714.322	4450.52924
714.514	4294.92142
714.707	4527.82367
714.9	4419.92394
715.093	4430.35767
715.286	4371.89571
715.479	4403.45095
715.672	4299.36368
715.864	4456.71555
716.057	4278.02989
716.25	4408.09701
716.443	4350.10684
716.636	4398.36321
716.828	4388.78401
717.021	4369.52587
717.214	4295.08463
717.406	4339.84546
717.599	4235.96783
717.792	4238.43094
717.984	4222.33741
718.177	4138.3535
718.37	4098.67008
718.562	4186.82663
718.755	3880.88118
718.947	4043.26442
719.14	3858.36098
719.333	3901.57256
719.525	3756.68859
719.718	3777.98522
719.91	3557.26665
720.103	3649.20994
720.295	3482.86581
720.487	3492.02431
720.68	3408.01448
720.872	3307.90274
721.065	3060.59433
721.257	3093.82007
721.449	2945.66988
721.642	2939.19642
721.834	2884.20886
722.026	2754.79059
722.219	2717.43906
722.411	2711.87394
722.603	2534.39329
722.796	2664.99928
722.988	2439.51117
723.18	2427.83203
723.372	2289.06703
723.565	2368.52805
723.757	2172.68733
723.949	2236.26683
724.141	2094.77921
724.333	2254.66805
724.525	2052.33268
724.717	2168.32036
724.91	2050.71491
725.102	2015.56855
725.294	1921.66066
725.486	1900.9385
725.678	1787.87928
725.87	1845.19124
726.062	1654.69882
726.254	1750.94985
726.446	1535.53166
726.638	1665.76577
726.83	1480.07159
727.022	1617.32276
727.213	1436.29756
727.405	1568.50332
727.597	1554.80631
727.789	1546.01725
727.981	1447.22525
728.173	1438.0552
728.365	1405.30525
728.556	1465.89002
728.748	1369.38732
728.94	1440.72283
729.132	1481.54616
729.324	1536.12041
729.515	1497.22798
729.707	1430.06514
729.899	1380.94149
730.09	1536.33795
730.282	1412.07243
730.474	1586.9695
730.665	1419.35556
730.857	1416.48962
731.049	1393.55175
731.24	1491.1009
731.432	1408.50126
731.623	1474.62133
731.815	1339.98181
732.006	1452.55119
732.198	1259.07155
732.389	1425.08951
732.581	1305.16679
732.772	1302.42799
732.964	1204.70744
733.155	1233.54291
733.347	1333.34668
733.538	1381.516
733.729	1307.80318
733.921	1460.28468
734.112	1245.44288
734.304	1481.05264
734.495	1316.00772
734.686	1377.58268
734.877	1330.24253
735.069	1445.85645
735.26	1406.05914
735.451	1451.95205
735.643	1468.1112
735.834	1546.49284
736.025	1513.27233
736.216	1589.83462
736.407	1553.00701
736.599	1575.62154
736.79	1636.04754
736.981	1766.22713
737.172	1528.91799
737.363	1848.69076
737.554	1671.12879
737.745	1921.05446
737.936	1748.63146
738.127	1830.60219
738.318	1760.87384
738.509	1939.10656
738.7	1870.50301
738.891	2058.90953
739.082	1929.50801
739.273	2108.61662
739.464	1917.14763
739.655	2200.08011
739.846	1942.09883
740.037	2253.49727
740.228	2076.03123
740.419	2100.605
740.609	2144.62045
740.8	2349.18442
740.991	2230.58863
741.182	2317.52894
741.373	2327.40028
741.563	2467.47262
741.754	2249.05464
741.945	2563.03099
742.136	2306.54447
742.326	2485.86198
742.517	2399.83374
742.708	2517.13682
742.898	2487.55423
743.089	2583.01154
743.28	2505.04545
743.47	2602.64948
743.661	2532.72175
743.851	2640.20267
744.042	2494.36403
744.233	2647.20803
744.423	2606.45558
744.614	2718.1449
744.804	2629.38067
744.995	2607.58355
745.185	2571.36908
745.376	2801.69038
745.566	2689.50904
745.756	2745.09776
745.947	2725.77854
746.137	2836.95471
746.328	2762.36353
746.518	2976.85676
746.708	2845.53729
746.899	2897.11301
747.089	2835.53623
747.279	2919.29174
747.47	2826.81256
747.66	3016.77255
747.85	2815.13504
748.04	2839.28948
748.231	2855.62742
748.421	2941.82332
748.611	2870.3
748.801	3006.80838
748.991	2869.29658
749.182	3083.59913
749.372	2975.12613
749.562	2996.41423
749.752	2907.683
749.942	3024.29244
750.132	2999.83819
750.322	3021.30328
750.512	2998.58455
750.702	3173.43337
750.892	2989.70777
751.082	3043.59727
751.272	3014.42237
751.462	3039.31593
751.652	3009.48783
751.842	3150.09282
752.032	3021.13401
752.222	3157.73239
752.412	3003.48157
752.602	3063.89256
752.792	3010.3626
752.981	3120.76668
753.171	2926.82577
753.361	3104.3723
753.551	2915.55061
753.741	3016.62273
753.93	2970.65862
754.12	2960.92355
754.31	2986.94649
754.5	3051.59759
754.689	2847.22233
754.879	3029.96598
755.069	2842.10503
755.258	2998.42938
755.448	2921.65556
755.638	2987.85981
755.827	2913.0191
756.017	2925.81249
756.206	2736.05501
756.396	2939.91177
756.586	2840.82296
756.775	2970.53149
756.965	2760.74269
757.154	2908.62359
757.344	2773.57212
757.533	2879.99504
757.723	2825.04971
757.912	2833.89634
758.101	2696.22399
758.291	2938.85462
758.48	2825.12115
758.67	2847.49652
758.859	2706.02414
759.048	2871.01899
759.238	2707.53048
759.427	2812.55604
759.616	2688.22391
759.806	2871.2645
759.995	2721.63814
760.184	2785.95603
760.373	2590.66853
760.563	2780.71474
760.752	2603.07192
760.941	2726.03888
761.13	2489.21976
761.319	2619.89484
761.509	2486.44935
761.698	2600.33651
761.887	2352.77741
762.076	2408.88394
762.265	2216.30434
762.454	2246.69456
762.643	2077.28728
762.832	2113.49227
763.021	1958.74735
763.21	1919.32249
763.399	1687.55549
763.588	1800.65062
763.777	1650.67271
763.966	1712.70064
764.155	1478.83791
764.344	1554.39837
764.533	1313.35369
764.722	1390.24797
764.911	1190.93666
765.1	1272.49594
765.288	1077.85711
765.477	1059.84712
765.666	919.27014
765.855	1071.40817
766.044	779.11091
766.232	742.7542
766.421	672.64922
766.61	768.24581
766.799	572.36003
766.987	564.50352
767.176	467.86019
767.365	523.84218
767.553	449.08973
767.742	426.66162
767.931	301.89481
768.119	373.67708
768.308	319.96669
768.497	343.32632
768.685	248.25308
768.874	297.61844
769.062	258.40327
769.251	262.85631
769.439	205.78324
769.628	240.2259
769.816	239.26059
770.005	285.11274
770.193	258.20948
770.382	348.63026
770.57	326.60358
770.758	352.32677
770.947	324.42002
771.135	420.00516
771.323	439.27895
771.512	496.96042
771.7	465.48501
771.888	557.51219
772.077	550.60528
772.265	673.10994
772.453	659.92737
772.642	759.39453
772.83	732.37301
773.018	828.84594
773.206	780.76464
773.394	891.70402
773.583	850.92451
773.771	1082.9011
773.959	914.341
774.147	1099.14972
774.335	1078.68754
774.523	1176.96863
774.711	1137.50254
774.899	1340.47807
775.087	1245.61197
775.275	1390.49286
775.463	1322.79477
775.651	1528.44214
775.839	1482.56938
776.027	1538.24049
776.215	1502.52121
776.403	1644.81425
776.591	1499.13348
776.779	1681.33255
776.967	1484.04388
777.155	1784.74127
777.343	1583.25257
777.531	1742.81685
777.718	1688.12253
777.906	1821.04492
778.094	1725.99303
778.282	1773.72653
778.47	1720.0185
778.657	1896.97771
778.845	1771.52721
779.033	1863.55454
779.22	1854.72021
779.408	1787.12511
779.596	1749.3668
779.783	1942.15241
779.971	1727.65482
780.159	1887.06395
780.346	1799.84994
780.534	1939.71976
780.722	1779.07327
780.909	1879.04994
781.097	1813.778
781.284	1807.03721
781.472	1759.12142
781.659	1853.24236
781.847	1682.98032
782.034	1882.6117
782.222	1749.59095
782.409	1858.02697
782.597	1723.01431
782.784	1811.40766
782.971	1662.9698
783.159	1816.43828
783.346	1767.2419
783.533	1750.83807
783.721	1817.44586
783.908	1791.97495
784.095	1650.9934
784.283	1827.88416
784.47	1680.76673
784.657	1778.28629
784.844	1654.91379
785.032	1753.76238
785.219	1640.52721
785.406	1773.85175
785.593	1686.04705
785.78	1818.46249
785.968	1609.91595
786.155	1767.86605
786.342	1593.65485
786.529	1695.61542
786.716	1640.18809
786.903	1632.40942
787.09	1537.36503
787.277	1757.37405
787.464	1481.39341
787.651	1709.15443
787.838	1520.07021
788.025	1594.19302
788.212	1559.31969
788.399	1606.8208
788.586	1520.67158
788.773	1588.32838
788.96	1497.86261
789.147	1619.28032
789.334	1383.38315
789.521	1561.27025
789.707	1447.27339
789.894	1519.39264
790.081	1310.92217
790.268	1447.36971
790.455	1343.27684
790.641	1414.70414
790.828	1330.68814
791.015	1519.79399
791.202	1268.02664
791.388	1333.49091
791.575	1201.35403
791.762	1298.22315
791.948	1296.61591
792.135	1270.01509
792.322	1172.09091
792.508	1266.64199
792.695	1128.08675
792.881	1210.9398
793.068	1083.08764
793.254	1162.97592
793.441	1121.51017
793.627	1267.45627
793.814	1004.15938
794	1192.88515
794.187	1116.21479
794.373	1096.06003
794.56	968.60095
794.746	1142.86741
794.933	947.15688
795.119	1040.7916
795.305	1000.77677
795.492	1127.4291
795.678	871.74409
795.864	1078.52889
796.051	956.76131
796.237	1038.8469
796.423	847.78086
796.61	1007.22025
796.796	883.42834
796.982	1007.54239
797.168	903.92368
797.355	992.2402
797.541	914.01501
797.727	1000.34429
797.913	871.10763
798.099	986.73921
798.285	825.53608
798.471	895.27733
798.658	826.01871
798.844	1026.75585
799.03	855.10419
799.216	890.54473
799.402	808.54584
799.588	882.71248
799.774	801.68411
799.96	866.41119
800.146	906.1716
800.332	943.30618
800.518	721.27497
800.704	890.01364
800.89	808.3447
801.075	818.38327
801.261	764.4757
801.447	828.87522
801.633	785.30493
801.819	902.04845
802.005	878.35643
802.19	853.30054
802.376	752.97971
802.562	880.04246
802.748	806.11716
802.934	847.69104
803.119	700.50432
803.305	797.7695
803.491	810.57225
803.676	777.29792
803.862	727.41943
804.048	812.052
804.233	724.84089
804.419	857.66142
804.605	700.60486
804.79	791.34193
804.976	682.65364
805.161	742.30646
805.347	730.27381
805.532	801.8901
805.718	653.76512
805.903	775.09765
806.089	691.25623
806.274	716.09785
806.46	634.39087
806.645	745.23937
806.831	684.61454
807.016	793.82355
807.201	750.34721
807.387	687.31401
807.572	722.06725
807.757	750.93872
807.943	693.00623
808.128	744.33185
808.313	683.80615
808.499	709.17481
808.684	640.65263
808.869	772.48569
809.054	668.76499
809.24	719.12217
809.425	640.88413
809.61	713.17644
809.795	688.17003
809.98	705.84164
810.165	708.37747
810.35	711.96832
810.536	642.58411
810.721	666.8672
810.906	654.04788
811.091	670.27335
811.276	611.34397
811.461	671.01596
811.646	604.59407
811.831	747.98285
812.016	598.7773
812.201	702.45798
812.386	613.15665
812.571	671.76322
812.756	556.42521
812.941	642.76924
813.125	639.11409
813.31	646.81464
813.495	595.45809
813.68	625.18315
813.865	521.10677
814.05	601.9652
814.234	485.3409
814.419	626.00067
814.604	510.3166
814.789	529.6859
814.973	461.46768
815.158	558.12223
815.343	450.26772
815.528	475.407
815.712	443.67893
815.897	466.11993
816.081	377.33849
816.266	409.8581
816.451	382.24017
816.635	345.31275
816.82	284.09158
817.004	331.99735
817.189	303.10181
817.374	343.35194
817.558	248.25308
817.743	315.34718
817.927	289.64483
818.111	296.64612
818.296	235.87863
818.48	222.56376
818.665	160.7925
818.849	236.13643
819.034	154.20735
819.218	187.89855
819.402	96.90434
819.587	183.42099
819.771	103.54045
819.955	118.25008
820.14	129.48347
820.324	158.85226
820.508	112.73324
820.692	140.7724
820.877	108.11614
821.061	39.50616
821.245	29.37998
821.429	85.7292
821.613	84.60729
821.798	87.93223
821.982	31.63276
822.166	109.41908
822.35	103.70217
822.534	86.83434
822.718	111.62608
822.902	111.5535
823.086	73.28544
823.27	44.01885
823.454	77.83424
823.638	101.41492
823.822	76.7444
824.006	41.77908
824.19	41.79352
824.374	122.82155
824.558	44.06959
824.742	64.28705
824.926	37.29692
825.11	48.53699
825.294	39.50616
825.477	85.75885
825.661	33.90635
825.845	55.30711
826.029	73.40659
826.213	90.19832
826.396	17.007
826.58	63.17173
826.764	72.16907
826.948	91.35438
827.131	57.59836
827.315	83.4213
827.499	92.50413
827.682	86.85432
827.866	90.19486
828.05	69.95691
828.233	58.69541
828.417	37.27686
828.6	98.16724
828.784	58.67964
828.967	90.18796
829.151	89.09077
829.335	9.11162
829.518	80.12452
829.701	5.72614
829.885	53.08003
830.068	10.23313
830.252	98.08063
830.435	38.3911
830.619	67.69806
830.802	46.31405
830.985	83.44045
831.169	68.77344
831.352	81.20026
831.535	69.93545
831.719	80.05386
831.902	55.27745
832.085	90.24674
832.269	46.29981
832.452	36.12865
832.635	83.43087
832.818	39.56384
833.002	39.50465
833.185	104.87857
833.368	96.97848
833.551	99.11421
833.734	95.75854
833.917	81.18783
834.1	42.92466
834.284	87.93896
834.467	95.83171
834.65	63.20566
834.833	108.26082
835.016	157.75343
835.199	67.70585
835.382	57.56072
835.565	39.48205
835.748	68.85256
835.931	84.62679
836.114	21.50887
836.297	66.58282
836.479	82.35675
836.662	85.69963
836.845	107.07868
837.028	77.86414
837.211	41.78068
837.394	71.02524
837.577	75.64486
837.759	111.66893
837.942	102.63693
838.125	23.72764
838.308	53.06166
838.49	57.54086
838.673	92.40149
838.856	53.06778
839.039	84.58458
839.221	30.51866
839.404	90.20177
839.587	21.50061
839.769	136.33823
839.952	101.47699
840.134	150.99648
840.317	108.1326
840.499	95.74031
840.682	62.05603
840.865	111.60043
841.047	99.19743
841.23	108.2816
841.412	75.56062
841.595	77.74505
841.777	49.63413
841.959	113.82262
842.142	75.53172
842.324	109.3352
842.507	57.52545
842.689	110.37082
842.871	65.45463
843.054	117.17165
843.236	81.27517
843.418	129.49825
843.601	58.68415
843.783	117.13146
843.965	99.20502
844.147	99.09913
844.33	125.04958
844.512	157.68115
844.694	124.92597
844.876	157.80174
845.059	109.28509
845.241	126.08648
845.423	117.13146
845.605	146.21366
845.787	128.51277
845.969	66.51656
846.151	155.29397
846.333	112.70305
846.515	163.31248
846.697	157.6211
846.879	77.79848
847.061	160.96308
847.243	100.23373
847.425	83.36722
847.607	85.63744
847.789	90.16728
847.971	146.46386
848.153	179.04456
848.335	130.62601
848.517	95.66402
848.699	114.98164
848.881	140.76168
849.062	123.91203
849.244	139.75097
849.426	120.51905
849.608	189.24988
849.789	130.67579
849.971	146.42474
850.153	84.54251
850.335	95.74396
850.516	75.51155
850.698	150.96763
850.88	133.88748
851.061	115.94216
851.243	95.76949
851.425	138.55849
851.606	117.16718
851.788	137.41964
851.969	100.22992
852.151	130.46268
852.333	127.33023
852.514	132.82608
852.696	119.37766
852.877	167.80236
853.059	78.9473
853.24	156.48696
853.422	60.88867
853.603	144.23954
853.784	111.48126
853.966	146.38012
854.147	103.65465
854.329	156.49291
854.51	113.7922
854.691	85.59507
854.873	63.14998
855.054	128.37543
855.235	82.2466
855.416	126.18736
855.598	108.19864
855.779	129.52785
855.96	109.24761
856.141	93.52185
856.323	70.99274
856.504	123.89786
856.685	87.95916
856.866	130.69076
857.047	69.91938
857.228	81.19094
857.409	36.11485
857.591	94.68545
857.772	62.03702
857.953	101.44204
858.134	83.37992
858.315	42.89174
858.496	86.871
858.677	127.37407
858.858	31.65097
859.039	135.31844
859.22	68.77082
859.401	63.15239
859.582	44.0374
859.762	60.94464
859.943	50.80186
860.124	101.50423
860.305	63.15239
860.486	77.78361
860.667	47.37868
860.848	93.5683
861.028	96.95619
861.209	87.95916
861.39	77.85217
861.571	98.00949
861.751	62.05127
861.932	90.27797
862.113	36.12036
862.293	71.03338
862.474	28.25305
862.655	26.01928
862.835	51.93568
863.016	119.47337
863.197	86.79117
863.377	50.78238
863.558	86.81772
863.738	81.15989
863.919	83.47243
864.099	92.45802
864.28	92.45094
864.46	107.05413
864.641	111.72912
864.821	42.92301
865.002	76.79767
865.182	156.69025
865.363	102.58973
865.543	93.54684
865.723	78.94125
865.904	30.52569
866.084	41.77108
866.264	89.00231
866.445	49.69697
866.625	91.3124
866.805	81.20026
866.986	19.25392
867.166	105.96265
867.346	107.14435
867.526	46.26787
867.707	89.04306
867.887	86.83102
868.067	118.38567
868.247	65.42702
868.427	78.92917
868.607	51.90581
868.788	59.79369
868.968	81.2283
869.148	59.83271
869.328	31.66315
869.508	48.55003
869.688	63.14998
869.868	56.43933
870.048	0.09395
870.228	35.01931
870.408	115.07436
870.588	99.24304
870.768	69.93545
870.948	42.89831
871.128	103.75781
871.307	60.91194
871.487	69.99188
871.667	39.56537
871.847	45.17891
872.027	78.9594
872.207	45.13391
872.387	20.38451
872.566	17.00963
872.746	62.10613
872.926	66.56493
873.106	18.13349
873.285	69.99727
873.465	19.25097
873.645	58.6729
873.824	75.61864
874.004	-3.28599
874.184	86.90442
874.363	48.56122
874.543	57.53205
874.723	2.34845
874.902	60.97511
875.082	88.06068
875.261	40.65947
875.441	1.22093
875.62	84.58133
875.8	1.22075
875.979	10.24574
876.159	7.97935
876.338	41.76628
876.518	-14.56738
876.697	72.17183
876.876	16.99068
877.056	80.10604
877.235	50.79016
877.415	101.53153
877.594	4.60171
877.773	61.00569
877.953	66.62126
878.132	44.0645
878.311	39.55927
878.49	29.42979
878.67	30.54098
878.849	93.64369
879.028	10.2347
879.207	73.43212
879.387	60.93295
879.566	59.84422
879.745	27.14386
879.924	97.09795
880.103	27.12824
880.282	82.35675
880.461	28.2911
880.64	23.7494
880.819	32.79758
880.998	26.01328
881.178	29.40481
881.357	75.60701
881.536	19.23769
881.715	15.86574
881.893	18.12652
882.072	62.08701
882.251	76.72965
882.43	57.56735
882.609	78.96849
882.788	0.09394
882.967	41.84189
883.146	74.5532
883.325	30.55277
883.503	38.39993
883.682	58.73156
883.861	15.85603
884.04	12.48247
884.219	7.98333
884.397	59.83501
884.576	46.27673
884.755	-12.30941
884.933	19.25689
885.112	-70.96283
885.291	6.85693
885.469	83.51735
885.648	46.28737
885.827	1.22225
886.005	36.16469
886.184	-32.58204
886.363	-2.1604
886.541	31.67292
886.72	53.12306
886.898	11.36648
887.077	18.14469
887.255	-22.45893
887.434	1.22154
887.612	-19.07342
887.791	67.75537
887.969	84.67243
888.147	58.69316
888.326	-22.46326
888.504	-15.69487
888.682	42.97437
888.861	50.82138
889.039	31.67659
889.218	26.04741
889.396	22.64949
889.574	27.15326
889.752	27.1564
889.931	33.93642
890.109	40.66884
890.287	20.39394
890.465	58.75424
890.643	24.91563
890.822	32.79252
891	47.43499
891.178	0.09393
891.356	27.14699
891.534	36.16051
891.712	45.18586
891.89	44.07979
892.068	36.1828
892.247	38.41173
892.425	18.14469
892.603	23.78599
892.781	-3.28637
892.959	-30.34134
893.137	14.75023
893.314	33.9338
893.492	36.17165
893.67	2.35026
893.848	-4.41848
894.026	-7.8027
894.204	13.62256
894.382	65.4672
894.56	-14.56513
894.738	37.28115
894.915	32.79884
895.093	15.88652
895.271	6.85325
895.449	-5.54586
895.626	-13.44295
895.804	-17.94282
895.982	6.86196
896.16	0.09398
896.337	4.60171
896.515	44.07299
896.693	-1.03397
896.87	31.65828
897.048	44.04586
897.225	28.30094
897.403	3.47617
897.581	60.99863
897.758	0.09396
897.936	18.14469
898.113	2.35008
898.291	-4.41866
898.468	13.62151
898.646	-30.35186
898.823	-23.59067
899.001	-32.61466
899.178	15.86939
899.356	-14.57188
899.533	-13.43984
899.71	-54.0811
899.888	-38.24744
900.065	-29.24853
900.242	-6.6737
900.42	10.24534
900.597	-11.17302
900.774	4.6074
900.952	-43.90709
901.129	-1.03373
901.306	-12.31702
901.483	-7.8024
901.661	28.30204
901.838	-47.29271
902.015	-13.45129
902.192	-52.91661
902.369	6.86647
902.546	-33.75493
902.723	6.86435
902.901	-3.28953
903.078	-5.548
903.255	56.50244
903.432	-4.41542
903.609	11.37701
903.786	-10.0593
903.963	42.95942
904.14	17.00504
904.317	-31.48981
904.494	-41.63614
904.671	35.07332
904.848	7.98733
905.024	40.72382
905.201	0.09397
905.378	-31.47766
905.555	6.86222
905.732	-21.3515
905.909	40.64544
906.086	-29.2248
906.262	5.73518
906.439	-13.44192
906.616	2.34971
906.793	0.09402
906.969	-33.74189
907.146	-6.67241
907.323	14.76219
907.5	-5.54736
907.676	14.75477
907.853	-20.19508
908.03	-41.64257
908.206	28.27801
908.383	-24.72663
908.559	2.34944
908.736	-10.05658
908.912	28.30423
909.089	59.88348
909.266	-6.67216
909.442	-12.31511
909.619	-39.39262
909.795	-15.70276
909.972	13.63097
910.148	-36.00736
910.324	-14.56738
910.501	18.14329
910.677	0.094
910.854	36.17862
911.03	10.24218
911.206	40.66728
911.383	-16.82232
911.559	0.09403
911.735	-45.02575
911.912	0.09398
912.088	20.40814
912.264	7.99381
912.44	20.41447
912.617	-59.68624
912.793	4.60348
912.969	-43.92069
913.145	-72.13115
913.321	-22.46153
913.498	35.08419
913.674	19.25689
913.85	-20.19974
914.026	19.27025
914.202	-8.92925
914.378	-30.35186
914.554	-19.0793
914.73	-1.03433
914.906	24.90504
915.082	-48.37523
915.258	-3.28992
915.434	7.99165
915.61	2.34999
915.786	-5.54607
915.962	9.12076
916.138	18.13279
916.314	-47.27809
916.49	-12.31892
916.665	-36.00457
916.841	-16.84187
917.017	30.55986
917.193	0.09398
917.369	6.86408
917.545	44.07469
917.72	-42.7863
917.896	-12.30894
918.072	-58.53685
918.247	3.47885
918.423	-11.18982
918.599	6.86275
918.775	-4.41695
918.95	6.86143
919.126	-11.18291
919.301	-40.50595
919.477	-17.94558
919.653	9.11794
919.828	-16.83469
920.004	-7.80512
920.179	2.34763
920.355	-19.0852
920.53	-39.3911
920.706	-6.66933
920.881	1.2215
921.057	-15.69548
921.232	-4.41866
921.408	-29.23834
921.583	-52.86774
921.759	3.4751
921.934	-67.59613
922.109	1.22235
922.285	-17.94765
922.46	-40.54515
922.635	18.1468
922.811	-14.5747
922.986	-42.77968
923.161	-61.93971
923.336	-58.59798
923.512	-10.06085
923.687	2.35062
923.862	31.68271
924.037	12.50506
924.212	-42.74832
924.388	-32.61088
924.563	-28.10637
924.738	22.63815
924.913	-42.72859
925.088	19.271
925.263	-10.06241
925.438	-7.80391
925.613	-8.92547
925.788	-30.35303
925.963	-4.4161
926.138	32.78116
926.313	-17.94489
926.488	-33.72239
926.663	22.65474
926.838	24.90792
927.013	-34.87582
927.188	31.68639
927.363	10.24574
927.538	7.98333
927.713	-52.94732
927.888	37.29118
928.062	-16.81843
928.237	3.47778
928.412	19.27174
928.587	-16.82687
928.761	23.79797
928.936	-4.41866
929.111	-26.96327
929.286	19.27174
929.46	-5.54265
929.635	-24.71327
929.81	4.60882
929.984	4.61043
930.159	-14.57526
930.334	22.67493
930.508	-37.13768
930.683	-43.87828
930.857	-16.82492
931.032	-43.88843
931.206	10.24732
931.381	30.52569
931.556	-14.56064
931.73	-13.44244
931.904	-28.10095
932.079	-19.07268
932.253	6.8572
932.428	-26.97575
932.602	4.60278
932.777	-26.98514
932.951	-55.20226
933.125	15.88652
933.3	-4.42191
933.474	-7.8006
933.648	31.68148
933.823	7.99072
933.997	-36.03808
934.171	22.63554
934.345	-4.41644
934.52	-58.57755
934.694	-23.59158
934.868	-16.82557
935.042	-34.82353
935.217	9.11724
935.391	-50.69416
935.565	-2.16074
935.739	-7.80391
935.913	-17.95112
936.087	13.64365
936.261	-57.42594
936.435	-47.28174
936.609	-24.72472
936.783	-7.80754
936.957	-32.61088
937.131	-11.18463
937.305	-45.03445
937.479	-22.4572
937.653	14.76791
937.827	-29.22818
938.001	6.85931
938.175	-13.44712
938.349	-78.9421
938.523	-41.65545
938.697	-63.081
938.87	23.7814
939.044	-34.84894
939.218	4.60419
939.392	19.27846
939.566	2.35044
939.739	2.35117
939.913	-59.72088
940.087	11.37481
940.261	-51.83787
940.434	14.75477
940.608	12.50797
940.782	-25.84835
940.955	-11.19156
941.129	6.85667
941.302	-12.31606
941.476	-57.39939
941.65	-6.67267
941.823	-33.75493
941.997	-1.03425
942.17	23.77589
942.344	-21.33828
942.517	-26.96951
942.691	3.47966
942.864	-33.69781
943.038	13.64153
943.211	-28.09445
943.385	12.4959
943.558	47.44411
943.731	-19.06535
943.905	1.22287
944.078	-36.0004
944.251	-65.34484
944.425	-25.8334
944.598	-15.69669
944.771	6.86514
944.945	-14.56963
945.118	14.75421
945.291	5.7312
945.464	-74.39396
945.638	7.99227
945.811	28.28564
945.984	-37.13624
946.157	-14.57132
946.33	-40.5169
946.503	-8.93063
946.677	6.86116
946.85	13.6336
947.023	-22.47107
947.196	-39.38806
947.369	-11.1786
947.542	5.73563
947.715	-8.9334
947.888	-15.69003
948.061	-12.31369
948.234	49.7008
948.407	-12.30515
948.58	-31.46797
948.753	-19.08225
948.926	35.05706
949.099	2.35008
949.271	-22.46586
949.444	36.18141
949.617	10.24179
949.79	-43.8986
949.963	27.15536
950.136	-15.70884
950.308	-31.4959
950.481	20.4034
950.654	-56.35152
950.827	13.62571
950.999	-37.14343
951.172	20.40497
951.345	6.86116
951.517	13.63519
951.69	-50.68238
951.863	0.094
952.035	-28.10312
952.208	-10.0628
952.381	-8.9334
952.553	-41.6474
952.726	-12.31273
952.898	-11.18679
953.071	-25.86435
953.243	-19.1
953.416	-2.1624
953.588	-6.66728
953.761	24.90408
953.933	12.49541
954.106	9.11865
954.278	7.99412
954.45	20.39394
954.623	-58.5504
954.795	-50.66866
954.967	-24.72472
955.14	-23.59614
955.312	20.39472
955.484	-30.3542
955.657	15.88897
955.829	0.09396
956.001	-1.03334
956.173	-24.72758
956.346	-34.87312
956.518	-13.45337
956.69	-50.67062
956.862	-29.23721
957.034	17.02081
957.207	-16.82752
957.379	10.24495
957.551	4.60757
957.723	13.63572
957.895	19.27025
958.067	7.98733
958.239	-13.44764
958.411	-12.31226
958.583	4.60865
958.755	-16.82817
958.927	-20.20675
959.099	0.09398
959.271	-1.03441
959.443	7.98641
959.615	-10.0714
959.787	-2.16232
959.959	26.0273
960.13	20.39158
960.302	26.05751
960.474	-11.18723
960.646	5.73629
960.818	-26.97159
960.99	17.01949
961.161	0.09404
961.333	-38.24744
961.505	27.18161
961.677	-38.27703
961.848	1.22131
962.02	-51.78772
962.192	1.2223
962.363	32.82295
962.535	-1.03365
962.707	-50.66083
962.878	-15.69487
963.05	17.01225
963.221	-20.20597
963.393	-10.05852
963.564	-19.07562
963.736	-21.31529
963.907	32.77486
964.079	-7.8018
964.25	-12.30894
964.422	-30.3671
964.593	20.40024
964.765	1.22292
964.936	-12.32562
965.108	-4.42105
965.279	10.24416
965.45	1.22206
965.622	-38.2563
965.793	2.34917
965.964	0.09398
966.136	1.22131
966.307	-3.28953
966.478	40.67667
966.65	2.35208
966.821	-33.7445
966.992	15.87305
967.163	-6.67113
967.334	17.02476
967.506	-25.86736
967.677	-12.32322
967.848	4.61026
968.019	-20.23418
968.19	2.34971
968.361	-29.24513
968.532	-14.57357
968.703	7.99258
968.874	-22.47194
969.045	14.75477
969.216	-32.6046
969.387	11.38142
969.558	-22.4546
969.729	-3.29004
969.9	-8.92444
970.071	0.094
970.242	-45.06063
970.413	10.24376
970.584	40.71436
970.755	-23.59158
970.926	-7.80875
971.097	24.89257
971.267	-17.94006
971.438	1.22225
971.609	-34.89202
971.78	-30.36006
971.951	9.11971
972.121	18.13279
972.292	-33.74971
972.463	-2.16082
972.633	-14.58205
972.804	-60.81769
972.975	-5.54779
973.145	5.73585
973.316	-11.18679
973.487	-17.95112
973.657	20.38373
973.828	5.73385
973.998	29.42296
974.169	-23.58703
974.339	9.12288
974.51	1.22178
974.68	-15.70337
974.851	-29.21692
975.021	-24.71327
975.192	-39.38501
975.362	-49.52435
975.533	0.09396
975.703	-38.26517
975.874	31.67292
976.044	50.82138
976.214	-42.74996
976.385	-79.99522
976.555	-14.56738
976.725	-24.70375
976.896	-24.71136
977.066	18.15172
977.236	-20.22239
977.406	-14.56625
977.577	-17.97059
977.747	10.24851
977.917	-29.24061
978.087	-42.7648
978.257	-7.79969
978.427	-16.83012
978.598	-19.07048
978.768	-2.16358
978.938	-21.33581
979.108	-38.23713
979.278	0.09402
979.448	-85.67012
979.618	-36.02269
979.788	-7.80572
979.958	-4.41968
980.128	7.99289
980.298	-69.87681
980.468	-22.47455
980.638	11.36735
980.808	18.14259
980.978	-42.75491
981.148	53.12923
981.317	40.71751
981.487	-13.44607
981.657	12.51818
981.827	-17.95181
981.997	37.32283
982.167	-41.66352
982.336	11.37129
982.506	-43.9292
982.676	-23.58885
982.846	-21.33334
983.015	-51.75979
983.185	15.8859
983.355	-37.12907
983.524	-40.5169
983.694	40.68607
983.864	23.77314
984.033	-2.16307
984.203	-34.88391
984.372	-36.00875
984.542	4.60829
984.712	20.39236
984.881	11.37877
985.051	1.22263
985.22	-26.99245
985.39	-31.49225
985.559	47.51759
985.728	-16.82687
985.898	-60.84593
986.067	17.01422
986.237	-66.48983
986.406	31.64975
986.576	-35.99623
986.745	-1.03393
986.914	4.60419
987.084	30.53392
987.253	2.3498
987.422	-15.69185
987.591	-21.33416
987.761	-25.86134
987.93	-11.18075
988.099	-12.30941
988.268	33.92071
988.438	-7.80421
988.607	-29.23608
988.776	-20.20831
988.945	-29.23721
989.114	62.11092
989.283	-26.97784
989.452	-26.97784
989.621	-47.23623
989.791	-15.69064
989.96	-2.16032
990.129	-17.96362
990.298	-34.87851
990.467	-38.25335
990.636	-30.36593
990.805	15.8902
990.974	-64.18806
991.142	-1.03318
991.311	-52.9064
991.48	6.86461
991.649	-22.47281
991.818	12.50748
991.987	-14.56457
992.156	-26.97784
992.325	-6.67576
992.493	-2.16207
992.662	-12.31845
992.831	-34.88391
993	-6.67576
993.168	-7.80906
993.337	5.73785
993.506	-7.79999
993.675	19.26728
993.843	-37.14918
994.012	14.75819
994.181	22.65912
994.349	-2.1624
994.518	-31.49225
994.686	29.42523
994.855	9.12006
995.024	3.47791
995.192	17.007
995.361	-41.63614
995.529	2.35026
995.698	20.41526
995.866	29.41161
996.035	-3.29042
996.203	-29.22931
996.371	-15.70215
996.54	-5.54265
996.708	-1.03334
996.877	4.60882
997.045	-22.44166
997.213	-40.54044
997.382	-29.25874
997.55	-28.10963
997.718	-20.21378
997.887	-29.23044
998.055	-49.55689
998.223	22.65736
998.391	-12.31321
998.56	-3.29285
998.728	-20.21848
998.896	-46.1582
999.064	18.13839
999.232	-10.06163
999.401	1.22159
999.569	57.62059
999.737	35.03276
999.905	-10.06202
1000.073	-66.49241
1000.241	33.92202
1000.409	15.89574
1000.577	15.89513
1000.745	12.4959
1000.913	3.47778
1001.081	-20.20442
1001.249	38.46661
1001.417	-47.30553
1001.585	15.88406
1001.753	1.22258
1001.921	24.9012
1002.089	-94.63213
1002.256	-15.69608
1002.424	-41.62971
1002.592	11.38938
1002.76	0.09402
1002.928	12.507
1003.096	-17.94696
1003.263	10.24179
1003.431	38.45618
1003.599	0.094
1003.767	-15.70094
1003.934	-54.079
1004.102	-3.2917
1004.27	-35.99762
1004.437	-40.52003
1004.605	-12.31321
1004.773	-19.08742
1004.94	-23.60618
1005.108	-16.82687
1005.275	-22.47107
1005.443	7.98702
1005.61	14.75534
1005.778	-22.46413
1005.945	-19.08078
1006.113	0.09391
1006.28	-26.98305
1006.448	-25.85234
1006.615	11.37525
1006.783	38.43539
1006.95	4.60544
1007.118	-24.71899
1007.285	18.16017
1007.452	-33.73799
1007.62	13.62939
1007.787	36.1856
1007.954	-80.08209
1008.122	-39.38197
1008.289	15.88897
1008.456	44.10537
1008.623	-60.85773
1008.791	26.05448
1008.958	0.094
1009.125	28.30532
1009.292	-19.08889
1009.459	-11.19069
1009.627	-26.96535
1009.794	-7.80633
1009.961	9.11618
1010.128	-38.23566
1010.295	-13.43828
1010.462	7.99412
1010.629	4.60437
1010.796	-2.1619
1010.963	1.22169
1011.13	-5.5465
1011.297	-46.15642
1011.464	21.52961
1011.631	-33.73408
1011.798	-20.21848
1011.965	-21.34902
1012.132	-54.05598
1012.299	15.88774
1012.466	-2.1604
1012.633	-1.03385
1012.799	-17.95112
1012.966	12.50216
1013.133	-68.80033
1013.3	-35.98651
1013.467	-22.47716
1013.633	3.47805
1013.8	1.22263
1013.967	9.12218
1014.134	2.34953
1014.3	21.51218
1014.467	-2.16291
1014.634	-8.92306
1014.8	-29.24287
1014.967	-10.05735
1015.134	-37.11332
1015.3	-20.20442
1015.467	-20.21144
1015.633	-50.66279
1015.8	45.24175
1015.966	-13.43932
1016.133	21.54798
1016.3	4.6099
1016.466	23.79705
1016.632	11.37261
1016.799	-2.16032
1016.965	-37.14199
1017.132	39.58219
1017.298	-8.92753
1017.465	-10.06553
1017.631	45.22599
1017.797	-38.26961
1017.964	3.47724
1018.13	-32.62853
1018.296	-7.8012
1018.463	-23.61168
1018.629	36.1842
1018.795	5.73076
1018.961	-30.37886
1019.128	-31.51788
1019.294	61.00334
1019.46	27.18161
1019.626	6.86116
1019.792	19.26802
1019.959	55.31774
1020.125	-47.30003
1020.291	24.906
1020.457	-29.2474
1020.623	-42.73188
1020.789	-13.44503
1020.955	-49.52626
1021.121	-56.28616
1021.287	21.51301
1021.453	-52.95963
1021.619	-1.03449
1021.785	-61.99007
1021.951	23.7952
1022.117	-60.86481
1022.283	0.09399
1022.449	-21.34736
1022.615	27.15326
1022.781	4.60579
1022.946	-12.31273
1023.112	5.73142
1023.278	37.3315
1023.444	-37.15206
1023.61	5.73474
1023.775	-52.95142
1023.941	-15.68822
1024.107	1.22187
1024.273	-7.80482
1024.438	10.24851
1024.604	5.73319
1024.77	1.22239
1024.935	17.00831
1025.101	41.81927
1025.267	-5.54222
1025.432	-21.3515
1025.598	-34.87312
1025.763	-1.03498
1025.929	-4.41831
1026.095	36.18839
1026.26	35.0557
1026.426	-8.93617
1026.591	21.53378
1026.757	41.81443
1026.922	17.00766
1027.087	-10.0628
1027.253	-21.34902
1027.418	26.03633
1027.584	1.22187
1027.749	50.83901
1027.914	-11.18032
1028.08	-2.16274
1028.245	-31.50199
1028.41	3.47872
1028.576	-45.05888
1028.741	-22.47716
1028.906	-1.03409
1029.072	-40.4997
1029.237	-8.93167
1029.402	-20.20675
1029.567	-14.56176
1029.732	-31.48252
1029.898	3.47818
1030.063	32.83186
1030.228	-11.17731
1030.393	-15.70215
1030.558	-10.05619
1030.723	26.05246
1030.888	-38.26813
1031.053	-22.49901
1031.218	27.17634
1031.383	-34.89066
1031.548	-1.03361
1031.713	-31.50199
1031.878	-31.47766
1032.043	-50.70006
1032.208	-39.35013
1032.373	22.66262
1032.538	1.2214
1032.703	4.60473
1032.868	-36.0213
1033.033	-39.38349
1033.198	-6.67887
1033.362	-15.70702
1033.527	5.73585
1033.692	-34.87716
1033.857	13.62834
1034.021	-64.18558
1034.186	-17.94144
1034.351	4.61026
1034.516	-5.54822
1034.68	-16.82947
1034.845	-4.41729
1035.01	2.35226
1035.174	-16.83469
1035.339	-11.18161
1035.504	-1.03373
1035.668	-12.31131
1035.833	-37.12333
1035.997	3.4806
1036.162	-1.03397
1036.326	-15.6973
1036.491	6.86328
1036.655	-66.42821
1036.82	32.83951
1036.984	17.03734
1037.149	27.14595
1037.313	-1.03437
1037.478	-58.53009
1037.642	-8.93305
1037.807	46.34264
1037.971	5.73674
1038.135	-11.18205
1038.3	3.47899
1038.464	31.69252
1038.628	-14.58148
1038.792	-29.23721
1038.957	-8.92719
1039.121	-33.72369
1039.285	22.67846
1039.449	22.6338
1039.614	-29.244
1039.778	-5.55015
1039.942	18.14891
1040.106	21.53628
1040.27	-17.95528
1040.434	-66.52079
1040.599	0.094
1040.763	5.73518
1040.927	32.83058
1041.091	-6.67422
1041.255	22.65999
1041.419	-74.36805
1041.583	-32.61718
1041.747	4.60136
1041.911	5.73164
1042.075	6.86461
1042.239	2.35117
1042.403	-40.48878
1042.567	9.11443
1042.731	21.52379
1042.894	-33.72369
1043.058	44.11392
1043.222	41.82572
1043.386	1.22206
1043.55	-31.50077
1043.714	31.69252
1043.877	-7.79879
1044.041	15.88836
1044.205	-6.67783
1044.369	-22.47716
1044.532	-42.7615
1044.696	-2.16057
1044.86	-31.48495
1045.023	9.11302
1045.187	-16.83012
1045.351	-25.85334
1045.514	-47.31653
1045.678	13.62466
1045.841	5.73407
