Data from 4_51 _Subt2__1__16-51-23-367.txt Node

Date: Tue Oct 07 16:51:23 EDT 2025
User: brett
Spectrometer: USB4F03499
Trigger mode: 4
Integration Time (sec): 2.970000E-3
Scans to average: 5
Electric dark correction enabled: true
Nonlinearity correction enabled: true
Boxcar width: 0
XAxis mode: Wavelengths
Number of Pixels in Spectrum: 3648
>>>>>Begin Spectral Data<<<<<
345.386	-11.41372
345.605	-11.41372
345.824	-11.41372
346.044	-13.84963
346.263	-26.06445
346.482	1.3037
346.701	-91.96744
346.92	44.84906
347.139	-40.2434
347.358	-18.24878
347.577	43.38237
347.796	65.46887
348.015	-1.14088
348.234	1.79273
348.453	-26.06881
348.672	-7.00429
348.891	28.21033
349.11	55.14636
349.329	-17.27811
349.548	-9.95521
349.767	-11.40893
349.986	-37.32444
350.205	-64.2042
350.424	-36.34895
350.643	-93.10907
350.862	-27.5451
351.08	-33.87983
351.299	-32.42119
351.518	-10.91531
351.737	-59.22658
351.956	-59.27094
352.174	-25.08033
352.393	-42.16475
352.612	-70.50229
352.831	-66.0956
353.049	-97.29133
353.268	-58.79176
353.487	-53.39029
353.705	-24.12295
353.924	-125.56714
354.143	-36.82282
354.361	-48.99984
354.58	27.23698
354.798	50.67256
355.017	-11.88803
355.236	18.92021
355.454	-78.40696
355.673	82.54536
355.891	15.47641
356.11	34.5574
356.328	-93.03099
356.547	-25.08033
356.765	-18.73304
356.984	-31.45895
357.202	6.68254
357.42	15.492
357.639	80.57688
357.857	-12.88152
358.076	-92.94564
358.294	-49.49274
358.512	-69.46642
358.731	42.4081
358.949	-76.37158
359.167	-27.05364
359.386	29.67966
359.604	-61.25255
359.822	-40.23331
360.04	4.72882
360.259	6.68478
360.477	50.73219
360.695	-6.02937
360.913	16.47988
361.131	-88.04766
361.35	-36.77985
361.568	11.57609
361.786	-58.3613
362.004	-28.49016
362.222	-18.74717
362.44	69.83035
362.658	1.30348
362.876	-8.47052
363.094	18.40325
363.312	-22.64217
363.53	-56.36537
363.749	-37.28701
363.967	24.76454
364.184	28.15612
364.402	78.11376
364.62	-22.13484
364.838	14.9778
365.056	-15.80541
365.274	-8.96981
365.492	19.38819
365.71	32.1434
365.928	-8.47691
366.146	7.16784
366.364	-38.77932
366.581	-13.84732
366.799	-47.57322
367.017	-16.29437
367.235	-60.30439
367.453	44.33037
367.67	-21.66807
367.888	20.37394
368.106	-89.97376
368.323	-6.02333
368.541	-93.46589
368.759	86.00238
368.977	4.23789
369.194	-57.77034
369.412	15.00164
369.629	6.6831
369.847	-33.86852
370.065	-11.40701
370.282	-89.00346
370.5	55.13706
370.717	-10.92355
370.935	17.44536
371.152	-88.54401
371.37	-27.53587
371.588	-61.24231
371.805	130.10878
372.022	-15.79484
372.24	10.10471
372.457	63.3942
372.675	-13.35401
372.892	-24.09875
373.11	13.05525
373.327	-17.76131
373.544	-11.4051
373.762	-16.79602
373.979	16.47849
374.196	-23.11369
374.414	10.1064
374.631	-3.09601
374.848	-7.4924
375.066	-51.9891
375.283	-14.82254
375.5	-27.53357
375.717	-19.22993
375.935	-43.09929
376.152	3.25751
376.369	34.04869
376.586	-26.0601
376.803	-14.32779
377.02	-45.60519
377.238	-21.16323
377.455	59.537
377.672	3.26051
377.889	13.04754
378.106	-104.53906
378.323	-32.41035
378.54	-17.75092
378.757	-34.35443
378.974	-20.68157
379.191	-93.44253
379.408	-27.02653
379.625	-72.91732
379.842	-20.2013
380.059	9.12852
380.276	-20.16938
380.493	-69.55321
380.71	-66.06812
380.927	-31.44314
381.143	-81.72554
381.36	39.91287
381.577	-41.69686
381.794	47.77017
382.011	-53.44826
382.228	-5.54231
382.444	-66.62344
382.661	-0.65215
382.878	-8.96303
383.095	16.95638
383.311	-30.94378
383.528	-36.34285
383.745	-39.74764
383.962	78.1863
384.178	60.44358
384.395	-128.06534
384.612	19.38009
384.828	-73.94441
385.045	-32.92401
385.261	68.27751
385.478	-2.11917
385.695	17.91781
385.911	-22.61203
386.128	-52.44335
386.344	-36.33068
386.561	75.24564
386.777	-32.8773
386.994	55.60724
387.21	-27.5428
387.427	-31.91882
387.643	-34.34014
387.86	29.68716
388.076	84.54294
388.292	64.93021
388.509	-80.79456
388.725	-23.62585
388.942	-39.22589
389.158	-20.67985
389.374	-63.59288
389.591	-6.51775
389.807	16.46186
390.023	-10.91531
390.239	-43.16385
390.456	28.68002
390.672	-24.06874
390.888	53.63415
391.104	-20.70062
391.321	101.55598
391.537	32.58875
391.753	-25.58623
391.969	-23.13684
392.185	69.77745
392.401	-25.07824
392.618	32.14068
392.834	27.20045
393.05	52.6569
393.266	22.33471
393.482	28.66084
393.698	-82.18044
393.914	7.16904
394.13	-88.05498
394.346	-63.61397
394.562	-23.614
394.778	16.47849
394.994	-9.93516
395.21	-59.21185
395.426	-1.14069
395.642	-1.62916
395.858	33.08007
396.073	-35.83863
396.289	-66.02978
396.505	-17.25934
396.721	8.14514
396.937	-4.56227
397.153	-44.17146
397.369	14.98656
397.584	-25.07196
397.8	-14.33377
398.016	-84.17105
398.232	-6.02635
398.447	13.99424
398.663	59.0382
398.879	32.0975
399.094	-34.36877
399.31	-2.11775
399.526	-19.69104
399.741	-13.34734
399.957	15.96768
400.173	-62.69932
400.388	15.46222
400.604	19.36396
400.82	78.57591
401.035	79.04441
401.251	40.43855
401.466	68.79464
401.682	23.28713
401.897	28.68242
402.113	53.60269
402.328	4.23682
402.544	36.50919
402.759	54.11822
402.974	35.50511
403.19	-2.60562
403.405	-76.75865
403.621	79.53935
403.836	33.07177
404.051	-14.81266
404.267	25.71805
404.482	53.61166
404.697	38.40281
404.913	5.69756
405.128	-5.04188
405.343	67.35179
405.559	12.54048
405.774	-14.31114
405.989	13.03549
406.204	-58.71849
406.42	-21.165
406.635	47.21032
406.85	100.52902
407.065	0.81292
407.28	62.31343
407.495	14.96785
407.71	-9.92195
407.926	45.23572
408.141	42.29135
408.356	2.27445
408.571	17.40177
408.786	63.80793
409.001	45.26584
409.216	-44.03222
409.431	113.2511
409.646	38.34256
409.861	22.26973
410.076	90.24236
410.291	88.66038
410.506	104.31928
410.721	88.18038
410.936	40.33409
411.15	62.27732
411.365	129.122
411.58	147.34816
411.795	129.02612
412.01	110.70966
412.225	85.1645
412.439	59.31421
412.654	107.09265
412.869	141.4067
413.084	103.78022
413.299	94.53884
413.513	157.89482
413.728	133.02718
413.943	225.74465
414.157	174.54788
414.372	146.02295
414.587	121.72852
414.801	191.98037
415.016	163.80042
415.231	115.30761
415.445	195.19016
415.66	154.79676
415.874	190.10086
416.089	140.06298
416.304	181.98724
416.518	175.98754
416.733	183.82425
416.947	194.73653
417.162	221.49056
417.376	183.79429
417.59	323.9044
417.805	218.63213
418.019	213.34073
418.234	236.82439
418.448	242.23471
418.663	264.98144
418.877	206.13751
419.091	299.80059
419.306	269.72356
419.52	186.64444
419.734	309.6924
419.949	281.34021
420.163	303.49524
420.377	275.46553
420.591	356.77727
420.806	352.799
421.02	347.93017
421.234	255.97862
421.448	343.80534
421.663	343.95439
421.877	171.19134
422.091	247.48628
422.305	321.97595
422.519	308.62836
422.733	406.43377
422.947	241.2219
423.161	297.47796
423.376	272.25447
423.59	329.43111
423.804	341.31749
424.018	435.79487
424.232	374.68938
424.446	393.59966
424.66	425.48764
424.874	383.31343
425.088	339.33067
425.302	460.54669
425.515	398.10097
425.729	400.80491
425.943	355.86207
426.157	432.78788
426.371	433.48025
426.585	417.47769
426.799	366.95019
427.013	519.59025
427.226	412.58362
427.44	403.69643
427.654	415.68324
427.868	416.9959
428.081	514.83512
428.295	414.81886
428.509	418.70889
428.723	520.67613
428.936	414.09283
429.15	403.59948
429.364	450.02787
429.577	331.97816
429.791	301.92319
430.005	502.35689
430.218	372.64565
430.432	345.00182
430.645	406.97409
430.859	457.21446
431.073	424.14712
431.286	449.08155
431.5	462.84248
431.713	414.23731
431.927	413.02287
432.14	457.80546
432.354	389.24178
432.567	450.53289
432.781	488.37668
432.994	485.47403
433.207	367.10066
433.421	518.62863
433.634	535.32524
433.848	583.74991
434.061	461.36355
434.274	396.72221
434.488	420.16753
434.701	453.16034
434.914	464.7692
435.127	561.14558
435.341	502.2789
435.554	499.28451
435.767	626.81399
435.98	627.73672
436.194	438.45596
436.407	496.79509
436.62	699.96338
436.833	665.14487
437.046	698.29698
437.259	546.77311
437.473	665.95374
437.686	668.41749
437.899	616.70527
438.112	721.26405
438.325	603.00384
438.538	640.80211
438.751	821.19119
438.964	713.46895
439.177	729.43657
439.39	762.20821
439.603	869.39754
439.816	801.3383
440.029	942.90501
440.242	1162.33448
440.455	1175.67128
440.668	1074.15902
440.881	796.01643
441.094	881.83516
441.306	958.69059
441.519	1269.85412
441.732	1121.12899
441.945	1324.77637
442.158	995.64238
442.37	1058.47217
442.583	1166.40007
442.796	1315.75147
443.009	1284.87913
443.222	1175.73169
443.434	988.50811
443.647	1435.56906
443.86	1411.4917
444.072	1668.86384
444.285	1307.97563
444.498	1605.59524
444.71	1293.05494
444.923	1515.69459
445.136	1327.32753
445.348	1341.85628
445.561	1406.71249
445.773	1505.52278
445.986	1063.04034
446.198	1659.54987
446.411	1487.12295
446.623	1691.40102
446.836	1519.14736
447.048	1729.86973
447.261	1728.61208
447.473	1948.50912
447.686	1472.61497
447.898	1694.43249
448.11	1897.98933
448.323	2120.18636
448.535	1777.17499
448.748	1795.22376
448.96	1641.99116
449.172	1901.49175
449.385	1433.89648
449.597	2021.42232
449.809	1768.67687
450.021	2120.11802
450.234	1921.15665
450.446	1841.50015
450.658	1750.34646
450.87	1970.77899
451.083	1846.25774
451.295	2183.8462
451.507	1891.17387
451.719	1990.31211
451.931	2022.9051
452.143	2267.11049
452.356	1969.03866
452.568	2148.07497
452.78	2038.60632
452.992	2335.17896
453.204	2120.77783
453.416	2288.08572
453.628	1878.9478
453.84	2108.81566
454.052	1954.09198
454.264	2439.27537
454.476	2105.12478
454.688	2611.61414
454.9	2330.29773
455.112	2260.25489
455.324	2094.56023
455.536	2450.72804
455.747	2380.95816
455.959	2547.39377
456.171	2382.18395
456.383	2403.99389
456.595	2093.83048
456.807	2373.35788
457.018	2179.33064
457.23	2558.15061
457.442	2174.37021
457.654	2565.43073
457.865	2278.86593
458.077	2323.71704
458.289	2143.61784
458.501	2463.53237
458.712	2568.87435
458.924	2870.76158
459.136	2300.08105
459.347	2463.41716
459.559	2356.70938
459.77	2791.22655
459.982	2712.1491
460.194	2767.97427
460.405	2337.47024
460.617	2591.7272
460.828	2604.84069
461.04	2846.22567
461.251	2458.20455
461.463	3074.25717
461.674	2805.51483
461.886	2857.5674
462.097	2526.01562
462.309	2989.48157
462.52	2501.43378
462.731	3260.31856
462.943	2524.65369
463.154	2779.17071
463.366	2548.70986
463.577	2947.90271
463.788	2995.33154
464	3233.98925
464.211	3060.32573
464.422	3652.6599
464.634	3281.29161
464.845	3410.51923
465.056	3279.41142
465.267	3540.73377
465.478	2930.24577
465.69	3491.40809
465.901	3123.55657
466.112	3576.54806
466.323	3311.28279
466.534	3699.9657
466.745	3565.49322
466.957	3664.00928
467.168	3547.20078
467.379	3592.63567
467.59	3298.56568
467.801	3396.8921
468.012	3422.16451
468.223	3642.71474
468.434	3401.71378
468.645	4001.81115
468.856	4012.53298
469.067	3910.06248
469.278	3704.55067
469.489	3983.62538
469.7	3646.89281
469.911	3793.26243
470.122	4060.36168
470.333	4462.29068
470.543	3718.03713
470.754	4232.39191
470.965	4024.97094
471.176	4308.92739
471.387	4335.40001
471.598	4337.43947
471.808	3950.91812
472.019	4361.30559
472.23	4207.35982
472.441	4284.66599
472.651	4255.87773
472.862	4424.04887
473.073	4549.60327
473.283	4509.62287
473.494	4221.79382
473.705	4516.53774
473.915	4431.3764
474.126	4885.30001
474.337	4592.09504
474.547	5038.69649
474.758	4755.08047
474.968	5114.12986
475.179	4805.49543
475.389	4956.41527
475.6	4903.12695
475.81	5232.33118
476.021	5198.62605
476.231	5520.56546
476.442	5154.43152
476.652	5325.5047
476.863	5065.8547
477.073	5247.008
477.284	5310.00816
477.494	5534.97734
477.704	5626.39233
477.915	6161.33142
478.125	5475.50794
478.335	5904.99062
478.546	5980.93514
478.756	5991.9012
478.966	6026.57219
479.177	6206.32294
479.387	6151.92381
479.597	6450.3369
479.807	6183.77358
480.018	6296.12267
480.228	6220.2038
480.438	6555.72646
480.648	6536.31657
480.858	6826.16834
481.068	6331.10372
481.279	6754.38182
481.489	7066.63683
481.699	7065.12939
481.909	6726.45876
482.119	7674.7383
482.329	7500.72765
482.539	7658.69123
482.749	7155.47797
482.959	7627.30915
483.169	7643.34581
483.379	7914.25236
483.589	7947.89216
483.799	7956.16656
484.009	7661.99637
484.219	8054.85964
484.429	8074.41739
484.639	8073.1475
484.849	8072.86394
485.059	8512.10909
485.268	8520.73379
485.478	8672.1429
485.688	8162.15361
485.898	8489.73326
486.108	8365.34033
486.317	8862.76266
486.527	8610.5634
486.737	9174.26685
486.947	8879.77406
487.156	9375.64093
487.366	8914.00814
487.576	8877.08448
487.785	8806.48048
487.995	8910.88643
488.205	9014.94808
488.414	9246.37636
488.624	9076.33753
488.834	9184.77313
489.043	8910.85354
489.253	9103.38573
489.462	9137.72544
489.672	9604.33534
489.882	9493.23649
490.091	9678.75528
490.301	9292.12095
490.51	9688.07716
490.72	9500.2436
490.929	9915.29937
491.138	9755.82855
491.348	9753.52407
491.557	9598.21152
491.767	10048.98706
491.976	9711.72737
492.185	9909.76191
492.395	9816.19333
492.604	10147.85619
492.813	9714.04728
493.023	10448.40902
493.232	10041.81162
493.441	10107.1871
493.651	10108.61332
493.86	10145.32999
494.069	10199.21106
494.278	10361.10023
494.488	10327.43863
494.697	10498.70569
494.906	10184.7067
495.115	10790.28573
495.324	10347.26034
495.533	10959.24821
495.743	10668.81688
495.952	11139.41748
496.161	10907.72343
496.37	11177.99585
496.579	11024.18045
496.788	11431.72429
496.997	11280.3379
497.206	11267.82107
497.415	11118.27402
497.624	11466.1316
497.833	11380.36315
498.042	11622.79003
498.251	11418.7186
498.46	11891.57799
498.669	11632.7404
498.878	11705.2405
499.087	11515.40571
499.296	11973.45873
499.504	11808.30517
499.713	11882.48949
499.922	11859.49475
500.131	12096.51365
500.34	11903.58014
500.549	12170.62697
500.757	11720.86546
500.966	12189.47474
501.175	11917.52653
501.384	12310.74349
501.592	11926.51744
501.801	12222.88857
502.01	12125.31805
502.218	12382.1363
502.427	12313.53389
502.636	12377.95087
502.844	12171.31058
503.053	12298.95688
503.262	12311.60968
503.47	12356.53241
503.679	12116.48279
503.887	12546.70827
504.096	12288.57387
504.304	12409.39224
504.513	12455.84078
504.721	12487.6031
504.93	12082.07685
505.138	12523.43266
505.347	12218.66821
505.555	12530.93779
505.764	12342.39088
505.972	12569.03796
506.18	11947.94975
506.389	12349.8897
506.597	12099.49321
506.806	12472.60323
507.014	12317.16746
507.222	12518.18044
507.431	12260.64629
507.639	12408.63479
507.847	12319.31749
508.055	12578.26564
508.264	12401.43684
508.472	12458.33282
508.68	12390.55138
508.888	12563.14796
509.096	12458.11847
509.305	12625.72922
509.513	12386.87116
509.721	12453.52667
509.929	12458.60929
510.137	12562.71286
510.345	12538.67121
510.553	12558.49732
510.762	12459.03742
510.97	12580.0568
511.178	12558.02415
511.386	12752.54018
511.594	12648.07815
511.802	12939.54647
512.01	12593.5648
512.218	12914.89198
512.426	12845.59437
512.634	13037.43758
512.842	12830.55197
513.049	13042.12821
513.257	12786.83878
513.465	13095.64922
513.673	12969.70359
513.881	13227.16831
514.089	13064.20326
514.297	13161.16804
514.504	13075.3835
514.712	13247.51469
514.92	13232.75418
515.128	13605.63087
515.336	13204.63973
515.543	13369.13051
515.751	13253.84269
515.959	13351.11084
516.166	13036.08533
516.374	13465.10061
516.582	13400.27718
516.789	13519.41896
516.997	13430.10105
517.205	13445.51931
517.412	13290.48716
517.62	13580.12575
517.827	13251.4095
518.035	13453.5513
518.243	13287.2814
518.45	13407.92666
518.658	13316.36939
518.865	13420.74843
519.073	13324.4887
519.28	13313.15996
519.488	13153.51762
519.695	13328.85062
519.902	12973.24837
520.11	13262.30218
520.317	13134.32748
520.525	13251.41953
520.732	13006.49661
520.939	13258.00576
521.147	12932.67762
521.354	13304.14024
521.561	13146.59622
521.769	13245.71205
521.976	12856.8763
522.183	13279.65933
522.391	12960.4605
522.598	13340.99822
522.805	13017.0325
523.012	13050.56953
523.219	13038.42058
523.427	13232.33273
523.634	13153.11245
523.841	13467.65473
524.048	13028.91144
524.255	13329.30382
524.462	13217.97319
524.669	13186.99517
524.877	13275.51104
525.084	13392.5105
525.291	13081.98338
525.498	13503.98131
525.705	13303.61035
525.912	13751.33791
526.119	13415.24446
526.326	13558.91438
526.533	13364.01471
526.74	13797.0479
526.947	13636.18106
527.153	13855.04464
527.36	13645.48212
527.567	13929.64898
527.774	13693.65556
527.981	13940.93293
528.188	13713.31439
528.395	14100.96075
528.602	13738.43535
528.808	14045.98278
529.015	13774.89365
529.222	14132.25248
529.429	13786.53993
529.635	14232.35861
529.842	14034.07369
530.049	14184.27445
530.256	13893.07
530.462	14244.4113
530.669	14064.61534
530.876	14143.31356
531.082	13985.37071
531.289	14331.194
531.495	14123.51065
531.702	14510.19296
531.909	14194.3486
532.115	14609.46253
532.322	14146.92333
532.528	14380.16635
532.735	14305.73978
532.941	14508.14221
533.148	14246.32617
533.354	14398.14527
533.561	14430.56519
533.767	14459.15555
533.974	14253.08061
534.18	14629.86117
534.387	14163.14417
534.593	14642.84796
534.799	14336.80733
535.006	14702.7326
535.212	14159.68054
535.418	14589.78649
535.625	14417.78496
535.831	14532.70869
536.037	14234.79297
536.244	14644.20292
536.45	14269.30025
536.656	14403.85611
536.862	14477.87062
537.068	14685.62936
537.275	14524.66251
537.481	14624.83903
537.687	14719.93346
537.893	14804.72231
538.099	14620.54182
538.305	14771.23327
538.512	14607.1548
538.718	14798.46409
538.924	14568.49069
539.13	14679.98349
539.336	14643.91737
539.542	14809.03387
539.748	14816.50837
539.954	14798.82761
540.16	14668.95789
540.366	14795.52317
540.572	14638.35344
540.778	14786.03996
540.984	14652.88645
541.19	14740.62778
541.396	14506.9926
541.602	14815.93518
541.807	14520.13405
542.013	14944.85851
542.219	14421.37216
542.425	14671.68363
542.631	14405.19524
542.837	14548.84191
543.042	14432.14505
543.248	14699.99402
543.454	14346.27196
543.66	14632.73825
543.865	14317.95421
544.071	14644.78989
544.277	14259.07886
544.483	14609.14555
544.688	14266.84654
544.894	14667.53901
545.1	14428.41554
545.305	14591.49972
545.511	14385.61896
545.716	14420.96413
545.922	14268.25358
546.128	14451.88906
546.333	14369.75749
546.539	14631.70305
546.744	14266.8181
546.95	14501.86515
547.155	14286.66313
547.361	14544.63906
547.566	14198.49135
547.772	14454.76738
547.977	14342.53728
548.182	14342.42252
548.388	14330.74518
548.593	14399.10558
548.799	14155.24894
549.004	14473.84026
549.209	14348.41988
549.415	14464.75564
549.62	14089.47342
549.825	14447.40125
550.031	14181.79834
550.236	14461.7541
550.441	14334.18208
550.646	14423.52592
550.852	14484.29305
551.057	14421.37986
551.262	14420.31041
551.467	14537.01805
551.672	14253.48707
551.878	14481.56404
552.083	14280.17522
552.288	14539.33823
552.493	14364.0995
552.698	14356.87422
552.903	14369.38525
553.108	14704.45688
553.313	14425.10657
553.518	14544.94117
553.723	14458.15235
553.928	14659.86713
554.133	14477.98967
554.338	14644.63475
554.543	14519.34741
554.748	14625.25155
554.953	14640.90451
555.158	14673.80392
555.363	14690.57468
555.568	14611.49031
555.773	14693.64856
555.978	14741.48681
556.182	14412.03397
556.387	14543.64013
556.592	14439.76603
556.797	14851.57873
557.002	14601.84421
557.206	14785.53089
557.411	14431.61344
557.616	14601.09746
557.821	14723.40359
558.025	14638.35017
558.23	14592.20325
558.435	14783.03029
558.64	14623.29669
558.844	14767.79428
559.049	14547.40809
559.253	14866.23106
559.458	14525.10101
559.663	14763.6188
559.867	14560.32706
560.072	14567.51934
560.276	14435.59348
560.481	14709.74762
560.685	14532.43419
560.89	14614.89202
561.094	14557.14999
561.299	14616.47792
561.503	14184.11828
561.708	14590.23153
561.912	14253.03085
562.117	14397.40786
562.321	14193.32154
562.525	14534.32779
562.73	14348.41202
562.934	14403.41502
563.139	14218.41939
563.343	14421.10187
563.547	14243.27137
563.752	14373.28194
563.956	14227.12556
564.16	14342.42252
564.364	14214.11095
564.569	14241.60148
564.773	14114.16127
564.977	14338.78433
565.181	14207.35929
565.385	14273.56854
565.59	14045.51863
565.794	14330.51168
565.998	13977.02869
566.202	14136.30416
566.406	14014.22336
566.61	14232.50011
566.814	13962.10034
567.018	14277.80839
567.222	13985.43207
567.426	14007.32704
567.63	13983.08525
567.834	14099.18175
568.038	13990.67472
568.242	14015.01337
568.446	13889.56612
568.65	14071.12868
568.854	13835.34297
569.058	14058.22432
569.262	13812.22919
569.466	14027.52259
569.67	13745.50143
569.874	13827.43513
570.078	13707.71413
570.281	13904.93324
570.485	13742.47673
570.689	13798.43573
570.893	13539.95669
571.097	13931.34032
571.3	13362.72786
571.504	13726.37845
571.708	13323.43124
571.912	13750.43615
572.115	13388.88206
572.319	13343.99416
572.523	13430.49591
572.726	13531.85991
572.93	13290.89177
573.133	13474.37253
573.337	13341.50384
573.541	13365.88473
573.744	13203.72415
573.948	13214.29588
574.151	13120.48384
574.355	13121.5944
574.558	13034.64204
574.762	13304.38215
574.965	13067.18577
575.169	13316.93584
575.372	12925.0697
575.576	13290.1551
575.779	12980.86924
575.983	13109.88099
576.186	12892.12209
576.389	13133.0681
576.593	12890.76514
576.796	12961.77488
577	12590.27572
577.203	13000.51292
577.406	12682.0041
577.609	12829.48528
577.813	12758.93309
578.016	12951.60553
578.219	12789.446
578.423	12689.45686
578.626	12611.16448
578.829	12779.71856
579.032	12729.69074
579.235	12938.11835
579.438	12691.649
579.642	12705.40979
579.845	12441.40589
580.048	12775.40086
580.251	12404.18277
580.454	12686.02229
580.657	12385.17836
580.86	12679.21939
581.063	12467.82112
581.266	12605.85708
581.469	12605.17181
581.672	12571.76913
581.875	12482.16148
582.078	12570.69607
582.281	12363.39353
582.484	12513.3048
582.687	12549.91577
582.89	12668.12713
583.093	12346.58753
583.296	12497.33455
583.499	12515.87816
583.702	12489.68641
583.904	12297.08726
584.107	12604.00816
584.31	12266.31616
584.513	12405.44032
584.716	12444.52035
584.918	12506.54792
585.121	12444.31635
585.324	12463.69433
585.527	12405.57784
585.729	12506.70043
585.932	12456.61575
586.135	12491.5436
586.337	12380.88738
586.54	12639.69053
586.743	12309.70698
586.945	12566.95022
587.148	12267.86903
587.35	12449.55527
587.553	12250.05551
587.755	12331.95215
587.958	12353.69415
588.161	12413.00244
588.363	12339.24616
588.566	12279.45725
588.768	12447.01955
588.971	12311.11727
589.173	12225.00735
589.375	12442.36857
589.578	12094.57178
589.78	12421.67307
589.983	12096.51365
590.185	12181.37565
590.387	11799.22588
590.59	11997.71175
590.792	11795.87712
590.994	11756.12502
591.197	11579.35158
591.399	11524.39624
591.601	11484.56602
591.803	11399.4099
592.006	11284.17161
592.208	11464.7719
592.41	11096.70469
592.612	11399.02061
592.815	10985.03234
593.017	11249.30991
593.219	10785.88824
593.421	10937.19869
593.623	10752.12668
593.825	10753.12959
594.027	10675.7173
594.229	10845.02852
594.432	10520.25192
594.634	10673.54359
594.836	10423.7029
595.038	10629.89236
595.24	10351.07387
595.442	10478.6007
595.644	10243.77257
595.846	10188.72505
596.048	10281.80365
596.249	10146.48529
596.451	10107.60054
596.653	10097.45134
596.855	9900.32144
597.057	10052.48986
597.259	9799.03347
597.461	9949.51103
597.663	9729.39865
597.864	9843.79273
598.066	9756.59281
598.268	9915.39087
598.47	9669.64469
598.671	9941.33578
598.873	9699.48614
599.075	9932.984
599.277	9782.09086
599.478	9843.77592
599.68	9771.8484
599.882	9892.87533
600.083	9798.81452
600.285	9914.83459
600.487	9788.03456
600.688	9987.49366
600.89	10043.82766
601.091	10080.08928
601.293	9970.29611
601.494	9996.71086
601.696	9868.15593
601.898	10073.48311
602.099	10013.54917
602.301	10215.24657
602.502	10080.33994
602.703	10224.17242
602.905	10076.07202
603.106	10256.45894
603.308	10158.85069
603.509	10354.69846
603.711	9993.77836
603.912	10250.89912
604.113	10035.83802
604.315	10317.15638
604.516	10303.10765
604.717	10234.99885
604.919	10158.52005
605.12	10434.11529
605.321	10454.2798
605.522	10374.19564
605.724	10250.79615
605.925	10338.41083
606.126	10449.61364
606.327	10654.95721
606.528	10528.37655
606.729	10649.26511
606.931	10467.61693
607.132	10714.79481
607.333	10378.17826
607.534	10732.82155
607.735	10596.7108
607.936	10721.35277
608.137	10665.51452
608.338	10721.15878
608.539	10620.64545
608.74	10736.85401
608.941	10617.86094
609.142	10824.16672
609.343	10686.38846
609.544	10757.95775
609.745	10626.89234
609.946	10827.43129
610.147	10682.38224
610.348	10812.04215
610.549	10747.3576
610.75	10921.16275
610.95	10714.63579
611.151	10719.22283
611.352	10691.23374
611.553	10819.946
611.754	10630.92073
611.954	10793.74667
612.155	10567.0888
612.356	10785.51405
612.557	10627.69682
612.757	10848.86113
612.958	10608.98992
613.159	10940.60258
613.359	10513.27904
613.56	10633.87532
613.761	10647.85311
613.961	10686.03011
614.162	10427.91071
614.362	10672.52517
614.563	10573.30307
614.764	10696.29701
614.964	10469.5065
615.165	10716.35458
615.365	10495.42982
615.566	10668.79352
615.766	10489.49477
615.967	10642.76493
616.167	10265.20495
616.368	10422.82341
616.568	10397.68715
616.768	10385.40346
616.969	10350.84083
617.169	10563.99588
617.37	10190.75131
617.57	10384.13066
617.77	10205.61068
617.971	10433.91004
618.171	10175.20292
618.371	10281.23273
618.571	10073.64071
618.772	10439.62868
618.972	10211.21708
619.172	10231.68565
619.372	10051.29409
619.573	10288.74973
619.773	10177.16084
619.973	10082.89946
620.173	10015.35696
620.373	10077.26495
620.573	10030.5702
620.774	10223.82626
620.974	9981.17796
621.174	9992.43841
621.374	9944.31215
621.574	10191.67028
621.774	9856.77322
621.974	10070.70818
622.174	9927.31572
622.374	10116.10577
622.574	9974.94982
622.774	10007.99083
622.974	9779.24025
623.174	10051.4312
623.374	10021.47828
623.574	10148.03313
623.774	9904.91
623.973	10030.34908
624.173	9891.83754
624.373	9861.92859
624.573	9740.40219
624.773	9977.90447
624.973	9776.20878
625.172	10030.04844
625.372	9790.06508
625.572	9867.38803
625.772	9660.48799
625.971	9734.85717
626.171	9751.37615
626.371	9885.16845
626.57	9547.86181
626.77	9856.99225
626.97	9543.31617
627.169	9796.02921
627.369	9616.9285
627.569	9799.01392
627.768	9543.59152
627.968	9609.06447
628.167	9445.0997
628.367	9598.88496
628.566	9527.7865
628.766	9605.5398
628.965	9673.03552
629.165	9676.40679
629.364	9443.80206
629.564	9466.72762
629.763	9403.99625
629.963	9511.98883
630.162	9284.11745
630.362	9381.45863
630.561	9239.40542
630.76	9417.42901
630.96	9225.66694
631.159	9291.67432
631.358	9165.67595
631.558	9287.36816
631.757	9105.81271
631.956	9162.96751
632.155	8908.69762
632.355	9085.45463
632.554	8962.92003
632.753	9086.60475
632.952	8871.55173
633.152	9086.82776
633.351	8852.46775
633.55	8967.93673
633.749	8872.18008
633.948	9120.42243
634.147	8804.44205
634.346	8891.23021
634.545	8760.49163
634.744	8889.11089
634.944	8815.82444
635.143	8711.43594
635.342	8672.85032
635.541	8781.93124
635.74	8633.26185
635.939	8678.58564
636.138	8680.53187
636.336	8737.86177
636.535	8633.51714
636.734	8786.38815
636.933	8653.09465
637.132	8754.81187
637.331	8524.06735
637.53	8769.7688
637.729	8547.60272
637.928	8623.66988
638.126	8631.89032
638.325	8690.91932
638.524	8595.35099
638.723	8608.71755
638.921	8472.18432
639.12	8522.4184
639.319	8582.5896
639.518	8694.18924
639.716	8493.28903
639.915	8553.56824
640.114	8583.57664
640.312	8701.55107
640.511	8518.83033
640.71	8666.40544
640.908	8684.9449
641.107	8639.74637
641.305	8492.14657
641.504	8663.68194
641.702	8403.16887
641.901	8572.95286
642.099	8523.05239
642.298	8607.50018
642.496	8456.23533
642.695	8507.34703
642.893	8437.76102
643.092	8691.37832
643.29	8452.74861
643.489	8574.27804
643.687	8344.4236
643.885	8390.48685
644.084	8377.84656
644.282	8580.64337
644.48	8476.62259
644.679	8563.6412
644.877	8417.90721
645.075	8522.67238
645.274	8492.26362
645.472	8421.91851
645.67	8356.37107
645.868	8354.1724
646.067	8259.41562
646.265	8543.10995
646.463	8313.7802
646.661	8290.24238
646.859	8301.75217
647.057	8380.611
647.256	8189.95236
647.454	8311.6908
647.652	8212.65687
647.85	8129.8804
648.048	8131.34805
648.246	8149.1594
648.444	7933.52653
648.642	7989.80535
648.84	7894.9631
649.038	8068.37794
649.236	7717.46514
649.434	7965.28746
649.632	7649.56259
649.83	7865.1334
650.028	7603.62196
650.226	7843.48098
650.423	7539.65475
650.621	7756.16768
650.819	7445.46707
651.017	7574.17857
651.215	7489.49516
651.413	7466.2285
651.61	7316.19067
651.808	7431.75309
652.006	7241.23972
652.204	7402.1957
652.401	7126.3881
652.599	7178.87226
652.797	7132.14131
652.995	7324.59191
653.192	7001.93515
653.39	7272.00503
653.588	6972.00316
653.785	7176.51851
653.983	6814.16808
654.18	7048.83489
654.378	6905.48055
654.576	7031.48088
654.773	6824.81525
654.971	6944.66075
655.168	6818.0834
655.366	6962.88631
655.563	6621.65311
655.761	6990.03216
655.958	6703.0852
656.156	6725.70376
656.353	6672.36465
656.55	6852.48855
656.748	6701.23385
656.945	6604.84623
657.143	6457.36115
657.34	6615.62722
657.537	6631.13409
657.735	6646.11822
657.932	6215.43352
658.129	6518.40872
658.326	6341.60152
658.524	6539.63412
658.721	6322.98882
658.918	6473.26519
659.115	6235.77924
659.313	6317.75958
659.51	6156.58805
659.707	6383.4268
659.904	6197.46636
660.101	6497.43312
660.298	6230.79332
660.496	6302.87936
660.693	6217.63537
660.89	6285.68754
661.087	6188.47751
661.284	6307.52754
661.481	6151.48853
661.678	6444.84887
661.875	6293.18081
662.072	6334.44956
662.269	6168.46333
662.466	6290.65529
662.663	6123.19645
662.86	6213.67147
663.057	6194.24373
663.254	6355.70746
663.45	6208.07731
663.647	6149.12599
663.844	6202.03979
664.041	6230.62199
664.238	6253.14084
664.435	6218.50553
664.631	6071.88505
664.828	6390.53103
665.025	6200.53458
665.222	6248.92279
665.419	6262.64706
665.615	6350.86283
665.812	6132.70021
666.009	6328.5612
666.205	6213.75487
666.402	6436.90549
666.599	6209.89128
666.795	6433.51355
666.992	6283.60496
667.188	6552.82045
667.385	6231.56601
667.582	6583.03518
667.778	6413.20405
667.975	6571.27954
668.171	6309.70846
668.368	6478.46138
668.564	6379.11837
668.761	6571.00576
668.957	6351.10064
669.154	6612.90638
669.35	6284.52114
669.547	6492.19181
669.743	6478.07763
669.939	6575.3296
670.136	6420.83976
670.332	6444.62944
670.528	6362.21967
670.725	6569.04422
670.921	6366.00436
671.117	6396.61738
671.314	6273.21662
671.51	6568.67477
671.706	6347.48352
671.902	6466.34204
672.099	6309.76741
672.295	6472.64932
672.491	6314.19076
672.687	6385.53157
672.883	6362.66234
673.08	6404.7041
673.276	6311.23777
673.472	6479.3024
673.668	6265.67159
673.864	6325.88819
674.06	6138.13841
674.256	6331.5214
674.452	6160.17127
674.648	6279.21271
674.844	6145.52485
675.04	6422.90324
675.236	6167.32583
675.432	6290.52272
675.628	6033.0908
675.824	6119.81082
676.02	6072.97066
676.216	6201.60469
676.412	6054.70344
676.608	6228.41378
676.804	5937.59456
676.999	6156.85393
677.195	5922.77857
677.391	6103.99445
677.587	5921.81646
677.783	6111.6633
677.978	5944.94729
678.174	6087.09367
678.37	5916.33983
678.566	5979.51351
678.761	5836.51233
678.957	5891.72995
679.153	5809.37095
679.348	6019.00793
679.544	5777.16035
679.74	6053.73374
679.935	5743.39909
680.131	6030.20644
680.327	5843.22951
680.522	5906.64522
680.718	5721.33663
680.913	5882.40252
681.109	5753.32029
681.304	5918.23913
681.5	5711.67062
681.695	5877.77763
681.891	5584.25465
682.086	5949.23915
682.282	5600.56946
682.477	5828.6547
682.672	5675.46233
682.868	5724.72737
683.063	5567.78956
683.259	5763.96763
683.454	5612.19458
683.649	5743.45309
683.845	5365.71484
684.04	5708.14753
684.235	5531.8891
684.43	5667.22513
684.626	5569.11152
684.821	5743.61723
685.016	5412.10789
685.211	5747.28553
685.407	5523.52157
685.602	5596.00073
685.797	5463.95113
685.992	5568.19101
686.187	5534.68874
686.382	5608.99878
686.577	5293.03563
686.773	5367.06947
686.968	5382.34063
687.163	5463.79361
687.358	5323.94377
687.553	5467.14738
687.748	5385.36855
687.943	5414.99983
688.138	5202.65865
688.333	5401.68021
688.528	5057.31562
688.723	5263.36251
688.918	5205.22285
689.112	5115.41426
689.307	4847.85175
689.502	5080.55832
689.697	4851.80607
689.892	4909.05342
690.087	4739.88452
690.282	4892.18635
690.476	4563.19372
690.671	4847.30183
690.866	4418.96072
691.061	4705.42795
691.255	4459.75031
691.45	4646.07351
691.645	4390.77187
691.84	4526.62474
692.034	4277.38272
692.229	4348.24046
692.424	4204.01786
692.618	4382.68261
692.813	4085.00028
693.007	4200.68797
693.202	4093.21418
693.397	4237.12629
693.591	4002.9359
693.786	4135.20485
693.98	3934.97366
694.175	4170.72363
694.369	3795.68744
694.564	4046.983
694.758	3858.14447
694.953	3944.37624
695.147	3728.75391
695.342	3890.5442
695.536	3758.51076
695.73	3853.30775
695.925	3535.79363
696.119	3745.51556
696.313	3571.52277
696.508	3692.77422
696.702	3393.2126
696.896	3609.70013
697.091	3374.96589
697.285	3628.53913
697.479	3433.34518
697.673	3523.63617
697.868	3431.39036
698.062	3650.20027
698.256	3417.62292
698.45	3583.52612
698.644	3546.27292
698.839	3615.27785
699.033	3510.69053
699.227	3694.82194
699.421	3420.76484
699.615	3691.98717
699.809	3467.67796
700.003	3646.37716
700.197	3493.97689
700.391	3805.94826
700.585	3458.7801
700.779	3804.25313
700.973	3705.37137
701.167	3761.77611
701.361	3690.82568
701.555	3748.04142
701.749	3515.73575
701.943	3680.28764
702.137	3651.49376
702.331	3804.68094
702.525	3623.43956
702.718	3778.41497
702.912	3514.9816
703.106	3582.74366
703.3	3523.89442
703.494	3687.73468
703.687	3534.04305
703.881	3707.72123
704.075	3577.23713
704.269	3814.35
704.462	3460.90105
704.656	3762.87981
704.85	3514.88004
705.043	3783.84148
705.237	3597.48225
705.431	3773.59767
705.624	3491.002
705.818	3876.24661
706.012	3657.4811
706.205	3988.1672
706.399	3700.45478
706.592	3910.23643
706.786	3643.04853
706.979	3784.43014
707.173	3705.73684
707.366	3878.77991
707.56	3640.54958
707.753	3939.85802
707.947	3598.09714
708.14	3878.92109
708.333	3576.96692
708.527	3807.2153
708.72	3699.41841
708.914	3906.23538
709.107	3754.63088
709.3	3920.63844
709.494	3623.86511
709.687	3846.33528
709.88	3738.08465
710.073	3936.71236
710.267	3846.39726
710.46	3942.04034
710.653	3866.36832
710.846	4022.94921
711.04	3965.77436
711.233	4112.98825
711.426	3808.18364
711.619	4094.77091
711.812	3886.30182
712.005	4131.87834
712.198	3914.05001
712.391	4201.59593
712.585	4059.20863
712.778	4162.51011
712.971	4004.37849
713.164	4247.31169
713.357	4100.34505
713.55	4348.89016
713.743	4226.44276
713.936	4423.47226
714.129	4088.98495
714.322	4229.27684
714.514	4096.81528
714.707	4429.20394
714.9	4194.26864
715.093	4462.02064
715.286	4285.17657
715.479	4309.58598
715.672	4322.65323
715.864	4411.96081
716.057	4150.32408
716.25	4459.38075
716.443	4308.48415
716.636	4440.45806
716.828	4252.3275
717.021	4442.3428
717.214	4335.07382
717.406	4558.49023
717.599	4207.5476
717.792	4372.52016
717.984	4199.60155
718.177	4367.08388
718.37	4240.02665
718.562	4315.66792
718.755	4186.27778
718.947	4409.30833
719.14	3966.75476
719.333	4094.33626
719.525	3832.48757
719.718	4063.18865
719.91	3828.80695
720.103	3904.12793
720.295	3606.97807
720.487	3745.30603
720.68	3497.31469
720.872	3627.02091
721.065	3241.79663
721.257	3449.04354
721.449	3065.80227
721.642	3302.33293
721.834	3078.72883
722.026	3021.29903
722.219	2759.7475
722.411	2996.44494
722.603	2722.38232
722.796	2933.89949
722.988	2609.70865
723.18	2832.7141
723.372	2572.74249
723.565	2656.84711
723.757	2352.73942
723.949	2644.54938
724.141	2370.58879
724.333	2611.78536
724.525	2355.94561
724.717	2525.29267
724.91	2278.61325
725.102	2428.34802
725.294	2101.37978
725.486	2339.00318
725.678	2256.66955
725.87	2228.10425
726.062	2023.70439
726.254	2153.53165
726.446	1915.40775
726.638	2180.45678
726.83	1798.31386
727.022	1967.2852
727.213	1900.26015
727.405	2085.7371
727.597	1872.72162
727.789	1960.49017
727.981	1774.58306
728.173	1968.54038
728.365	1815.32874
728.556	2025.86591
728.748	1789.25585
728.94	2005.13734
729.132	1858.96397
729.324	2107.21017
729.515	1899.02898
729.707	2036.34113
729.899	1940.03356
730.09	2093.07467
730.282	1862.08193
730.474	2083.81777
730.665	1942.87196
730.857	2165.86718
731.049	1976.74384
731.24	2099.4217
731.432	1932.36985
731.623	2073.22941
731.815	1997.14711
732.006	2115.23049
732.198	1890.12714
732.389	2133.92277
732.581	1835.60474
732.772	2007.28839
732.964	1825.75042
733.155	2040.59868
733.347	1825.36443
733.538	2011.67659
733.729	1795.43949
733.921	2177.00709
734.112	1927.34709
734.304	2166.87612
734.495	1924.14498
734.686	2204.10444
734.877	2184.26797
735.069	2282.58521
735.26	2006.21966
735.451	2317.14932
735.643	2206.72551
735.834	2429.85969
736.025	2291.44456
736.216	2442.91726
736.407	2341.8999
736.599	2541.1202
736.79	2291.95144
736.981	2754.50473
737.172	2501.87196
737.363	2745.07448
737.554	2629.75423
737.745	2828.7037
737.936	2762.34358
738.127	3010.13415
738.318	2795.28748
738.509	2921.76786
738.7	2812.98715
738.891	3187.98233
739.082	2876.0724
739.273	3251.99727
739.464	3062.64064
739.655	3309.82637
739.846	2996.26719
740.037	3470.34234
740.228	3145.14555
740.419	3545.95526
740.609	3187.2708
740.8	3538.25667
740.991	3322.63833
741.182	3726.77531
741.373	3494.37726
741.563	3868.90122
741.754	3479.88058
741.945	3895.28726
742.136	3730.99699
742.326	3887.93481
742.517	3718.58346
742.708	3959.6497
742.898	3860.07513
743.089	4064.56604
743.28	3807.98965
743.47	4270.37777
743.661	3858.22062
743.851	4318.4404
744.042	3859.45158
744.233	4209.76161
744.423	3989.02807
744.614	4208.87468
744.804	4098.54957
744.995	4238.35567
745.185	3868.61988
745.376	4374.69556
745.566	4166.56095
745.756	4523.9756
745.947	4159.85917
746.137	4598.54417
746.328	4339.84952
746.518	4576.26392
746.708	4261.04329
746.899	4570.78212
747.089	4402.02898
747.279	4639.72038
747.47	4382.17642
747.66	4736.44177
747.85	4508.36579
748.04	4630.27609
748.231	4478.18501
748.421	4764.82263
748.611	4485.99195
748.801	4819.13407
748.991	4559.50536
749.182	4803.88694
749.372	4523.29869
749.562	4746.65078
749.752	4639.10571
749.942	4910.45952
750.132	4659.74928
750.322	5011.96135
750.512	4546.64572
750.702	4878.85558
750.892	4563.42382
751.082	4879.22025
751.272	4588.57682
751.462	5027.08663
751.652	4754.28382
751.842	4959.93179
752.032	4640.39817
752.222	5053.97008
752.412	4756.57285
752.602	4890.17998
752.792	4764.83683
752.981	4897.16208
753.171	4654.08047
753.361	4996.19325
753.551	4618.07448
753.741	4993.27181
753.93	4743.68244
754.12	4950.12422
754.31	4580.77336
754.5	4946.93374
754.689	4641.36489
754.879	4913.20272
755.069	4553.9831
755.258	4941.90473
755.448	4677.31295
755.638	4856.04962
755.827	4743.62684
756.017	4856.09128
756.206	4598.33945
756.396	4820.02771
756.586	4618.89249
756.775	4940.72804
756.965	4539.1827
757.154	4885.12567
757.344	4459.32552
757.533	4819.14142
757.723	4456.36316
757.912	4797.11519
758.101	4542.61144
758.291	4740.01435
758.48	4570.73071
758.67	4715.07357
758.859	4403.92571
759.048	4879.60366
759.238	4440.37953
759.427	4716.56047
759.616	4481.09802
759.806	4652.04676
759.995	4293.30457
760.184	4598.75731
760.373	4379.86609
760.563	4673.69648
760.752	4328.36459
760.941	4497.47331
761.13	4165.8444
761.319	4313.46679
761.509	4082.75953
761.698	4206.88002
761.887	4006.65893
762.076	3992.92735
762.265	3674.43358
762.454	3701.92812
762.643	3397.13887
762.832	3586.99623
763.021	3231.37269
763.21	3390.95026
763.399	2926.17358
763.588	3128.30908
763.777	2686.22588
763.966	2828.9953
764.155	2470.23436
764.344	2615.42478
764.533	2265.52713
764.722	2501.49558
764.911	2072.31371
765.1	2140.89164
765.288	1909.38253
765.477	2049.35391
765.666	1681.99575
765.855	1924.78196
766.044	1556.15705
766.232	1625.35049
766.421	1368.6429
766.61	1447.06659
766.799	1193.22297
766.987	1275.57022
767.176	1142.76596
767.365	1191.48543
767.553	963.06251
767.742	1090.47461
767.931	815.05765
768.119	954.84369
768.308	763.66073
768.497	894.04075
768.685	695.80397
768.874	745.21641
769.062	709.48374
769.251	743.73071
769.439	632.16583
769.628	864.11743
769.816	706.02719
770.005	874.35996
770.193	791.67989
770.382	816.87802
770.57	840.58113
770.758	1059.97682
770.947	917.37563
771.135	1137.2217
771.323	991.425
771.512	1283.18745
771.7	1077.53864
771.888	1383.66927
772.077	1281.40002
772.265	1538.83948
772.453	1360.93967
772.642	1661.88731
772.83	1400.49628
773.018	1777.71611
773.206	1499.75652
773.394	1879.00192
773.583	1755.57978
773.771	2023.77791
773.959	1948.02253
774.147	2125.53342
774.335	2179.36908
774.523	2292.67496
774.711	2166.2768
774.899	2496.11635
775.087	2333.04728
775.275	2661.9314
775.463	2524.40168
775.651	2686.65453
775.839	2503.83391
776.027	2835.01148
776.215	2667.69585
776.403	2870.4508
776.591	2702.3295
776.779	2967.61747
776.967	2675.69568
777.155	3096.81149
777.343	2886.30336
777.531	3187.18207
777.718	2861.04824
777.906	3151.35008
778.094	2966.41648
778.282	3108.01952
778.47	2968.14464
778.657	3311.76276
778.845	2883.34633
779.033	3268.60953
779.22	3019.66622
779.408	3233.86825
779.596	3063.36356
779.783	3298.75245
779.971	3052.3513
780.159	3234.12081
780.346	2937.01772
780.534	3281.78848
780.722	3009.83163
780.909	3351.16846
781.097	2956.0293
781.284	3233.99849
781.472	2992.28819
781.659	3213.61665
781.847	3053.94288
782.034	3294.51083
782.222	3116.7164
782.409	3217.88019
782.597	3016.95621
782.784	3183.59372
782.971	2987.85413
783.159	3165.58471
783.346	2970.03295
783.533	3155.66757
783.721	2914.05414
783.908	3172.10863
784.095	2827.54647
784.283	3167.68722
784.47	2931.36187
784.657	3018.95188
784.844	2939.08704
785.032	3034.99023
785.219	2784.48359
785.406	3080.81666
785.593	2879.59664
785.78	2980.16649
785.968	2762.11214
786.155	3021.61035
786.342	2768.89035
786.529	3022.85487
786.716	2721.18717
786.903	2955.09667
787.09	2641.75447
787.277	2946.34058
787.464	2635.66847
787.651	2780.95261
787.838	2542.4727
788.025	2834.6571
788.212	2617.03995
788.399	2845.92658
788.586	2490.20219
788.773	2859.85724
788.96	2638.09946
789.147	2887.19195
789.334	2486.19477
789.521	2726.44161
789.707	2410.83755
789.894	2825.90626
790.081	2379.0239
790.268	2701.74348
790.455	2433.10113
790.641	2541.79432
790.828	2269.295
791.015	2529.37172
791.202	2358.56059
791.388	2547.31383
791.575	2334.42722
791.762	2367.84267
791.948	2262.26184
792.135	2410.83755
792.322	2165.3875
792.508	2279.91687
792.695	2122.06767
792.881	2322.65325
793.068	2154.42656
793.254	2285.93609
793.441	2013.46821
793.627	2177.38439
793.814	1970.12137
794	2227.20258
794.187	1875.10731
794.373	2145.45775
794.56	1923.97508
794.746	2142.71338
794.933	1909.75262
795.119	2087.27229
795.305	1811.87321
795.492	2035.85086
795.678	1847.01793
795.864	2028.7802
796.051	1865.15503
796.237	2092.85745
796.423	1766.5074
796.61	2001.9859
796.796	1797.7917
796.982	1959.70235
797.168	1632.33276
797.355	1986.33108
797.541	1822.45186
797.727	1952.84672
797.913	1590.77508
798.099	1898.44996
798.285	1729.25576
798.471	1858.61865
798.658	1602.93124
798.844	1872.46383
799.03	1621.62612
799.216	1760.25035
799.402	1801.43092
799.588	1853.59711
799.774	1645.93222
799.96	1824.2353
800.146	1700.85337
800.332	1860.49863
800.518	1525.93816
800.704	1779.94271
800.89	1565.03223
801.075	1775.19313
801.261	1551.83943
801.447	1718.13544
801.633	1571.69271
801.819	1840.41037
802.005	1484.12311
802.19	1860.05666
802.376	1514.51789
802.562	1629.01951
802.748	1526.11115
802.934	1799.52278
803.119	1433.11089
803.305	1834.35917
803.491	1543.05606
803.676	1624.96293
803.862	1507.89594
804.048	1644.18118
804.233	1509.90847
804.419	1643.49644
804.605	1491.0996
804.79	1702.4594
804.976	1378.53702
805.161	1662.11811
805.347	1448.42026
805.532	1585.12684
805.718	1347.14726
805.903	1575.35574
806.089	1465.89907
806.274	1532.99355
806.46	1457.78849
806.645	1582.3289
806.831	1391.56675
807.016	1646.51375
807.201	1399.76064
807.387	1632.29429
807.572	1341.99514
807.757	1591.6389
807.943	1413.23272
808.128	1596.68557
808.313	1453.56283
808.499	1464.98946
808.684	1394.37518
808.869	1508.7935
809.054	1353.10937
809.24	1532.92895
809.425	1384.41093
809.61	1551.02102
809.795	1309.49065
809.98	1527.11079
810.165	1355.86633
810.35	1462.60373
810.536	1418.9591
810.721	1479.23831
810.906	1299.73915
811.091	1471.38197
811.276	1343.65279
811.461	1370.36192
811.646	1206.05683
811.831	1483.61677
812.016	1318.95852
812.201	1422.98167
812.386	1299.45978
812.571	1420.25332
812.756	1152.52299
812.941	1396.04803
813.125	1175.08895
813.31	1473.45121
813.495	1166.52932
813.68	1318.96634
813.865	1213.58887
814.05	1268.35255
814.234	1133.61602
814.419	1390.70278
814.604	1088.86514
814.789	1228.6289
814.973	996.47495
815.158	1252.31919
815.343	1117.35139
815.528	1128.95449
815.712	976.69568
815.897	1197.52177
816.081	870.16201
816.266	1069.11103
816.451	913.85535
816.635	905.29191
816.82	762.18524
817.004	873.72502
817.189	716.53342
817.374	933.86562
817.558	664.35093
817.743	786.63331
817.927	696.60926
818.111	762.03147
818.296	551.49545
818.48	730.01056
818.665	593.20886
818.849	577.449
819.034	479.81007
819.218	628.92724
819.402	503.84047
819.587	522.55804
819.771	429.38344
819.955	417.84373
820.14	429.07138
820.324	461.69447
820.508	415.80201
820.692	417.83371
820.877	408.9589
821.061	366.73154
821.245	427.4587
821.429	391.88289
821.613	289.95608
821.798	341.64835
821.982	268.42997
822.166	314.02623
822.35	284.95868
822.534	381.93701
822.718	325.9807
822.902	318.3547
823.086	343.77739
823.27	243.43175
823.454	152.10531
823.638	263.8922
823.822	323.74503
824.006	352.63248
824.19	247.52655
824.374	374.09348
824.558	214.91677
824.742	253.25913
824.926	287.27078
825.11	219.72935
825.294	240.81962
825.477	286.62165
825.661	161.50777
825.845	257.02657
826.029	167.88918
826.213	254.03314
826.396	197.15223
826.58	314.15736
826.764	180.80954
826.948	175.95891
827.131	175.98754
827.315	272.80529
827.499	214.41445
827.682	301.08211
827.866	229.27395
828.05	231.80722
828.233	171.66257
828.417	267.16651
828.6	266.44269
828.784	273.15649
828.967	180.33917
829.151	257.17567
829.335	210.44993
829.518	245.81318
829.701	209.91413
829.885	217.00687
830.068	216.0274
830.252	264.77475
830.435	186.06885
830.619	249.32314
830.802	192.74549
830.985	249.8683
831.169	261.68389
831.352	211.10639
831.535	112.63716
831.719	228.9004
831.902	286.71544
832.085	284.01325
832.269	243.5107
832.452	241.6515
832.635	262.65306
832.818	258.31262
833.002	210.17051
833.185	254.89884
833.368	207.09044
833.551	270.80164
833.734	212.68326
833.917	289.34027
834.1	230.87578
834.284	245.26955
834.467	186.62927
834.65	253.6612
834.833	266.65993
835.016	200.10709
835.199	283.83012
835.382	234.11564
835.565	133.97185
835.748	291.41954
835.931	209.59981
836.114	239.63512
836.297	201.17375
836.479	285.19117
836.662	209.63399
836.845	290.30872
837.028	227.6691
837.211	244.76574
837.394	176.05927
837.577	253.92942
837.759	170.09564
837.942	282.86071
838.125	218.72436
838.308	303.4785
838.49	189.14611
838.673	201.02731
838.856	153.47386
839.039	154.76628
839.221	311.47941
839.404	250.11272
839.587	251.52627
839.769	130.51407
839.952	344.22651
840.134	324.29051
840.317	210.78094
840.499	273.1122
840.682	261.7693
840.865	318.6395
841.047	176.87162
841.23	255.80568
841.412	279.01089
841.595	381.7945
841.777	231.51091
841.959	359.91154
842.142	307.31932
842.324	287.72392
842.507	337.91724
842.689	247.2456
842.871	226.29464
843.054	257.34747
843.236	272.54315
843.418	308.49042
843.601	311.24947
843.783	341.84244
843.965	315.01946
844.147	342.18728
844.33	236.65131
844.512	314.30641
844.694	386.00849
844.876	260.52447
845.059	295.80705
845.241	252.34639
845.423	271.682
845.605	280.12343
845.787	279.91104
845.969	247.60976
846.151	270.05469
846.333	373.66293
846.515	307.82106
846.697	462.37168
846.879	287.19338
847.061	280.30428
847.243	299.43452
847.425	273.9252
847.607	293.21389
847.789	364.51139
847.971	345.99944
848.153	335.03738
848.335	337.9447
848.517	315.70598
848.699	368.37338
848.881	342.80993
849.062	289.28594
849.244	326.04075
849.426	280.57717
849.608	327.46485
849.789	228.19436
849.971	337.02416
850.153	319.30613
850.335	383.27618
850.516	285.14227
850.698	280.19115
850.88	377.47332
851.061	279.24636
851.243	304.93096
851.425	322.90461
851.606	232.87061
851.788	233.46197
851.969	254.73292
852.151	283.41371
852.333	309.92925
852.514	295.78317
852.696	289.29322
852.877	299.16946
853.059	337.52818
853.24	314.96835
853.422	275.27189
853.603	241.02986
853.784	246.78146
853.966	214.18854
854.147	274.01376
854.329	259.83025
854.51	220.9864
854.691	164.69244
854.873	317.187
855.054	306.9925
855.235	237.67786
855.416	166.53791
855.598	295.46367
855.779	297.8624
855.96	216.96227
856.141	318.02585
856.323	230.2256
856.504	232.46163
856.685	159.39612
856.866	265.20566
857.047	93.25699
857.228	286.51294
857.409	206.33945
857.591	241.40314
857.772	182.47279
857.953	239.61999
858.134	183.92939
858.315	148.21102
858.496	140.47996
858.677	191.08655
858.858	211.36593
859.039	190.85099
859.22	174.5604
859.401	148.1629
859.582	163.96272
859.762	130.34631
859.943	196.79232
860.124	159.38317
860.305	216.20447
860.486	86.32202
860.667	224.58696
860.848	185.93231
861.028	224.96162
861.209	190.83532
861.39	139.70308
861.571	225.55833
861.751	167.97185
861.932	170.30383
862.113	176.18892
862.293	98.66463
862.474	176.53024
862.655	91.30629
862.835	187.29721
863.016	259.77172
863.197	159.55207
863.377	230.93834
863.558	175.6744
863.738	206.50884
863.919	57.26743
864.099	233.25145
864.28	177.71897
864.46	236.22191
864.641	154.73329
864.821	209.90889
865.002	177.64606
865.182	162.38624
865.363	112.36218
865.543	170.84548
865.723	117.25265
865.904	195.7239
866.084	137.10353
866.264	183.76436
866.445	190.39654
866.625	147.46909
866.805	169.92965
866.986	113.80212
867.166	122.11467
867.346	108.04814
867.526	150.39747
867.707	184.36967
867.887	198.36451
868.067	130.90727
868.247	153.43963
868.427	125.47653
868.607	196.64686
868.788	148.87832
868.968	53.89886
869.148	103.04699
869.328	95.34026
869.508	156.19075
869.688	156.90876
869.868	253.56359
870.048	164.61046
870.228	178.4255
870.408	118.80898
870.588	110.48079
870.768	180.40124
870.948	176.43571
871.128	160.28767
871.307	35.8629
871.487	46.62195
871.667	102.18374
871.847	86.53975
872.027	125.71418
872.207	100.12268
872.387	171.11325
872.566	80.78889
872.746	156.48699
872.926	111.46296
873.106	131.09085
873.285	81.2893
873.465	151.95543
873.645	210.2562
873.824	134.02291
874.004	97.2941
874.184	130.13869
874.363	63.20497
874.543	103.26743
874.723	152.19468
874.902	51.9439
875.082	128.15898
875.261	100.31194
875.441	31.00984
875.62	96.94343
875.8	51.48687
875.979	110.8763
876.159	21.77507
876.338	162.43483
876.518	124.6889
876.697	11.04567
876.876	145.71692
877.056	155.52644
877.235	9.08706
877.415	148.13804
877.594	38.30486
877.773	101.8654
877.953	8.61658
878.132	92.94596
878.311	98.90844
878.49	156.05205
878.67	112.06042
878.849	143.7463
879.028	-0.16255
879.207	177.06884
879.387	87.5916
879.566	115.54588
879.745	54.91257
879.924	128.59268
880.103	57.84357
880.282	129.70555
880.461	46.12741
880.64	153.70704
880.819	113.01571
880.998	149.78419
881.178	117.0856
881.357	60.30813
881.536	165.24661
881.715	31.0353
881.893	50.08407
882.072	137.02335
882.251	25.69884
882.43	36.90558
882.609	134.11191
882.788	88.68245
882.967	110.61771
883.146	146.44701
883.325	41.752
883.503	112.5754
883.682	42.74364
883.861	137.11464
884.04	100.94109
884.219	24.69683
884.397	30.09815
884.576	-32.83377
884.755	127.24853
884.933	3.2513
885.112	10.08035
885.291	69.5974
885.469	131.15608
885.648	98.45389
885.827	14.47269
886.005	45.17591
886.184	66.18092
886.363	63.3254
886.541	48.58969
886.72	22.28262
886.898	71.51094
887.077	45.66681
887.255	70.04995
887.434	140.62018
887.612	146.78763
887.791	47.65476
887.969	121.35222
888.147	59.87047
888.326	19.34793
888.504	63.33595
888.682	63.80793
888.861	49.13363
889.039	18.85254
889.218	21.29652
889.396	53.43415
889.574	70.62456
889.752	96.10491
889.931	120.47826
890.109	115.4597
890.287	34.5026
890.465	60.37308
890.643	47.19461
890.822	6.18022
891	58.4807
891.178	95.04199
891.356	43.263
891.534	78.02864
891.712	86.23806
891.89	95.96907
892.068	141.8937
892.247	46.71844
892.425	53.06562
892.603	54.00998
892.781	58.43196
892.959	25.7031
893.137	108.209
893.314	50.07579
893.492	51.0885
893.67	-39.66191
893.848	53.03917
894.026	163.15324
894.204	72.09931
894.382	-6.99323
894.56	49.62954
894.738	45.20948
894.915	77.51469
895.093	46.69515
895.271	-21.63203
895.449	91.61447
895.626	-44.53103
895.804	36.89644
895.982	2.27934
896.16	16.92946
896.337	53.02598
896.515	103.39616
896.693	5.69613
896.87	-10.88996
897.048	57.48506
897.225	40.37094
897.403	34.95289
897.581	-3.57951
897.758	-32.85821
897.936	-10.89625
898.113	53.52238
898.291	35.50807
898.468	90.82159
898.646	-57.71295
898.823	11.05113
899.001	4.71543
899.178	79.54602
899.356	12.03099
899.533	132.73884
899.71	10.09458
899.888	48.21443
900.065	-21.14917
900.242	-79.22755
900.42	49.58435
900.597	14.99283
900.774	10.09626
900.952	36.4574
901.129	83.3272
901.306	-17.74057
901.483	-2.11319
901.661	19.37363
901.838	-46.02146
902.015	101.00853
902.192	1.30327
902.369	-9.43703
902.546	103.0638
902.723	12.53421
902.901	35.49622
903.078	92.69738
903.255	-22.12199
903.432	-2.1174
903.609	14.99409
903.786	56.59424
903.963	3.25507
904.14	-77.7808
904.317	14.00122
904.494	14.49314
904.671	-40.69177
904.848	2.76729
905.024	11.08147
905.201	68.28896
905.378	6.18741
905.555	-5.04733
905.732	-86.15635
905.909	19.39631
906.086	4.71895
906.262	-57.8233
906.439	63.43681
906.616	-62.17397
906.793	-9.94015
906.969	78.54955
907.146	41.91207
907.323	40.37766
907.5	-28.95954
907.676	20.84181
907.853	-79.28023
908.03	18.8901
908.206	69.19048
908.383	2.2824
908.559	65.30938
908.736	31.61426
908.912	-50.89586
909.089	-46.51356
909.266	-10.91166
909.442	-116.18169
909.619	73.19068
909.795	-0.16278
909.972	52.56461
910.148	-42.15773
910.324	35.05495
910.501	13.02896
910.677	-18.23203
910.854	45.33794
911.03	-19.21387
911.206	44.37138
911.383	33.53224
911.559	-72.42241
911.735	3.25969
911.912	19.86353
912.088	-11.88902
912.264	34.06009
912.44	-12.8718
912.617	-77.26635
912.793	118.65738
912.969	32.58057
913.145	-24.09674
913.321	31.60368
913.498	-4.06901
913.674	57.56216
913.85	-3.09497
914.026	-25.54784
914.202	58.99853
914.378	31.13609
914.554	-19.71074
914.73	23.77944
914.906	-13.34734
915.082	-0.16287
915.258	20.37223
915.434	-9.92936
915.61	25.24466
915.786	56.09598
915.962	-5.04902
916.138	2.28163
916.314	1.30272
916.49	-22.13484
916.665	-12.8632
916.841	-44.1198
917.017	-44.09779
917.193	67.78922
917.369	39.42777
917.545	51.62341
917.72	-40.20313
917.896	-5.04986
918.072	13.51856
918.247	35.02558
918.423	-26.05357
918.599	76.65445
918.775	-42.6393
918.95	-29.49454
919.126	86.33148
919.301	-81.73916
919.477	-4.56495
919.653	-4.55808
919.828	-29.48221
920.004	-22.61954
920.179	34.07152
920.355	-55.35005
920.53	-19.71404
920.706	-6.51231
920.881	-78.26962
921.057	-21.65902
921.232	-15.31005
921.408	-31.45631
921.583	-5.54092
921.759	-24.61213
921.934	-34.35157
922.109	18.89957
922.285	4.71973
922.46	-13.34956
922.635	-120.61772
922.811	-37.7821
922.986	18.41248
923.161	-72.44651
923.336	-66.52375
923.512	-100.73051
923.687	24.76454
923.862	-4.55657
924.037	80.54299
924.212	30.62676
924.388	-2.11829
924.563	-79.22755
924.738	15.98109
924.913	-49.5507
925.088	2.76683
925.263	8.14923
925.438	-62.14816
925.613	-34.85189
925.788	-68.02879
925.963	-23.614
926.138	-8.47336
926.313	-45.58997
926.488	13.5163
926.663	-35.85965
926.838	-14.8176
927.013	-5.05028
927.188	65.82493
927.363	26.72546
927.538	-3.58278
927.713	45.80756
927.888	37.95605
928.062	58.00219
928.237	51.64498
928.412	52.63042
928.587	19.86518
928.761	-45.62044
928.936	17.44243
929.111	40.42157
929.286	27.19364
929.46	-24.58949
929.635	32.06804
929.81	43.82711
929.984	3.74548
930.159	36.47562
930.334	-28.99331
930.508	163.35943
930.683	-7.00664
930.857	-21.16676
931.032	32.11904
931.206	20.3825
931.381	34.06866
931.556	-42.1929
931.73	-7.00254
931.904	32.60515
932.079	45.79987
932.253	-28.99331
932.428	-48.49896
932.602	18.90432
932.777	-27.53818
932.951	20.85749
933.125	-59.24134
933.3	-77.34346
933.474	29.65228
933.648	61.45096
933.823	-54.8293
933.997	28.21033
934.171	-14.82254
934.345	39.96316
934.52	-56.38897
934.694	2.28087
934.868	-26.54008
935.042	11.56929
935.217	26.74341
935.391	5.21884
935.565	-9.45676
935.739	-15.80673
935.913	-7.50436
936.087	-75.36816
936.261	-36.81051
936.435	12.06715
936.609	6.19
936.783	-46.60271
936.957	-9.44805
937.131	-4.07616
937.305	-14.34819
937.479	21.83848
937.653	82.06357
937.827	35.5438
938.001	-74.45855
938.175	-9.44963
938.349	-56.87837
938.523	-62.27799
938.697	27.21639
938.87	-13.85195
939.044	-59.78989
939.218	-41.23203
939.392	39.41459
939.566	9.1362
939.739	-87.54413
939.913	-50.01915
940.087	46.76918
940.261	-141.14919
940.434	82.46904
940.608	-54.8795
940.782	-54.86121
940.955	-51.98474
941.129	-13.84269
941.302	-70.50229
941.476	-11.91
941.65	-50.90007
941.823	-27.0378
941.997	29.20298
942.17	8.14992
942.344	-15.80541
942.517	-30.44732
942.691	-48.52319
942.864	-129.99002
943.038	-3.09291
943.211	-103.59611
943.385	-97.86158
943.558	-2.11687
943.731	-70.02492
943.905	7.65842
944.078	-47.55732
944.251	-30.9645
944.425	-67.61324
944.598	-19.22189
944.771	19.88013
944.945	90.37122
945.118	-34.38891
945.291	-51.95865
945.464	-31.44051
945.638	33.069
945.811	-12.87503
945.984	-73.47359
946.157	6.18948
946.33	49.71661
946.503	-86.12044
946.677	-32.94061
946.85	-64.61805
947.023	-19.69759
947.196	17.45565
947.369	-5.53768
947.542	63.88793
947.715	-11.89598
947.888	-2.11953
948.061	-52.42586
948.234	-92.33403
948.407	-53.44379
948.58	34.04015
948.753	52.17704
948.926	-21.66082
949.099	36.02053
949.271	17.43074
949.444	-65.64498
949.617	-30.99314
949.79	6.19259
949.963	-13.35624
950.136	-89.01085
950.308	5.2149
950.481	-52.48727
950.654	-81.78012
950.827	29.14671
950.999	-114.43618
951.172	-44.12347
951.345	-71.52222
951.517	-42.15072
951.69	-47.58517
951.863	27.2301
952.035	-97.32365
952.208	35.0579
952.381	12.55203
952.553	34.57774
952.726	42.37603
952.898	-25.59912
953.071	-55.8296
953.243	-26.56895
953.416	-55.33163
953.588	13.03549
953.761	5.7047
953.933	11.57026
954.106	-33.39927
954.278	5.70566
954.45	-92.05959
954.623	-49.53409
954.795	-37.31818
954.967	-68.96636
955.14	17.4395
955.312	9.12852
955.484	26.2456
955.657	-29.98617
955.829	-58.87561
956.001	41.40577
956.173	15.49461
956.346	-45.11995
956.518	-103.67347
956.69	75.15688
956.862	-0.65226
957.034	54.62973
957.207	-20.18613
957.379	-2.11811
957.551	52.67905
957.723	1.30272
957.895	16.94643
958.067	-7.97777
958.239	-9.94265
958.411	-41.70383
958.583	13.04864
958.755	18.88852
958.927	8.63956
959.099	-29.4896
959.271	-16.79179
959.443	6.68591
959.615	-6.51666
959.787	-12.86749
959.959	20.36541
960.13	-96.32155
960.302	-63.20425
960.474	53.62965
960.646	8.15609
960.818	46.31178
960.99	-125.97282
961.161	-39.23568
961.333	15.96234
961.505	-50.47041
961.677	-13.85777
961.848	4.2354
962.02	8.63884
962.192	4.72802
962.363	-7.98044
962.535	0.32618
962.707	-24.10478
962.878	-33.894
963.05	-10.43347
963.221	-30.91546
963.393	-66.60119
963.564	-55.84355
963.736	32.16243
963.907	-9.44253
964.079	48.34457
964.25	25.27217
964.422	-122.67394
964.593	-5.53814
964.765	-58.84098
964.936	37.96558
965.108	11.56542
965.279	-71.47447
965.45	-3.58729
965.622	13.52988
965.793	18.90432
965.964	-27.98523
966.136	-81.78012
966.307	15.48419
966.478	-13.85544
966.65	-12.86213
966.821	-90.48516
966.992	13.02787
967.163	-114.89682
967.334	3.74517
967.506	-48.05033
967.677	-8.96078
967.848	10.60247
968.019	-29.47483
968.19	0.32604
968.361	-89.56685
968.532	-2.11793
968.703	6.68591
968.874	-9.44963
969.045	13.52421
969.216	-29.50444
969.387	-18.2442
969.558	16.47988
969.729	-11.89101
969.9	-4.07479
970.071	18.4094
970.242	-69.08129
970.413	63.3096
970.584	-17.75834
970.755	-58.23969
970.926	-42.18585
971.097	-101.77635
971.267	-68.03445
971.438	-76.3907
971.609	-87.58053
971.78	-61.25767
971.951	-33.87983
972.121	-45.08236
972.292	-54.89783
972.463	-7.49553
972.633	54.56565
972.804	81.55418
972.975	-107.09754
973.145	30.15343
973.316	-27.51977
973.487	-101.17757
973.657	-57.77034
973.828	-43.65651
973.998	-21.18801
974.169	23.31248
974.339	-30.95413
974.51	-47.53749
974.68	-15.31773
974.851	-70.94412
975.021	-27.01753
975.192	-41.21477
975.362	-2.1174
975.533	14.98906
975.703	44.34153
975.874	-88.01112
976.044	39.94971
976.214	-53.94209
976.385	-28.03901
976.555	-102.67818
976.725	57.08305
976.896	-0.16295
977.066	-11.90398
977.236	30.17626
977.406	1.79333
977.577	35.03731
977.747	-22.63083
977.917	4.72446
978.087	-27.53818
978.257	-12.86749
978.427	22.8236
978.598	9.61827
978.768	26.26327
978.938	-4.55998
979.108	-68.02879
979.278	22.81212
979.448	-33.38811
979.618	-43.18191
979.788	-26.54673
979.958	-18.73617
980.128	-12.86964
980.298	-24.59565
980.468	8.15403
980.638	-3.09861
980.808	-82.29709
980.978	-64.67196
981.148	-103.69072
981.317	-95.84855
981.487	7.65585
981.657	-31.45104
981.827	-1.14079
981.997	45.31128
982.167	13.03987
982.336	-34.86354
982.506	-35.29671
982.676	-24.12295
982.846	-42.16475
983.015	48.2104
983.185	3.2567
983.355	73.71005
983.524	-68.0571
983.694	-27.02653
983.864	-7.00781
984.033	-16.26859
984.203	-57.81848
984.372	56.11488
984.542	40.4624
984.712	47.74213
984.881	-24.11083
985.051	-36.31551
985.22	-62.23103
985.39	-68.5862
985.559	-31.44314
985.728	15.96101
985.898	53.10547
986.067	-46.06347
986.237	24.28004
986.406	-4.07684
986.576	-49.04896
986.745	45.85387
986.914	-21.66263
987.084	-32.40494
987.253	-14.8275
987.422	19.37686
987.591	-53.89702
987.761	-27.50374
987.93	-43.14945
988.099	-50.46621
988.268	74.14883
988.438	4.23011
988.607	50.18838
988.776	23.81337
988.945	-64.69361
989.114	-2.60627
989.283	-1.62862
989.452	14.49314
989.621	-98.79086
989.791	0.81475
989.96	78.10719
990.129	-23.61203
990.298	-34.37451
990.467	33.0552
990.636	1.30403
990.805	13.51743
990.974	-115.88485
991.142	-21.18268
991.311	-67.04561
991.48	3.25942
991.649	-86.21404
991.818	-105.69164
991.987	-117.7832
992.156	-29.49949
992.325	-83.13752
992.493	-49.48862
992.662	58.05087
992.831	35.99942
993	-54.41778
993.168	0.32596
993.337	-60.24895
993.506	-83.64713
993.675	-36.33676
993.843	26.26106
994.012	-39.26517
994.181	-13.84153
994.349	-82.70372
994.518	-41.22512
994.686	20.38936
994.855	-32.41306
995.024	47.80236
995.192	11.55963
995.361	20.86975
995.529	-3.09265
995.698	-86.08463
995.866	-82.20778
996.035	-43.66016
996.203	-3.09835
996.371	71.25492
996.54	-32.39954
996.708	10.60515
996.877	9.60142
997.045	22.31787
997.213	-26.06663
997.382	16.94927
997.55	9.60942
997.718	46.29233
997.887	-77.24716
998.055	-55.88085
998.223	4.72604
998.391	-52.89272
998.56	8.6345
998.728	-66.0901
998.896	30.61397
999.064	26.74791
999.232	-49.01617
999.401	42.85385
999.569	-88.50724
999.737	-5.54558
999.905	46.76135
1000.073	98.13025
1000.241	-52.92798
1000.409	-22.65354
1000.577	-57.82814
1000.745	-5.05665
1000.913	-3.09523
1001.081	-32.91849
1001.249	-72.96595
1001.417	-55.83889
1001.585	70.26596
1001.753	-4.56036
1001.921	-11.89101
1002.089	13.52761
1002.256	-37.7821
1002.424	-3.58578
1002.592	22.31414
1002.76	13.53102
1002.928	22.81021
1003.096	-24.11083
1003.263	27.22552
1003.431	12.54992
1003.599	36.98854
1003.767	4.73041
1003.934	-4.5596
1004.102	2.27992
1004.27	-63.24662
1004.437	16.46601
1004.605	4.72446
1004.773	16.95638
1004.94	23.80535
1005.108	-46.07882
1005.275	-32.39415
1005.443	-55.34544
1005.61	10.58824
1005.778	-23.6437
1005.945	-70.46709
1006.113	29.17108
1006.28	-80.18505
1006.448	-4.0724
1006.615	5.21228
1006.783	-75.35562
1006.95	38.95891
1007.118	41.92266
1007.285	-111.49123
1007.452	-67.06792
1007.62	45.32269
1007.787	-7.50309
1007.954	44.81517
1008.122	-38.75664
1008.289	-10.90984
1008.456	-42.6535
1008.623	-16.28348
1008.791	13.03005
1008.958	20.86449
1009.125	17.44243
1009.292	-42.21411
1009.459	84.55009
1009.627	13.03222
1009.794	-2.60627
1009.961	-31.43526
1010.128	-19.71569
1010.295	12.54467
1010.462	13.54699
1010.629	-55.32704
1010.796	-22.63838
1010.963	-35.84462
1011.13	-22.15886
1011.297	13.05414
1011.464	33.56023
1011.631	-29.50691
1011.798	60.54532
1011.965	42.87902
1012.132	2.28374
1012.299	-67.55684
1012.466	25.78281
1012.633	4.72209
1012.799	6.68478
1012.966	-36.79209
1013.133	68.88168
1013.3	-62.17397
1013.467	-12.86964
1013.633	-21.20583
1013.8	-0.16286
1013.967	10.59534
1014.134	-60.30945
1014.3	-82.20778
1014.467	-62.6732
1014.634	-38.2646
1014.8	-11.40606
1014.967	-31.43001
1015.134	-56.3748
1015.3	23.78938
1015.467	-56.36537
1015.633	59.07806
1015.8	-9.45121
1015.966	-33.40486
1016.133	-45.13883
1016.3	25.26368
1016.466	-64.19345
1016.632	-31.92682
1016.799	-18.24878
1016.965	6.67695
1017.132	-18.23355
1017.298	-33.38811
1017.465	65.85805
1017.631	1.30414
1017.797	-22.14406
1017.964	10.1081
1018.13	50.26444
1018.296	13.52988
1018.463	-10.43084
1018.629	-30.46003
1018.795	-64.15058
1018.961	-52.43897
1019.128	-10.43172
1019.294	-47.02523
1019.46	-20.6833
1019.626	27.71903
1019.792	32.11904
1019.959	-117.76368
1020.125	-66.05715
1020.291	-42.1929
1020.457	11.08147
1020.623	-27.51289
1020.789	-5.04944
1020.955	13.02787
1021.121	-4.56036
1021.287	-6.52377
1021.453	-31.93751
1021.619	-47.54145
1021.785	-22.66305
1021.951	-63.62981
1022.117	17.92681
1022.283	12.56048
1022.449	-18.72678
1022.615	-14.83247
1022.781	-64.58586
1022.946	-19.73225
1023.112	72.70837
1023.278	-94.39729
1023.444	-13.86243
1023.61	-53.40363
1023.775	-36.82282
1023.941	-12.38704
1024.107	-60.24392
1024.273	64.94665
1024.438	-1.14098
1024.604	-63.14108
1024.77	-13.36183
1024.935	-48.05837
1025.101	-58.78686
1025.267	9.61344
1025.432	21.84765
1025.598	-96.8507
1025.763	42.3867
1025.929	-14.82874
1026.095	-34.8548
1026.26	1.79408
1026.426	-47.08012
1026.591	-15.7909
1026.757	34.5545
1026.922	-63.65629
1027.087	-53.44826
1027.253	-40.73253
1027.418	-86.64568
1027.584	-43.15665
1027.749	-13.35848
1027.914	-100.76402
1028.08	12.55625
1028.245	-25.56699
1028.41	43.36777
1028.576	-29.00058
1028.741	-46.08266
1028.906	-59.31058
1029.072	-33.87417
1029.237	3.2586
1029.402	19.87016
1029.567	-9.93516
1029.732	-21.18801
1029.898	-37.30569
1030.063	10.59801
1030.228	-25.07614
1030.393	11.08519
1030.558	-12.87611
1030.723	-82.62135
1030.888	-18.73931
1031.053	-62.25187
1031.218	-70.95591
1031.383	3.75082
1031.548	-43.66747
1031.713	7.16605
1031.878	-5.54278
1032.043	91.35614
1032.208	-44.14927
1032.373	6.68366
1032.538	46.30011
1032.703	36.00243
1032.868	7.17506
1033.033	-64.68819
1033.198	-37.81372
1033.362	-29.97111
1033.527	-40.68162
1033.692	-47.54541
1033.857	15.96367
1034.021	-36.33676
1034.186	63.95783
1034.351	-64.16128
1034.516	-67.55122
1034.68	-56.37952
1034.845	-50.95078
1035.01	-3.09291
1035.174	-23.14654
1035.339	-42.67128
1035.504	-20.2013
1035.668	-46.08266
1035.833	-94.91794
1035.997	29.20052
1036.162	-30.93346
1036.326	-48.04231
1036.491	-57.31982
1036.655	9.61747
1036.82	13.52988
1036.984	-136.82767
1037.149	-0.65209
1037.313	-45.60138
1037.478	-27.57293
1037.642	-36.31248
1037.807	6.20198
1037.971	-41.7353
1038.135	42.85744
1038.3	-71.44473
1038.464	-13.36407
1038.628	6.19051
1038.792	95.68112
1038.957	-38.74695
1039.121	-18.72991
1039.285	20.85051
1039.449	-24.59154
1039.614	-49.06542
1039.778	-1.62862
1039.942	-7.00312
1040.106	-58.81634
1040.27	-45.63191
1040.434	-37.7821
1040.599	-50.04431
1040.763	7.66485
1040.927	23.81738
1041.091	-2.11793
1041.255	-95.95245
1041.419	-102.70378
1041.583	-28.02491
1041.747	-41.18727
1041.911	-17.27956
1042.075	-36.79822
1042.239	33.58274
1042.403	-55.85286
1042.567	-41.70732
1042.731	-9.93682
1042.894	-52.99008
1043.058	-31.93483
1043.222	-69.50682
1043.386	-25.60343
1043.55	36.47258
1043.714	54.13641
1043.877	-62.77288
1044.041	-108.59223
1044.205	-82.20778
1044.369	-68.07982
1044.532	-25.10343
1044.696	-57.85234
1044.86	-25.58838
1045.023	-6.51939
1045.187	-41.18727
1045.351	-46.5638
1045.514	-45.08236
1045.678	23.31052
1045.841	-5.05452
