Data from Sun spf650_Subt2__3__10-03-16-290.txt Node

Date: Tue Sep 23 10:03:16 EDT 2025
User: brett
Spectrometer: USB4F03499
Trigger mode: 4
Integration Time (sec): 1.000000E-1
Scans to average: 1
Electric dark correction enabled: true
Nonlinearity correction enabled: true
Boxcar width: 0
XAxis mode: Wavelengths
Number of Pixels in Spectrum: 3648
>>>>>Begin Spectral Data<<<<<
0	-72.20818
0.225	-72.20818
0.449	-72.20818
0.674	-78.9878
0.898	-72.07795
1.123	52.02374
1.347	17.74375
1.572	29.22913
1.796	134.69465
2.021	68.15052
2.245	-48.63138
2.469	-97.04569
2.694	-105.98177
2.918	17.76882
3.143	1.72099
3.367	-12.03079
3.591	-57.99067
3.815	40.66119
4.04	1710.4627
4.264	2254.04268
4.488	2156.66498
4.712	2104.03326
4.936	2144.94852
5.161	2180.7651
5.385	2165.32181
5.609	2312.7715
5.833	2255.25642
6.057	2265.79333
6.281	2220.38598
6.505	2278.4741
6.729	2254.98128
6.953	2363.58259
7.177	2253.44423
7.401	2170.546
7.625	2407.93871
7.849	2316.20564
8.073	2339.00434
8.297	2150.86753
8.521	2362.35937
8.744	2251.04099
8.968	2482.68024
9.192	2413.83992
9.416	2327.14092
9.64	2401.61541
9.863	2352.04952
10.087	2385.9919
10.311	2325.52476
10.535	2273.41907
10.758	2254.02075
10.982	2332.54331
11.205	2216.95979
11.429	2284.95991
11.653	2365.90105
11.876	2341.43497
12.1	2398.58263
12.323	2312.77087
12.547	2247.34294
12.77	2500.14841
12.994	2291.30983
13.217	2428.18666
13.441	2372.51854
13.664	2504.43424
13.887	2510.09973
14.111	2439.42389
14.334	2473.33423
14.557	2423.82624
14.781	2429.0821
15.004	2285.89441
15.227	2467.34437
15.451	2564.70645
15.674	2298.64291
15.897	2441.40363
16.12	2576.27756
16.343	2454.72561
16.567	2557.90107
16.79	2639.95943
17.013	2563.63479
17.236	2628.49353
17.459	2708.15805
17.682	2533.81035
17.905	2599.32155
18.128	2639.56178
18.351	2597.64949
18.574	2635.58062
18.797	2778.77197
19.02	2776.32899
19.243	2932.01503
19.466	2767.84476
19.689	2983.39366
19.911	2986.89631
20.134	2989.71204
20.357	2909.61137
20.58	3016.69738
20.803	3112.91939
21.025	3022.53968
21.248	3125.92437
21.471	3203.57227
21.694	3271.49397
21.916	3322.37622
22.139	3267.61239
22.362	3299.54096
22.584	3542.25482
22.807	3733.85136
23.029	3644.13397
23.252	3777.21869
23.475	4118.10757
23.697	3866.00116
23.92	4034.68756
24.142	4305.2752
24.365	4098.09019
24.587	4374.66073
24.809	4382.53298
25.032	4594.69352
25.254	4453.3287
25.477	4932.82222
25.699	5140.22645
25.921	4972.45029
26.144	5077.27029
26.366	5286.76339
26.588	5547.69145
26.81	5717.83605
27.033	5890.11508
27.255	6194.39744
27.477	6278.32031
27.699	6523.79826
27.921	6832.46269
28.144	7074.51449
28.366	7419.12432
28.588	7774.96042
28.81	8037.50582
29.032	8339.26428
29.254	8731.36062
29.476	8715.70344
29.698	9465.4527
29.92	9813.54388
30.142	10375.21127
30.364	10542.45826
30.586	11190.93421
30.808	11453.86228
31.029	12019.78892
31.251	12485.12629
31.473	12782.92799
31.695	13369.12895
31.917	13872.568
32.139	14263.86828
32.36	14810.88127
32.582	15485.39363
32.804	15686.56885
33.026	16440.66873
33.247	16571.28712
33.469	17260.70659
33.691	17755.09609
33.912	18349.885
34.134	18512.66624
34.355	18942.64938
34.577	19506.52101
34.798	20440.45097
35.02	20742.84832
35.242	20684.19119
35.463	22063.16373
35.684	22051.49656
35.906	22696.34202
36.127	23558.19095
36.349	23558.20831
36.57	24596.04205
36.792	25682.91992
37.013	25939.61088
37.234	25607.53665
37.456	26676.23714
37.677	27239.7659
37.898	27732.55183
38.119	27522.61819
38.341	28757.0762
38.562	28977.05917
38.783	29792.07347
39.004	29457.33242
39.225	29754.9774
39.447	31043.82014
39.668	31814.15356
39.889	31542.95387
40.11	32768.08303
40.331	33013.40386
40.552	33139.04542
40.773	34163.17004
40.994	34437.67368
41.215	34896.31903
41.436	35955.09343
41.657	36483.56634
41.878	37403.25746
42.099	38570.49286
42.32	39284.33774
42.54	40546.78946
42.761	41337.76039
42.982	42675.48057
43.203	44369.95522
43.424	45388.08998
43.645	45630.77481
43.865	47591.11707
44.086	47334.50413
44.307	49891.92936
44.527	51119.92311
44.748	52993.17278
44.969	53333.92883
45.189	53082.88307
45.41	53640.4977
45.631	56515.06602
45.851	56103.11717
46.072	57468.00674
46.292	58010.51196
46.513	58185.25248
46.733	61422.8625
46.954	62189.39564
47.174	64419.49763
47.395	63331.48037
47.615	65551.69528
47.836	65544.83028
48.056	65652.56774
48.276	65608.96628
48.497	65542.54231
48.717	65547.11844
48.937	65505.9588
49.158	65627.31679
49.378	65625.02234
49.598	65599.79537
49.818	65528.81818
50.038	65533.39218
50.259	65641.0873
50.479	65677.84079
50.699	65606.67328
50.919	65602.08782
51.139	65583.75321
51.359	65611.25946
51.579	65629.61142
51.799	65627.31679
52.02	65613.55282
52.24	65576.8807
52.46	65618.14009
52.68	65634.20123
52.899	65579.17136
53.119	65604.38046
53.339	65645.67893
53.559	65595.21099
53.779	65515.10043
53.999	65535.67944
54.219	65471.70278
54.439	65657.16119
54.658	65691.63546
54.878	65592.91908
55.098	65631.90623
55.318	65570.0098
55.538	65542.54231
55.757	65592.91908
55.977	65604.38046
56.197	65533.39218
56.416	65606.67328
56.636	65604.38046
56.855	65627.31679
57.075	65542.54231
57.295	65638.79176
57.514	65680.13944
57.734	65576.8807
57.953	65592.91908
58.173	65583.75321
58.392	65620.43399
58.612	65629.61142
58.831	65634.20123
59.051	65572.29992
59.27	65505.9588
59.489	65588.33578
59.709	65602.08782
59.928	65622.72808
60.147	65606.67328
60.367	65631.90623
60.586	65553.98397
60.805	65613.55282
61.024	65595.21099
61.244	65675.54232
61.463	65608.96628
61.682	65586.04441
61.901	65574.59022
62.12	65631.90623
62.34	65595.21099
62.559	65599.79537
62.778	65476.26797
62.997	65620.43399
63.216	65664.05274
63.435	65657.16119
63.654	65505.9588
63.873	65618.14009
64.092	65604.38046
64.311	65544.83028
64.53	65583.75321
64.749	65602.08782
64.968	65590.62734
65.187	65687.0365
65.405	65604.38046
65.624	65599.79537
65.843	65579.17136
66.062	65588.33578
66.281	65551.69528
66.499	65675.54232
66.718	65657.16119
66.937	65574.59022
67.156	65590.62734
67.374	65629.61142
67.593	65492.25165
67.812	65599.79537
68.03	65611.25946
68.249	65659.45819
68.467	65629.61142
68.686	65563.14052
68.905	65551.69528
69.123	65721.54673
69.342	63347.24546
69.56	31401.23472
69.779	20175.51924
69.997	19336.26868
70.216	17845.28174
70.434	16510.89499
70.652	15321.52853
70.871	14581.04405
71.089	13455.71578
71.307	12904.03659
71.526	11991.84377
71.744	11489.06439
71.962	10839.61233
72.181	10042.48453
72.399	9880.46023
72.617	9091.08926
72.835	8722.02933
73.054	8069.77708
73.272	8042.78823
73.49	7663.80711
73.708	7599.18279
73.926	7306.26043
74.144	6964.75856
74.362	6759.98551
74.58	6698.81086
74.798	6682.28067
75.016	6613.34154
75.234	6523.33322
75.452	6182.19126
75.67	6347.38206
75.888	6278.05505
76.106	6342.57841
76.324	6485.76438
76.542	6215.0971
76.76	6277.54695
76.978	6231.91048
77.196	6304.82244
77.413	6164.1422
77.631	6226.90891
77.849	6397.84669
78.067	6235.02582
78.284	6100.13909
78.502	6220.6865
78.72	6163.55516
78.938	6577.40808
79.155	6202.32316
79.373	6254.34551
79.59	6406.25744
79.808	6554.87147
80.026	6529.22019
80.243	6450.01875
80.461	6248.38783
80.678	6602.90735
80.896	6629.83446
81.113	6484.60481
81.331	6469.87162
81.548	6699.37895
81.766	6798.05344
81.983	6802.66542
82.2	6816.5273
82.418	6812.70392
82.635	7012.53822
82.852	6947.01471
83.07	7056.84188
83.287	7265.08994
83.504	7271.2598
83.722	6999.27267
83.939	6972.8231
84.156	7126.30716
84.373	7425.73684
84.591	7388.48184
84.808	7484.13758
85.025	7349.97018
85.242	7609.67985
85.459	7471.1847
85.676	7648.70037
85.893	7537.05064
86.11	7794.29282
86.327	8404.97798
86.544	8145.72655
86.761	8084.58328
86.978	7932.93421
87.195	8046.14245
87.412	8350.37394
87.629	8323.4976
87.846	8577.31528
88.063	8359.33411
88.28	8628.97722
88.497	8492.79256
88.713	8712.38155
88.93	8812.31589
89.147	8872.15392
89.364	9062.6813
89.58	9152.68705
89.797	9256.2559
90.014	9150.94613
90.231	9489.37157
90.447	9343.52131
90.664	9020.32914
90.881	9176.70195
91.097	9362.77206
91.314	9385.75967
91.53	9620.85023
91.747	9867.11652
91.963	9997.83229
92.18	10169.24361
92.396	10298.16846
92.613	9827.09508
92.829	10211.88715
93.046	10489.90223
93.262	10454.52545
93.479	10409.1092
93.695	10371.66511
93.911	10776.66702
94.128	11030.59944
94.344	10740.00785
94.56	10962.19821
94.777	11054.71193
94.993	11213.37285
95.209	11764.71153
95.426	11762.97563
95.642	11903.15926
95.858	12079.73705
96.074	12674.4212
96.29	12793.41864
96.506	13000.53658
96.723	13492.58286
96.939	13598.00406
97.155	13598.62955
97.371	13570.35958
97.587	13679.15347
97.803	14479.00084
98.019	15251.96084
98.235	15190.6234
98.451	15755.35294
98.667	15305.32788
98.883	15560.05977
99.099	16699.36277
99.315	17571.49831
99.53	18075.62393
99.746	17539.90261
99.962	17933.23813
100.178	19283.84469
100.394	20700.24092
100.61	21864.87441
100.825	22081.74099
101.041	23325.69737
101.257	23639.34182
101.473	25586.65475
101.688	26841.79183
101.904	27926.49356
102.12	30352.88788
102.335	32763.25418
102.551	33580.94338
102.766	38661.07084
102.982	41859.43129
103.198	46034.31282
103.413	49458.13201
103.629	53865.63738
103.844	59316.38808
104.06	63407.6492
104.275	65560.85111
104.49	65579.17136
104.706	65652.56774
104.921	65016.34061
105.137	65599.79537
105.352	65533.39218
105.567	65613.55282
105.783	65590.62734
105.998	65583.75321
106.213	65565.4301
106.429	65650.27128
106.644	65634.20123
106.859	65592.91908
107.074	65467.13829
107.29	65652.56774
107.505	65618.14009
107.72	65547.11844
107.935	65551.69528
108.15	65583.75321
108.365	65664.05274
108.58	65560.85111
108.795	65553.98397
109.01	65560.85111
109.226	65684.7373
109.441	65446.60672
109.656	65664.05274
109.871	65496.82
110.085	65565.4301
110.3	65595.21099
110.515	65673.24404
110.73	65510.52926
110.945	65622.72808
111.16	65565.4301
111.375	65570.0098
111.59	65618.14009
111.804	65588.33578
112.019	65590.62734
112.234	65627.31679
112.449	65565.4301
112.663	65604.38046
112.878	65627.31679
113.093	65606.67328
113.308	65519.67231
113.522	65604.38046
113.737	65726.15124
113.951	65574.59022
114.166	65606.67328
114.381	65595.21099
114.595	65618.14009
114.81	65588.33578
115.024	65602.08782
115.239	65574.59022
115.453	65636.4964
115.668	65620.43399
115.882	65567.71986
116.097	65620.43399
116.311	65703.13609
116.525	65595.21099
116.74	65710.03869
116.954	65558.56189
117.169	65606.67328
117.383	65588.33578
117.597	65544.83028
117.811	65604.38046
118.026	65519.67231
118.24	65556.27284
118.454	65608.96628
118.668	65611.25946
118.883	65611.25946
119.097	65592.91908
119.311	65592.91908
119.525	65595.21099
119.739	65599.79537
119.953	65620.43399
120.167	65478.55083
120.381	65629.61142
120.595	65595.21099
120.809	65636.4964
121.023	65581.46219
121.237	65620.43399
121.451	65629.61142
121.665	65625.02234
121.879	65592.91908
122.093	65528.81818
122.307	65700.8356
122.521	65641.0873
122.735	65528.81818
122.949	65625.02234
123.163	65680.13944
123.376	65563.14052
123.59	65542.54231
123.804	65599.79537
124.018	65636.4964
124.231	65647.97501
124.445	65670.94594
124.659	65526.53144
124.872	65508.24395
125.086	65604.38046
125.3	65599.79537
125.513	65581.46219
125.727	65636.4964
125.94	65583.75321
126.154	65604.38046
126.368	65652.56774
126.581	65627.31679
126.795	65636.4964
127.008	65631.90623
127.222	65664.05274
127.435	65652.56774
127.648	65650.27128
127.862	65579.17136
128.075	65643.38302
128.289	65560.85111
128.502	65654.86437
128.715	65590.62734
128.929	65705.43677
129.142	65631.90623
129.355	65602.08782
129.568	65540.25451
129.782	65579.17136
129.995	65524.24489
130.208	65625.02234
130.421	65645.67893
130.634	65638.79176
130.848	65560.85111
131.061	65524.24489
131.274	65565.4301
131.487	65664.05274
131.7	65636.4964
131.913	65563.14052
132.126	65608.96628
132.339	65512.81476
132.552	65423.81037
132.765	65531.10509
132.978	65608.96628
133.191	65631.90623
133.404	65567.71986
133.617	65627.31679
133.83	65579.17136
134.043	65657.16119
134.255	65682.43828
134.468	65581.46219
134.681	65677.84079
134.894	65719.24475
135.107	65647.97501
135.319	65570.0098
135.532	65597.50309
135.745	65563.14052
135.958	65615.84636
136.17	65689.33589
136.383	65592.91908
136.596	65641.0873
136.808	65613.55282
137.021	65551.69528
137.233	65643.38302
137.446	65586.04441
137.659	65625.02234
137.871	65476.26797
138.084	65615.84636
138.296	65576.8807
138.509	65611.25946
138.721	65645.67893
138.934	65592.91908
139.146	65579.17136
139.358	65638.79176
139.571	65517.38628
139.783	65521.95851
139.996	65597.50309
140.208	65542.54231
140.42	65549.40677
140.632	65576.8807
140.845	65629.61142
141.057	65689.33589
141.269	65636.4964
141.481	65611.25946
141.694	65657.16119
141.906	65590.62734
142.118	65707.73764
142.33	65583.75321
142.542	65664.05274
142.754	65572.29992
142.967	65696.23516
143.179	65650.27128
143.391	65537.96689
143.603	65629.61142
143.815	65526.53144
144.027	65606.67328
144.239	65499.10444
144.451	65597.50309
144.663	65608.96628
144.875	65533.39218
145.086	65501.38905
145.298	65553.98397
145.51	65631.90623
145.722	65535.67944
145.934	65625.02234
146.146	65629.61142
146.358	65613.55282
146.569	65664.05274
146.781	65579.17136
146.993	65661.75537
147.205	65515.10043
147.416	65615.84636
147.628	65606.67328
147.84	65565.4301
148.051	65613.55282
148.263	65579.17136
148.475	65652.56774
148.686	65618.14009
148.898	65542.54231
149.109	65526.53144
149.321	65654.86437
149.532	65533.39218
149.744	65590.62734
149.955	65567.71986
150.167	65622.72808
150.378	65608.96628
150.59	65638.79176
150.801	65677.84079
151.013	65664.05274
151.224	65526.53144
151.435	65613.55282
151.647	65526.53144
151.858	65581.46219
152.069	65613.55282
152.281	65615.84636
152.492	65586.04441
152.703	65620.43399
152.914	65485.40045
153.126	65581.46219
153.337	65586.04441
153.548	65682.43828
153.759	65576.8807
153.97	65661.75537
154.181	65645.67893
154.392	65556.27284
154.604	65673.24404
154.815	65636.4964
155.026	65570.0098
155.237	65613.55282
155.448	65505.9588
155.659	65588.33578
155.87	65595.21099
156.081	65574.59022
156.292	65643.38302
156.502	65675.54232
156.713	65572.29992
156.924	65549.40677
157.135	65592.91908
157.346	65608.96628
157.557	65572.29992
157.768	65638.79176
157.978	65680.13944
158.189	65583.75321
158.4	65645.67893
158.611	65583.75321
158.821	65533.39218
159.032	65622.72808
159.243	65553.98397
159.453	65602.08782
159.664	65602.08782
159.875	65563.14052
160.085	65638.79176
160.296	65563.14052
160.507	65622.72808
160.717	65647.97501
160.928	65560.85111
161.138	65765.31974
161.349	65620.43399
161.559	65687.0365
161.77	65618.14009
161.98	65641.0873
162.19	65567.71986
162.401	65622.72808
162.611	65556.27284
162.822	65629.61142
163.032	65622.72808
163.242	65636.4964
163.453	65556.27284
163.663	65659.45819
163.873	65583.75321
164.084	65645.67893
164.294	65657.16119
164.504	65606.67328
164.714	65588.33578
164.924	65590.62734
165.135	65641.0873
165.345	65560.85111
165.555	65599.79537
165.765	65547.11844
165.975	65556.27284
166.185	65604.38046
166.395	65631.90623
166.605	65673.24404
166.815	65661.75537
167.025	65620.43399
167.235	65521.95851
167.445	65719.24475
167.655	65583.75321
167.865	65613.55282
168.075	65597.50309
168.285	65613.55282
168.495	65595.21099
168.705	65531.10509
168.915	65505.9588
169.124	65570.0098
169.334	65572.29992
169.544	65576.8807
169.754	65613.55282
169.964	65567.71986
170.173	65542.54231
170.383	65588.33578
170.593	65595.21099
170.802	65551.69528
171.012	65654.86437
171.222	65618.14009
171.431	65659.45819
171.641	65625.02234
171.851	65680.13944
172.06	65638.79176
172.27	65641.0873
172.479	65574.59022
172.689	65636.4964
172.898	65583.75321
173.108	65627.31679
173.317	65560.85111
173.527	65666.35029
173.736	65670.94594
173.945	65597.50309
174.155	65558.56189
174.364	65560.85111
174.574	65597.50309
174.783	65608.96628
174.992	65547.11844
175.202	65606.67328
175.411	65549.40677
175.62	65636.4964
175.829	65650.27128
176.039	65586.04441
176.248	65556.27284
176.457	65608.96628
176.666	65524.24489
176.875	65641.0873
177.084	65570.0098
177.294	65647.97501
177.503	65661.75537
177.712	65519.67231
177.921	65643.38302
178.13	65611.25946
178.339	65698.53529
178.548	65631.90623
178.757	65599.79537
178.966	65560.85111
179.175	65574.59022
179.384	65618.14009
179.593	65595.21099
179.802	65673.24404
180.011	65599.79537
180.219	65620.43399
180.428	65590.62734
180.637	65590.62734
180.846	65560.85111
181.055	65592.91908
181.263	65618.14009
181.472	65515.10043
181.681	65647.97501
181.89	65583.75321
182.098	65517.38628
182.307	65625.02234
182.516	65586.04441
182.724	65602.08782
182.933	65565.4301
183.142	65689.33589
183.35	65586.04441
183.559	65592.91908
183.767	65608.96628
183.976	65638.79176
184.184	65652.56774
184.393	65579.17136
184.601	65638.79176
184.81	65519.67231
185.018	65643.38302
185.227	65581.46219
185.435	65661.75537
185.644	65565.4301
185.852	65707.73764
186.06	65563.14052
186.269	65563.14052
186.477	65558.56189
186.685	65606.67328
186.894	65517.38628
187.102	65602.08782
187.31	65533.39218
187.518	65606.67328
187.727	65691.63546
187.935	65668.64802
188.143	65608.96628
188.351	65576.8807
188.559	65668.64802
188.768	65531.10509
188.976	65551.69528
189.184	65567.71986
189.392	65565.4301
189.6	65574.59022
189.808	65494.53574
190.016	65636.4964
190.224	65625.02234
190.432	65595.21099
190.64	65599.79537
190.848	65590.62734
191.056	65542.54231
191.264	65581.46219
191.472	65606.67328
191.679	65622.72808
191.887	65615.84636
192.095	65698.53529
192.303	65579.17136
192.511	65629.61142
192.719	65705.43677
192.926	65549.40677
193.134	65705.43677
193.342	65634.20123
193.55	65613.55282
193.757	65606.67328
193.965	65583.75321
194.173	65567.71986
194.38	65673.24404
194.588	65647.97501
194.796	65627.31679
195.003	65551.69528
195.211	65647.97501
195.418	65629.61142
195.626	65696.23516
195.833	65590.62734
196.041	65547.11844
196.248	65606.67328
196.456	65549.40677
196.663	65505.9588
196.871	65636.4964
197.078	65588.33578
197.285	65613.55282
197.493	65588.33578
197.7	65469.42045
197.908	65581.46219
198.115	65622.72808
198.322	65592.91908
198.529	65664.05274
198.737	65682.43828
198.944	65588.33578
199.151	65680.13944
199.358	65645.67893
199.566	65723.84889
199.773	65515.10043
199.98	65611.25946
200.187	65641.0873
200.394	65604.38046
200.601	65483.11707
200.809	65693.93522
201.016	65581.46219
201.223	65574.59022
201.43	65689.33589
201.637	65631.90623
201.844	65636.4964
202.051	65710.03869
202.258	65586.04441
202.465	65627.31679
202.672	65698.53529
202.878	65604.38046
203.085	65631.90623
203.292	65586.04441
203.499	65556.27284
203.706	65604.38046
203.913	65602.08782
204.12	65664.05274
204.326	65645.67893
204.533	65657.16119
204.74	65547.11844
204.947	65595.21099
205.153	65606.67328
205.36	65590.62734
205.567	65696.23516
205.773	65689.33589
205.98	65567.71986
206.187	65611.25946
206.393	65602.08782
206.6	65625.02234
206.806	65666.35029
207.013	65540.25451
207.22	65547.11844
207.426	65657.16119
207.633	65597.50309
207.839	65531.10509
208.046	65563.14052
208.252	65565.4301
208.458	65560.85111
208.665	65588.33578
208.871	65627.31679
209.078	65519.67231
209.284	65611.25946
209.49	65622.72808
209.697	65625.02234
209.903	65664.05274
210.109	65629.61142
210.316	65563.14052
210.522	65643.38302
210.728	65581.46219
210.934	65385.0962
211.14	65625.02234
211.347	65684.7373
211.553	65570.0098
211.759	65592.91908
211.965	65547.11844
212.171	65570.0098
212.377	65535.67944
212.583	65597.50309
212.789	65634.20123
212.996	65583.75321
213.202	65549.40677
213.408	65590.62734
213.614	65597.50309
213.82	65645.67893
214.025	65629.61142
214.231	65675.54232
214.437	65634.20123
214.643	65531.10509
214.849	65595.21099
215.055	65602.08782
215.261	65659.45819
215.467	65592.91908
215.672	65673.24404
215.878	65533.39218
216.084	65652.56774
216.29	65592.91908
216.496	65517.38628
216.701	65560.85111
216.907	65654.86437
217.113	65595.21099
217.318	65526.53144
217.524	65638.79176
217.73	65650.27128
217.935	65618.14009
218.141	65565.4301
218.346	65583.75321
218.552	65615.84636
218.758	65583.75321
218.963	65572.29992
219.169	65581.46219
219.374	65592.91908
219.58	65592.91908
219.785	65613.55282
219.991	65540.25451
220.196	65693.93522
220.401	65627.31679
220.607	65597.50309
220.812	65512.81476
221.017	65602.08782
221.223	65549.40677
221.428	65524.24489
221.633	65544.83028
221.839	65592.91908
222.044	65652.56774
222.249	65583.75321
222.454	65576.8807
222.66	65579.17136
222.865	65625.02234
223.07	65478.55083
223.275	65599.79537
223.48	65567.71986
223.686	65652.56774
223.891	65682.43828
224.096	65675.54232
224.301	65492.25165
224.506	65647.97501
224.711	65553.98397
224.916	65634.20123
225.121	65627.31679
225.326	65625.02234
225.531	65652.56774
225.736	65631.90623
225.941	65661.75537
226.146	65611.25946
226.351	65581.46219
226.555	65579.17136
226.76	65574.59022
226.965	65677.84079
227.17	65620.43399
227.375	65643.38302
227.58	65627.31679
227.784	65558.56189
227.989	65716.94296
228.194	65638.79176
228.399	65567.71986
228.603	65659.45819
228.808	65634.20123
229.013	65544.83028
229.217	65597.50309
229.422	65650.27128
229.627	65611.25946
229.831	65631.90623
230.036	65563.14052
230.24	65590.62734
230.445	65567.71986
230.649	65590.62734
230.854	65581.46219
231.058	65620.43399
231.263	65608.96628
231.467	65576.8807
231.672	65615.84636
231.876	65597.50309
232.081	65547.11844
232.285	65570.0098
232.489	65567.71986
232.694	65636.4964
232.898	65547.11844
233.102	65503.67384
233.307	65590.62734
233.511	65613.55282
233.715	65565.4301
233.919	65542.54231
234.124	65657.16119
234.328	65696.23516
234.532	65592.91908
234.736	65553.98397
234.94	65647.97501
235.145	65588.33578
235.349	65576.8807
235.553	65483.11707
235.757	65492.25165
235.961	65650.27128
236.165	65643.38302
236.369	65558.56189
236.573	65560.85111
236.777	65657.16119
236.981	65583.75321
237.185	65519.67231
237.389	65618.14009
237.593	65597.50309
237.797	65567.71986
238.001	65563.14052
238.205	65579.17136
238.409	65634.20123
238.612	65638.79176
238.816	65476.26797
239.02	65602.08782
239.224	65615.84636
239.428	65565.4301
239.631	65588.33578
239.835	65572.29992
240.039	65602.08782
240.243	65551.69528
240.446	65526.53144
240.65	65652.56774
240.854	65751.4894
241.057	65576.8807
241.261	65652.56774
241.464	65673.24404
241.668	65549.40677
241.872	65638.79176
242.075	65599.79537
242.279	65588.33578
242.482	65636.4964
242.686	65627.31679
242.889	65535.67944
243.093	65638.79176
243.296	65542.54231
243.499	65599.79537
243.703	65602.08782
243.906	65661.75537
244.11	65572.29992
244.313	65606.67328
244.516	65581.46219
244.72	65542.54231
244.923	65664.05274
245.126	65508.24395
245.33	65579.17136
245.533	65654.86437
245.736	65581.46219
245.939	65618.14009
246.142	65586.04441
246.346	65634.20123
246.549	65680.13944
246.752	65638.79176
246.955	65615.84636
247.158	65574.59022
247.361	65620.43399
247.564	65560.85111
247.767	65519.67231
247.971	65602.08782
248.174	65570.0098
248.377	65620.43399
248.58	65680.13944
248.783	65645.67893
248.985	65606.67328
249.188	65620.43399
249.391	65572.29992
249.594	65602.08782
249.797	65650.27128
250	65521.95851
250.203	65618.14009
250.406	65625.02234
250.609	65652.56774
250.811	65629.61142
251.014	65629.61142
251.217	65661.75537
251.42	65645.67893
251.622	65478.55083
251.825	65542.54231
252.028	65629.61142
252.231	65634.20123
252.433	65647.97501
252.636	65540.25451
252.838	65567.71986
253.041	65604.38046
253.244	65553.98397
253.446	65503.67384
253.649	65590.62734
253.851	65547.11844
254.054	65625.02234
254.256	65537.96689
254.459	65629.61142
254.661	65572.29992
254.864	65650.27128
255.066	65446.60672
255.269	65608.96628
255.471	65574.59022
255.673	65558.56189
255.876	65629.61142
256.078	65574.59022
256.281	65586.04441
256.483	65602.08782
256.685	65657.16119
256.887	65592.91908
257.09	65583.75321
257.292	65647.97501
257.494	65558.56189
257.696	65618.14009
257.899	65647.97501
258.101	65505.9588
258.303	65579.17136
258.505	65677.84079
258.707	65611.25946
258.909	65638.79176
259.111	65698.53529
259.314	65579.17136
259.516	65629.61142
259.718	65542.54231
259.92	65588.33578
260.122	65615.84636
260.324	65629.61142
260.526	65521.95851
260.728	65586.04441
260.93	65567.71986
261.131	65684.7373
261.333	65643.38302
261.535	65606.67328
261.737	65634.20123
261.939	65560.85111
262.141	65597.50309
262.343	65553.98397
262.544	65572.29992
262.746	65572.29992
262.948	65654.86437
263.15	65604.38046
263.352	65533.39218
263.553	65602.08782
263.755	65654.86437
263.957	65528.81818
264.158	65565.4301
264.36	65588.33578
264.562	65551.69528
264.763	65638.79176
264.965	65570.0098
265.166	65622.72808
265.368	65526.53144
265.569	65631.90623
265.771	65627.31679
265.972	65563.14052
266.174	65631.90623
266.375	65618.14009
266.577	65604.38046
266.778	65572.29992
266.98	65602.08782
267.181	65652.56774
267.383	65673.24404
267.584	65524.24489
267.785	65608.96628
267.987	65629.61142
268.188	65677.84079
268.389	65563.14052
268.591	65673.24404
268.792	65670.94594
268.993	65574.59022
269.194	65629.61142
269.396	65537.96689
269.597	65590.62734
269.798	65641.0873
269.999	65588.33578
270.2	65670.94594
270.401	65533.39218
270.603	65631.90623
270.804	65647.97501
271.005	65650.27128
271.206	65602.08782
271.407	65574.59022
271.608	65528.81818
271.809	65606.67328
272.01	65592.91908
272.211	65620.43399
272.412	65558.56189
272.613	65551.69528
272.814	65654.86437
273.015	65627.31679
273.216	65647.97501
273.416	65622.72808
273.617	65547.11844
273.818	65572.29992
274.019	65615.84636
274.22	65556.27284
274.421	65586.04441
274.621	65622.72808
274.822	65588.33578
275.023	65592.91908
275.224	65599.79537
275.424	65682.43828
275.625	65714.64135
275.826	65608.96628
276.026	65652.56774
276.227	65615.84636
276.428	65567.71986
276.628	65560.85111
276.829	65563.14052
277.029	65615.84636
277.23	65592.91908
277.43	65570.0098
277.631	65526.53144
277.831	65684.7373
278.032	65661.75537
278.232	65615.84636
278.433	65631.90623
278.633	65524.24489
278.834	65634.20123
279.034	65563.14052
279.234	65533.39218
279.435	65604.38046
279.635	65583.75321
279.835	65611.25946
280.036	65521.95851
280.236	65696.23516
280.436	65631.90623
280.637	65604.38046
280.837	65537.96689
281.037	65608.96628
281.237	65608.96628
281.438	65622.72808
281.638	65631.90623
281.838	65627.31679
282.038	65627.31679
282.238	65604.38046
282.438	65613.55282
282.638	65611.25946
282.838	65629.61142
283.038	65583.75321
283.239	65625.02234
283.439	65606.67328
283.639	65510.52926
283.839	65641.0873
284.039	65581.46219
284.238	65606.67328
284.438	65563.14052
284.638	65657.16119
284.838	65634.20123
285.038	65636.4964
285.238	65659.45819
285.438	65599.79537
285.638	65597.50309
285.838	65602.08782
286.037	65567.71986
286.237	65641.0873
286.437	65647.97501
286.637	65625.02234
286.836	65622.72808
287.036	65673.24404
287.236	65570.0098
287.436	65657.16119
287.635	65592.91908
287.835	65602.08782
288.034	65606.67328
288.234	65512.81476
288.434	65579.17136
288.633	65615.84636
288.833	65650.27128
289.032	65705.43677
289.232	65592.91908
289.431	65592.91908
289.631	65629.61142
289.83	65524.24489
290.03	65652.56774
290.229	65641.0873
290.429	65712.33993
290.628	65542.54231
290.828	65675.54232
291.027	65698.53529
291.226	65625.02234
291.426	65586.04441
291.625	65469.42045
291.824	65620.43399
292.024	65620.43399
292.223	65652.56774
292.422	65611.25946
292.621	65629.61142
292.821	65576.8807
293.02	65615.84636
293.219	65544.83028
293.418	65650.27128
293.617	65556.27284
293.817	65643.38302
294.016	65515.10043
294.215	65547.11844
294.414	65689.33589
294.613	65625.02234
294.812	65611.25946
295.011	65638.79176
295.21	65588.33578
295.409	65677.84079
295.608	65723.84889
295.807	65643.38302
296.006	65579.17136
296.205	65613.55282
296.404	65478.55083
296.603	65631.90623
296.802	65517.38628
297.001	65641.0873
297.2	65638.79176
297.398	65657.16119
297.597	65544.83028
297.796	65682.43828
297.995	65666.35029
298.194	65563.14052
298.392	65627.31679
298.591	65620.43399
298.79	65664.05274
298.988	65631.90623
299.187	65627.31679
299.386	65597.50309
299.585	65615.84636
299.783	65599.79537
299.982	65535.67944
300.18	65634.20123
300.379	65622.72808
300.578	65625.02234
300.776	65682.43828
300.975	65588.33578
301.173	65531.10509
301.372	65615.84636
301.57	65634.20123
301.769	65638.79176
301.967	65567.71986
302.166	65615.84636
302.364	65659.45819
302.562	65611.25946
302.761	65565.4301
302.959	65620.43399
303.157	65574.59022
303.356	65647.97501
303.554	65556.27284
303.752	65615.84636
303.951	65581.46219
304.149	65494.53574
304.347	65588.33578
304.546	65558.56189
304.744	65595.21099
304.942	65579.17136
305.14	65647.97501
305.338	65673.24404
305.536	65625.02234
305.735	65627.31679
305.933	65634.20123
306.131	65643.38302
306.329	65556.27284
306.527	65673.24404
306.725	65620.43399
306.923	65567.71986
307.121	65510.52926
307.319	65645.67893
307.517	65647.97501
307.715	65597.50309
307.913	65487.68401
308.111	65574.59022
308.309	65590.62734
308.507	65622.72808
308.705	65611.25946
308.903	65666.35029
309.1	65547.11844
309.298	65551.69528
309.496	65592.91908
309.694	65629.61142
309.892	65654.86437
310.089	65661.75537
310.287	65611.25946
310.485	65641.0873
310.683	65597.50309
310.88	65615.84636
311.078	65622.72808
311.276	65558.56189
311.473	65608.96628
311.671	65599.79537
311.869	65556.27284
312.066	65606.67328
312.264	65604.38046
312.461	65526.53144
312.659	65547.11844
312.856	65558.56189
313.054	65636.4964
313.251	65631.90623
313.449	65544.83028
313.646	65613.55282
313.844	65657.16119
314.041	65613.55282
314.239	65542.54231
314.436	65533.39218
314.634	65501.38905
314.831	65558.56189
315.028	65680.13944
315.226	65613.55282
315.423	65542.54231
315.62	65647.97501
315.817	65595.21099
316.015	65487.68401
316.212	65643.38302
316.409	65563.14052
316.606	65579.17136
316.804	65625.02234
317.001	65659.45819
317.198	65560.85111
317.395	65560.85111
317.592	65560.85111
317.789	65611.25946
317.987	65588.33578
318.184	65641.0873
318.381	65677.84079
318.578	65563.14052
318.775	65673.24404
318.972	65668.64802
319.169	65666.35029
319.366	65558.56189
319.563	65595.21099
319.76	65634.20123
319.957	65625.02234
320.154	65638.79176
320.351	65556.27284
320.547	65579.17136
320.744	65618.14009
320.941	65496.82
321.138	65611.25946
321.335	65597.50309
321.532	65645.67893
321.728	65565.4301
321.925	65664.05274
322.122	65485.40045
322.319	65712.33993
322.515	65556.27284
322.712	65570.0098
322.909	65682.43828
323.105	65687.0365
323.302	65547.11844
323.499	65526.53144
323.695	65574.59022
323.892	65604.38046
324.089	65560.85111
324.285	65627.31679
324.482	65636.4964
324.678	65687.0365
324.875	65641.0873
325.071	65590.62734
325.268	65595.21099
325.464	65620.43399
325.661	65599.79537
325.857	65613.55282
326.054	65647.97501
326.25	65574.59022
326.446	65572.29992
326.643	65592.91908
326.839	65615.84636
327.035	65696.23516
327.232	65547.11844
327.428	65691.63546
327.624	65684.7373
327.821	65602.08782
328.017	65661.75537
328.213	65638.79176
328.409	65602.08782
328.606	65581.46219
328.802	65583.75321
328.998	65618.14009
329.194	65680.13944
329.39	65558.56189
329.586	65602.08782
329.783	65563.14052
329.979	65590.62734
330.175	65620.43399
330.371	65602.08782
330.567	65618.14009
330.763	65590.62734
330.959	65654.86437
331.155	65627.31679
331.351	65636.4964
331.547	65572.29992
331.743	65712.33993
331.939	65608.96628
332.135	65636.4964
332.33	65535.67944
332.526	65599.79537
332.722	65583.75321
332.918	65551.69528
333.114	65654.86437
333.31	65499.10444
333.506	65526.53144
333.701	65604.38046
333.897	65714.64135
334.093	65560.85111
334.289	65666.35029
334.484	65501.38905
334.68	65517.38628
334.876	65544.83028
335.071	65611.25946
335.267	65540.25451
335.463	65622.72808
335.658	65620.43399
335.854	65730.7565
336.049	65606.67328
336.245	65636.4964
336.441	65631.90623
336.636	65583.75321
336.832	65565.4301
337.027	65483.11707
337.223	65670.94594
337.418	65528.81818
337.613	65661.75537
337.809	65579.17136
338.004	65654.86437
338.2	65597.50309
338.395	65647.97501
338.591	65553.98397
338.786	65661.75537
338.981	65657.16119
339.177	65666.35029
339.372	65592.91908
339.567	65533.39218
339.762	65565.4301
339.958	65733.05941
340.153	65691.63546
340.348	65063.60776
340.543	65613.55282
340.739	65657.16119
340.934	65627.31679
341.129	65574.59022
341.324	65574.59022
341.519	65682.43828
341.714	65746.88078
341.909	65661.75537
342.104	65602.08782
342.299	65611.25946
342.495	65634.20123
342.69	65652.56774
342.885	65638.79176
343.08	65353.25112
343.275	65519.67231
343.469	65622.72808
343.664	65567.71986
343.859	65611.25946
344.054	65673.24404
344.249	65654.86437
344.444	65599.79537
344.639	65634.20123
344.834	65659.45819
345.029	65606.67328
345.223	65581.46219
345.418	65661.75537
345.613	65592.91908
345.808	65611.25946
346.003	65615.84636
346.197	65611.25946
346.392	65595.21099
346.587	65499.10444
346.781	65625.02234
346.976	65583.75321
347.171	65528.81818
347.365	65634.20123
347.56	65631.90623
347.755	65553.98397
347.949	65629.61142
348.144	65659.45819
348.338	65597.50309
348.533	65592.91908
348.727	65643.38302
348.922	65560.85111
349.116	65675.54232
349.311	65604.38046
349.505	65675.54232
349.7	65659.45819
349.894	65647.97501
350.089	65583.75321
350.283	65618.14009
350.477	65602.08782
350.672	65620.43399
350.866	65542.54231
351.06	65597.50309
351.255	65602.08782
351.449	65606.67328
351.643	65606.67328
351.837	65563.14052
352.032	65703.13609
352.226	65652.56774
352.42	65657.16119
352.614	65540.25451
352.809	65643.38302
353.003	65599.79537
353.197	65586.04441
353.391	65622.72808
353.585	65588.33578
353.779	65684.7373
353.973	65540.25451
354.167	65576.8807
354.361	65664.05274
354.555	65551.69528
354.749	65620.43399
354.943	65643.38302
355.137	65579.17136
355.331	65627.31679
355.525	65641.0873
355.719	65579.17136
355.913	65618.14009
356.107	65590.62734
356.301	65620.43399
356.495	65615.84636
356.689	65606.67328
356.883	65579.17136
357.076	65675.54232
357.27	65544.83028
357.464	65641.0873
357.658	65542.54231
357.852	65613.55282
358.045	65581.46219
358.239	65654.86437
358.433	65629.61142
358.626	65641.0873
358.82	65613.55282
359.014	65592.91908
359.207	65602.08782
359.401	65693.93522
359.595	65581.46219
359.788	65634.20123
359.982	65606.67328
360.175	65572.29992
360.369	65629.61142
360.563	65602.08782
360.756	65613.55282
360.95	65590.62734
361.143	65700.8356
361.336	65751.4894
361.53	65657.16119
361.723	65643.38302
361.917	65586.04441
362.11	65645.67893
362.304	65620.43399
362.497	65611.25946
362.69	65485.40045
362.884	65595.21099
363.077	65634.20123
363.27	65627.31679
363.464	65602.08782
363.657	65643.38302
363.85	65560.85111
364.043	65629.61142
364.237	65602.08782
364.43	65574.59022
364.623	65570.0098
364.816	65659.45819
365.009	65549.40677
365.202	65634.20123
365.396	65533.39218
365.589	65595.21099
365.782	65595.21099
365.975	65675.54232
366.168	65565.4301
366.361	65528.81818
366.554	65611.25946
366.747	65643.38302
366.94	65576.8807
367.133	65615.84636
367.326	65627.31679
367.519	65629.61142
367.712	65737.66579
367.905	65625.02234
368.098	65650.27128
368.291	65508.24395
368.484	65611.25946
368.676	65581.46219
368.869	65682.43828
369.062	65622.72808
369.255	65606.67328
369.448	65570.0098
369.64	65595.21099
369.833	65634.20123
370.026	65560.85111
370.219	65677.84079
370.411	65505.9588
370.604	65691.63546
370.797	65595.21099
370.989	65567.71986
371.182	65684.7373
371.375	65556.27284
371.567	65586.04441
371.76	65618.14009
371.952	65687.0365
372.145	65590.62734
372.338	65583.75321
372.53	65592.91908
372.723	65670.94594
372.915	65618.14009
373.108	65645.67893
373.3	65579.17136
373.493	65572.29992
373.685	65570.0098
373.877	65664.05274
374.07	65553.98397
374.262	65544.83028
374.455	65654.86437
374.647	65712.33993
374.839	65547.11844
375.032	65602.08782
375.224	65602.08782
375.416	65661.75537
375.609	65165.13043
375.801	65608.96628
375.993	65654.86437
376.185	65666.35029
376.378	65618.14009
376.57	65597.50309
376.762	65592.91908
376.954	65579.17136
377.146	65565.4301
377.338	65657.16119
377.53	65647.97501
377.723	65563.14052
377.915	65652.56774
378.107	65611.25946
378.299	65643.38302
378.491	65638.79176
378.683	65592.91908
378.875	65634.20123
379.067	65544.83028
379.259	65572.29992
379.451	65620.43399
379.643	65556.27284
379.835	65586.04441
380.027	65540.25451
380.219	65652.56774
380.41	65606.67328
380.602	65599.79537
380.794	65698.53529
380.986	65643.38302
381.178	65613.55282
381.37	65620.43399
381.561	65604.38046
381.753	65521.95851
381.945	65535.67944
382.137	65602.08782
382.328	65631.90623
382.52	65643.38302
382.712	65636.4964
382.903	65540.25451
383.095	65622.72808
383.287	65668.64802
383.478	65581.46219
383.67	65641.0873
383.862	65599.79537
384.053	65592.91908
384.245	65638.79176
384.436	65570.0098
384.628	65597.50309
384.819	65625.02234
385.011	65565.4301
385.202	65618.14009
385.394	65638.79176
385.585	65512.81476
385.777	65634.20123
385.968	65675.54232
386.159	65611.25946
386.351	65604.38046
386.542	65576.8807
386.734	65528.81818
386.925	65629.61142
387.116	65588.33578
387.308	65592.91908
387.499	65654.86437
387.69	65570.0098
387.881	65528.81818
388.073	65604.38046
388.264	65602.08782
388.455	65689.33589
388.646	65556.27284
388.837	65574.59022
389.029	65597.50309
389.22	65622.72808
389.411	65643.38302
389.602	65599.79537
389.793	65634.20123
389.984	65613.55282
390.175	65583.75321
390.366	65570.0098
390.557	65666.35029
390.748	65606.67328
390.939	65682.43828
391.13	65629.61142
391.321	65592.91908
391.512	65625.02234
391.703	65611.25946
391.894	65638.79176
392.085	65661.75537
392.276	65652.56774
392.467	65666.35029
392.658	65647.97501
392.849	65602.08782
393.039	65631.90623
393.23	65615.84636
393.421	65590.62734
393.612	65606.67328
393.803	65613.55282
393.993	65512.81476
394.184	65576.8807
394.375	65664.05274
394.566	65602.08782
394.756	65590.62734
394.947	65553.98397
395.138	65636.4964
395.328	65540.25451
395.519	65560.85111
395.709	65666.35029
395.9	65508.24395
396.091	65636.4964
396.281	65638.79176
396.472	65631.90623
396.662	65657.16119
396.853	65647.97501
397.043	65629.61142
397.234	65634.20123
397.424	65588.33578
397.615	65588.33578
397.805	65597.50309
397.996	65687.0365
398.186	65551.69528
398.376	65533.39218
398.567	65645.67893
398.757	65615.84636
398.947	65746.88078
399.138	65563.14052
399.328	65551.69528
399.518	65668.64802
399.709	65698.53529
399.899	65611.25946
400.089	65647.97501
400.279	65602.08782
400.47	65608.96628
400.66	65606.67328
400.85	65535.67944
401.04	65572.29992
401.23	65547.11844
401.421	65586.04441
401.611	65629.61142
401.801	65570.0098
401.991	65602.08782
402.181	65620.43399
402.371	65588.33578
402.561	65540.25451
402.751	65622.72808
402.941	65574.59022
403.131	65533.39218
403.321	65643.38302
403.511	65592.91908
403.701	65563.14052
403.891	65602.08782
404.081	65599.79537
404.271	65650.27128
404.461	65531.10509
404.651	65659.45819
404.84	65581.46219
405.03	65572.29992
405.22	65647.97501
405.41	65636.4964
405.6	65549.40677
405.789	65553.98397
405.979	65537.96689
406.169	65677.84079
406.359	65611.25946
406.548	65661.75537
406.738	65661.75537
406.928	65535.67944
407.118	65570.0098
407.307	65556.27284
407.497	65604.38046
407.686	65547.11844
407.876	65654.86437
408.066	65634.20123
408.255	65643.38302
408.445	65636.4964
408.634	65563.14052
408.824	65583.75321
409.013	65627.31679
409.203	65549.40677
409.392	65583.75321
409.582	65588.33578
409.771	65682.43828
409.961	65641.0873
410.15	65570.0098
410.34	65581.46219
410.529	65657.16119
410.718	65597.50309
410.908	65469.42045
411.097	65657.16119
411.286	65641.0873
411.476	65670.94594
411.665	65631.90623
411.854	65622.72808
412.044	65666.35029
412.233	65581.46219
412.422	65581.46219
412.611	65599.79537
412.8	65558.56189
412.99	65645.67893
413.179	65565.4301
413.368	65638.79176
413.557	65664.05274
413.746	65615.84636
413.935	65638.79176
414.124	65684.7373
414.313	65549.40677
414.503	65583.75321
414.692	65641.0873
414.881	65528.81818
415.07	65544.83028
415.259	65618.14009
415.448	65542.54231
415.637	65599.79537
415.826	65581.46219
416.015	65673.24404
416.203	65618.14009
416.392	65567.71986
416.581	65629.61142
416.77	65588.33578
416.959	65576.8807
417.148	65636.4964
417.337	65647.97501
417.525	65592.91908
417.714	65574.59022
417.903	65652.56774
418.092	65647.97501
418.281	65581.46219
418.469	65590.62734
418.658	65595.21099
418.847	65625.02234
419.035	65659.45819
419.224	65673.24404
419.413	65650.27128
419.601	65592.91908
419.79	65682.43828
419.979	65618.14009
420.167	65652.56774
420.356	65615.84636
420.544	65579.17136
420.733	65647.97501
420.921	65627.31679
421.11	65579.17136
421.299	65565.4301
421.487	65608.96628
421.675	65604.38046
421.864	65613.55282
422.052	65631.90623
422.241	65512.81476
422.429	65625.02234
422.618	65615.84636
422.806	65592.91908
422.994	65625.02234
423.183	65570.0098
423.371	65625.02234
423.559	65583.75321
423.748	65556.27284
423.936	65629.61142
424.124	65714.64135
424.312	65650.27128
424.501	65592.91908
424.689	65615.84636
424.877	65613.55282
425.065	65611.25946
425.254	65629.61142
425.442	65467.13829
425.63	65535.67944
425.818	65526.53144
426.006	65615.84636
426.194	65521.95851
426.382	65540.25451
426.57	65572.29992
426.758	65588.33578
426.946	65625.02234
427.134	65563.14052
427.323	65641.0873
427.51	65611.25946
427.698	65597.50309
427.886	65567.71986
428.074	65531.10509
428.262	65712.33993
428.45	65602.08782
428.638	65595.21099
428.826	65570.0098
429.014	65643.38302
429.202	65716.94296
429.39	65680.13944
429.577	65540.25451
429.765	65542.54231
429.953	65537.96689
430.141	65613.55282
430.329	65570.0098
430.516	65638.79176
430.704	65478.55083
430.892	65627.31679
431.079	65700.8356
431.267	65542.54231
431.455	65677.84079
431.643	65531.10509
431.83	65579.17136
432.018	65567.71986
432.205	65627.31679
432.393	65675.54232
432.581	65611.25946
432.768	65542.54231
432.956	65547.11844
433.143	65588.33578
433.331	65560.85111
433.518	65627.31679
433.706	65608.96628
433.893	65501.38905
434.081	65634.20123
434.268	65517.38628
434.456	65650.27128
434.643	65638.79176
434.83	65551.69528
435.018	65551.69528
435.205	65634.20123
435.392	65634.20123
435.58	65707.73764
435.767	65549.40677
435.954	65604.38046
436.142	65542.54231
436.329	65643.38302
436.516	65625.02234
436.703	65567.71986
436.891	65528.81818
437.078	65553.98397
437.265	65549.40677
437.452	65558.56189
437.639	65592.91908
437.827	65574.59022
438.014	65556.27284
438.201	65608.96628
438.388	65551.69528
438.575	65602.08782
438.762	65604.38046
438.949	65618.14009
439.136	65563.14052
439.323	65510.52926
439.51	65611.25946
439.697	65533.39218
439.884	65537.96689
440.071	65563.14052
440.258	65535.67944
440.445	65547.11844
440.632	65353.25112
440.819	65556.27284
441.006	65485.40045
441.193	65570.0098
441.38	65533.39218
441.566	65595.21099
441.753	65604.38046
441.94	65537.96689
442.127	65602.08782
442.314	65521.95851
442.5	65499.10444
442.687	65515.10043
442.874	65542.54231
443.061	65549.40677
443.247	65533.39218
443.434	65444.3263
443.621	65611.25946
443.807	65556.27284
443.994	65432.92683
444.181	65570.0098
444.367	65599.79537
444.554	65515.10043
444.74	65540.25451
444.927	65570.0098
445.114	65512.81476
445.3	65387.37213
445.487	65464.85631
445.673	65480.83386
445.86	65510.52926
446.046	65535.67944
446.233	65499.10444
446.419	65531.10509
446.605	65426.08923
446.792	65430.64746
446.978	65570.0098
447.165	65505.9588
447.351	65531.10509
447.537	65544.83028
447.724	65553.98397
447.91	65439.76599
448.096	65464.85631
448.283	65401.03131
448.469	65503.67384
448.655	65487.68401
448.841	65435.20638
449.028	65473.98529
449.214	65460.29286
449.4	65437.4861
449.586	65458.0114
449.773	65430.64746
449.959	65458.0114
450.145	65344.15865
450.331	65473.98529
450.517	65503.67384
450.703	65382.82044
450.889	65476.26797
451.075	65421.53169
451.261	65346.43151
451.447	65339.61343
451.633	65419.25318
451.819	65407.86322
452.005	65337.34108
452.191	65405.58575
452.377	65387.37213
452.563	65364.62052
452.749	65369.16948
452.935	65344.15865
453.121	65305.54584
453.307	65335.06889
453.493	65278.31898
453.679	65319.16832
453.865	65289.66058
454.05	65262.44775
454.236	65307.81583
454.422	65373.71912
454.608	65330.52503
454.794	65350.97774
454.979	65360.07225
455.165	65328.25335
455.351	65269.2487
455.537	65273.78351
455.722	65199.0439
455.908	65280.58696
456.094	65217.14611
456.279	65196.78186
456.465	65162.87084
456.65	65257.91461
456.836	65226.20116
457.022	65214.88276
457.207	65230.72967
457.393	65183.21306
457.578	65235.25884
457.764	65138.02595
457.949	65210.35656
458.135	65149.31665
458.32	65285.12344
458.506	65237.52367
458.691	65201.30611
458.877	65180.95216
459.062	65246.58465
459.248	65253.38213
459.433	65128.99628
459.618	65106.43335
459.804	65203.56847
459.989	65110.94466
460.174	65106.43335
460.36	65133.51079
460.545	65147.05819
460.73	65162.87084
460.915	65151.57528
461.101	65160.6114
461.286	65128.99628
461.471	65147.05819
461.656	65260.18109
461.842	65106.43335
462.027	65135.76829
462.212	65106.43335
462.397	65088.39453
462.582	65119.96919
462.767	65018.58985
462.952	65214.88276
463.138	65099.6676
463.323	65023.08882
463.508	65119.96919
463.693	65079.37893
463.878	65110.94466
464.063	65020.83926
464.248	65056.85106
464.433	65056.85106
464.618	65056.85106
464.803	65052.34738
464.988	65054.59914
465.173	64987.11458
465.357	65027.58841
465.542	65032.08862
465.727	64935.47113
465.912	64984.86752
466.097	65041.09094
466.282	65041.09094
466.467	64984.86752
466.651	64939.95863
466.836	64939.95863
467.021	65097.41266
467.206	64991.60918
467.391	65050.09578
467.575	65011.84258
467.76	65002.8484
467.945	64917.52723
468.129	64948.93548
468.314	64910.80079
468.499	65027.58841
468.683	64899.5931
468.868	64980.37385
469.053	64969.14239
469.237	64953.42482
469.422	64899.5931
469.606	64955.66973
469.791	65018.58985
469.975	64937.7148
470.16	64964.65088
470.344	64928.74102
470.529	65000.60025
470.713	64832.42628
470.898	64993.85672
471.082	64955.66973
471.267	65002.8484
471.451	64987.11458
471.636	65104.17794
471.82	64993.85672
472.004	64863.75394
472.189	64982.6206
472.373	65056.85106
472.557	65038.84013
472.742	65025.33853
472.926	65034.33897
473.11	65045.59304
473.295	64951.18007
473.479	64960.16
473.663	64969.14239
473.847	65032.08862
474.031	65023.08882
474.216	65018.58985
474.4	65043.34191
474.584	65036.58947
474.768	64998.35225
474.952	64933.2276
475.136	64930.98424
475.32	65063.60776
475.505	64951.18007
475.689	64897.35202
475.873	64971.38837
476.057	64962.40536
476.241	65009.5938
476.425	64935.47113
476.609	64899.5931
476.793	64975.8808
476.977	65045.59304
477.161	64939.95863
477.345	64922.01229
477.529	65038.84013
477.713	64883.9087
477.896	65020.83926
478.08	64865.99275
478.264	64933.2276
478.448	64957.91478
478.632	64888.3892
478.816	65097.41266
478.999	64904.07572
479.183	64987.11458
479.367	64955.66973
479.551	64792.19082
479.735	64895.11109
479.918	64930.98424
480.102	64863.75394
480.286	64901.83433
480.469	64969.14239
480.653	64865.99275
480.837	64881.66868
481.02	64908.55895
481.204	64868.23172
481.388	64839.13688
481.571	64740.84845
481.755	64877.18909
481.938	64868.23172
482.122	64904.07572
482.305	64807.83222
482.489	64725.23788
482.673	64769.8585
482.856	64843.61136
483.04	64836.89986
483.223	64827.95329
483.406	64848.08643
483.59	64843.61136
483.773	64787.72317
483.957	64868.23172
484.14	64758.69786
484.323	64723.00838
484.507	64765.39381
484.69	64798.89339
484.874	64870.47084
485.057	64816.77343
485.24	64772.09107
485.423	64908.55895
485.607	64749.77199
485.79	64807.83222
485.973	64763.16168
486.156	64698.49344
486.34	64714.09183
486.523	64696.26568
486.706	64756.46617
486.889	64827.95329
487.072	64723.00838
487.256	64702.9494
487.439	64763.16168
487.622	64705.1776
487.805	64758.69786
487.988	64729.69731
488.171	64698.49344
488.354	64687.35607
488.537	64752.00324
488.72	64705.1776
488.903	64680.67537
489.086	64734.15733
489.269	64694.03806
489.452	64689.58325
489.635	64638.39423
489.818	64529.58889
490.001	64767.62608
490.184	64727.46752
490.367	64725.23788
490.55	64629.4995
490.732	64522.93821
490.915	64667.31786
491.098	64629.4995
491.281	64754.23463
491.464	64680.67537
491.647	64707.40594
491.829	64714.09183
492.012	64622.82994
492.195	64569.51913
492.378	64658.41571
492.56	64514.07258
492.743	64536.2408
492.926	64507.4248
493.108	64647.29124
493.291	64627.27617
493.474	64489.70344
493.656	64505.20915
493.839	64449.86234
494.022	64516.28878
494.204	64445.43826
494.387	64471.99083
494.569	64609.49463
494.752	64478.63204
494.934	64502.99364
495.117	64489.70344
495.299	64527.37186
495.482	64458.7121
495.664	64412.27494
495.847	64494.13296
496.029	64534.02336
496.212	64282.12303
496.394	64505.20915
496.576	64458.7121
496.759	64551.7668
496.941	64374.72632
497.123	64220.51501
497.306	64527.37186
497.488	64441.01473
497.67	64509.64059
497.853	64502.99364
498.035	64376.934
498.217	64310.76124
498.4	64381.34975
498.582	64531.80605
498.764	64456.49946
498.946	64385.76603
499.128	64399.01808
499.311	64427.74738
499.493	64520.7216
499.675	64387.97437
499.857	64350.45065
500.039	64312.96509
500.221	64350.45065
500.403	64330.60062
500.585	64229.30998
500.767	64290.93244
500.949	64330.60062
501.132	64354.86321
501.314	64387.97437
501.496	64246.90609
501.678	64460.92489
501.859	64317.37318
502.041	64308.55751
502.223	64308.55751
502.405	64341.62709
502.587	64244.70613
502.769	64268.9128
502.951	64266.71155
503.133	64295.33793
503.315	64350.45065
503.497	64323.98631
503.678	64315.16907
503.86	64403.4365
504.042	64198.53649
504.224	64229.30998
504.406	64288.72989
504.587	64343.83278
504.769	64297.54087
504.951	64273.31569
505.132	64381.34975
505.314	64315.16907
505.496	64277.7191
505.678	64343.83278
505.859	64326.19095
506.041	64277.7191
506.222	64293.13512
506.404	64288.72989
506.586	64301.94713
506.767	64238.10701
506.949	64346.03861
507.13	64295.33793
507.312	64304.15046
507.493	64163.39725
507.675	64279.921
507.856	64277.7191
508.038	64368.10409
508.219	64346.03861
508.401	64343.83278
508.582	64249.10618
508.764	64286.52747
508.945	64253.50675
509.126	64341.62709
509.308	64323.98631
509.489	64308.55751
509.671	64365.89695
509.852	64273.31569
510.033	64365.89695
510.214	64339.42154
510.396	64379.14181
510.577	64445.43826
510.758	64262.30943
510.94	64273.31569
511.121	64308.55751
511.302	64310.76124
511.483	64346.03861
511.664	64282.12303
511.846	64394.60019
512.027	64312.96509
512.208	64376.934
512.389	64363.68994
512.57	64279.921
512.751	64317.37318
512.932	64299.74393
513.113	64209.52416
513.294	64332.80565
513.476	64319.57743
513.657	64352.65686
513.838	64427.74738
514.019	64288.72989
514.2	64368.10409
514.381	64312.96509
514.561	64293.13512
514.742	64390.18284
514.923	64321.7818
515.104	64304.15046
515.285	64348.24456
515.466	64379.14181
515.647	64416.69497
515.828	64271.11418
516.009	64315.16907
516.189	64390.18284
516.37	64425.53663
516.551	64399.01808
516.732	64399.01808
516.913	64363.68994
517.093	64392.39145
517.274	64399.01808
517.455	64240.30659
517.636	64312.96509
517.816	64304.15046
517.997	64328.39572
518.178	64335.01081
518.358	64434.38045
518.539	64361.48306
518.72	64343.83278
518.9	64332.80565
519.081	64346.03861
519.261	64295.33793
519.442	64211.72207
519.622	64328.39572
519.803	64332.80565
519.984	64282.12303
520.164	64359.27631
520.345	64339.42154
520.525	64326.19095
520.705	64381.34975
520.886	64277.7191
521.066	64491.91813
521.247	64348.24456
521.427	64352.65686
521.608	64194.14231
521.788	64379.14181
521.968	64180.96282
522.149	64396.80907
522.329	64319.57743
522.509	64427.74738
522.69	64379.14181
522.87	64407.85545
523.05	64434.38045
523.231	64414.48489
523.411	64374.72632
523.591	64321.7818
523.771	64403.4365
523.951	64317.37318
524.132	64299.74393
524.312	64350.45065
524.492	64379.14181
524.672	64323.98631
524.852	64299.74393
525.032	64361.48306
525.213	64328.39572
525.393	64260.10857
525.573	64436.59174
525.753	64288.72989
525.933	64315.16907
526.113	64321.7818
526.293	64425.53663
526.473	64394.60019
526.653	64249.10618
526.833	64385.76603
527.013	64443.22643
527.193	64359.27631
527.373	64374.72632
527.553	64348.24456
527.733	64317.37318
527.913	64405.64591
528.092	64545.11197
528.272	64330.60062
528.452	64387.97437
528.632	64467.56405
528.812	64372.51878
528.992	64321.7818
529.171	64354.86321
529.351	64449.86234
529.531	64443.22643
529.711	64339.42154
529.89	64441.01473
530.07	64332.80565
530.25	64246.90609
530.43	64251.3064
530.609	64374.72632
530.789	64357.0697
530.969	64346.03861
531.148	64414.48489
531.328	64452.07457
531.507	64405.64591
531.687	64319.57743
531.867	64445.43826
532.046	64304.15046
532.226	64410.06513
532.405	64348.24456
532.585	64370.31137
532.764	64392.39145
532.944	64246.90609
533.123	64374.72632
533.303	64425.53663
533.482	64249.10618
533.662	64401.22722
533.841	64343.83278
534.021	64308.55751
534.2	64396.80907
534.379	64441.01473
534.559	64379.14181
534.738	64339.42154
534.917	64480.84604
535.097	64370.31137
535.276	64365.89695
535.455	64323.98631
535.635	64458.7121
535.814	64403.4365
535.993	64335.01081
536.172	64467.56405
536.352	64429.95827
536.531	64449.86234
536.71	64357.0697
536.889	64376.934
537.068	64416.69497
537.248	64436.59174
537.427	64299.74393
537.606	64370.31137
537.785	64374.72632
537.964	64390.18284
538.143	64454.28695
538.322	64405.64591
538.501	64372.51878
538.68	64427.74738
538.859	64323.98631
539.038	64463.1378
539.217	64463.1378
539.396	64531.80605
539.575	64387.97437
539.754	64370.31137
539.933	64335.01081
540.112	64556.20404
540.291	64394.60019
540.47	64396.80907
540.649	64399.01808
540.828	64556.20404
541.007	64365.89695
541.186	64474.20443
541.364	64374.72632
541.543	64456.49946
541.722	64412.27494
541.901	64449.86234
542.08	64299.74393
542.258	64337.21611
542.437	64480.84604
542.616	64346.03861
542.795	64500.77826
542.973	64456.49946
543.152	64465.35086
543.331	64443.22643
543.509	64489.70344
543.688	64370.31137
543.867	64467.56405
544.045	64480.84604
544.224	64330.60062
544.402	64071.30924
544.581	64434.38045
544.76	64531.80605
544.938	64425.53663
545.117	64394.60019
545.295	64443.22643
545.474	64441.01473
545.652	64516.28878
545.831	64467.56405
546.009	64337.21611
546.188	64441.01473
546.366	64454.28695
546.544	64432.16929
546.723	64427.74738
546.901	64421.11553
547.08	64363.68994
547.258	64474.20443
547.436	64471.99083
547.615	64520.7216
547.793	64447.65023
547.971	64429.95827
548.15	64445.43826
548.328	64392.39145
548.506	64330.60062
548.684	64304.15046
548.863	64465.35086
549.041	64496.34792
549.219	64553.98535
549.397	64416.69497
549.576	64467.56405
549.754	64425.53663
549.932	64452.07457
550.11	64494.13296
550.288	64529.58889
550.466	64616.16165
550.644	64392.39145
550.822	64489.70344
551.001	64529.58889
551.179	64582.83925
551.357	64518.50512
551.535	64460.92489
551.713	64520.7216
551.891	64525.15497
552.069	64569.51913
552.247	64529.58889
552.425	64565.08021
552.603	64565.08021
552.781	64542.89397
552.958	64573.95861
553.136	64551.7668
553.314	64667.31786
553.492	64622.82994
553.67	64649.51585
553.848	64662.8665
554.026	64760.9297
554.204	64743.07912
554.381	64682.90213
554.559	64745.30993
554.737	64819.00911
554.915	64752.00324
555.092	64709.63442
555.27	64783.25612
555.448	64745.30993
555.626	64796.65905
555.803	64883.9087
555.981	64711.86305
556.159	64841.37404
556.336	64850.3242
556.514	64913.04279
556.692	64868.23172
556.869	64841.37404
557.047	64836.89986
557.224	64868.23172
557.402	64883.9087
557.58	64807.83222
557.757	64922.01229
557.935	65020.83926
558.112	64926.49796
558.29	64915.28493
558.467	65020.83926
558.645	65023.08882
558.822	65036.58947
559	65009.5938
559.177	64984.86752
559.354	64960.16
559.532	64966.89656
559.709	64998.35225
559.887	64960.16
560.064	65061.35537
560.241	64937.7148
560.419	64957.91478
560.596	64937.7148
560.773	64930.98424
560.951	64913.04279
561.128	64796.65905
561.305	65025.33853
561.482	64966.89656
561.66	64915.28493
561.837	64910.80079
562.014	64960.16
562.191	65034.33897
562.368	64980.37385
562.546	64913.04279
562.723	65014.09151
562.9	64982.6206
563.077	64908.55895
563.254	65005.09671
563.431	64973.63451
563.608	64886.14888
563.785	65002.8484
563.962	64942.20261
564.139	65032.08862
564.317	64915.28493
564.494	65047.84433
564.671	64850.3242
564.848	64946.69104
565.025	64998.35225
565.201	65025.33853
565.378	64955.66973
565.555	64953.42482
565.732	64989.36181
565.909	64998.35225
566.086	64980.37385
566.263	65029.83844
566.44	64984.86752
566.617	65025.33853
566.794	64946.69104
566.97	65009.5938
567.147	65079.37893
567.324	64982.6206
567.501	65043.34191
567.678	64980.37385
567.854	65002.8484
568.031	65113.20055
568.208	64982.6206
568.384	65047.84433
568.561	65023.08882
568.738	65047.84433
568.915	65025.33853
569.091	65099.6676
569.268	65059.10313
569.444	65108.68893
569.621	65079.37893
569.798	65106.43335
569.974	65050.09578
570.151	65045.59304
570.327	65061.35537
570.504	65034.33897
570.681	65128.99628
570.857	65097.41266
571.034	65106.43335
571.21	65056.85106
571.387	65203.56847
571.563	65176.43085
571.739	65014.09151
571.916	65226.20116
572.092	65151.57528
572.269	65099.6676
572.445	65113.20055
572.622	65160.6114
572.798	65099.6676
572.974	65153.83407
573.151	65210.35656
573.327	65151.57528
573.503	65050.09578
573.68	65212.61958
573.856	65205.831
574.032	65210.35656
574.208	65090.64882
574.385	65115.4566
574.561	65228.46533
574.737	65201.30611
574.913	65097.41266
575.089	65201.30611
575.266	65205.831
575.442	65217.14611
575.618	65056.85106
575.794	65178.69142
575.97	65187.73534
576.146	65117.71281
576.322	65183.21306
576.499	65074.87209
576.675	65092.90328
576.851	65095.15789
577.027	65018.58985
577.203	65151.57528
577.379	65192.25828
577.555	65147.05819
577.731	65101.92269
577.907	64776.55665
578.083	65056.85106
578.259	65128.99628
578.435	65104.17794
578.611	64984.86752
578.786	65000.60025
578.962	65052.34738
579.138	65165.13043
579.314	65056.85106
579.49	65128.99628
579.666	65032.08862
579.842	65108.68893
580.017	65108.68893
580.193	65095.15789
580.369	65043.34191
580.545	65068.11302
580.72	64973.63451
580.896	65104.17794
581.072	64993.85672
581.248	65041.09094
581.423	64969.14239
581.599	65072.61891
581.775	65032.08862
581.95	65034.33897
582.126	65061.35537
582.302	64964.65088
582.477	65027.58841
582.653	65088.39453
582.829	65072.61891
583.004	65162.87084
583.18	65059.10313
583.355	65097.41266
583.531	65027.58841
583.706	65005.09671
583.882	65097.41266
584.057	65180.95216
584.233	65043.34191
584.408	64944.44675
584.584	65063.60776
584.759	65126.73926
584.935	65126.73926
585.11	65113.20055
585.285	65147.05819
585.461	65219.40963
585.636	65119.96919
585.812	65138.02595
585.987	65205.831
586.162	65192.25828
586.338	65133.51079
586.513	65228.46533
586.688	65289.66058
586.863	65167.39019
587.039	65223.93715
587.214	65199.0439
587.389	65194.51999
587.564	65235.25884
587.74	65192.25828
587.915	65360.07225
588.09	65305.54584
588.265	65242.05383
588.44	65319.16832
588.615	65303.27601
588.791	65291.9294
588.966	65346.43151
589.141	65364.62052
589.316	65285.12344
589.491	65298.73686
589.666	65269.2487
589.841	65232.99417
590.016	65344.15865
590.191	65260.18109
590.366	65391.9245
590.541	65410.14087
590.716	65360.07225
590.891	65337.34108
591.066	65432.92683
591.241	65407.86322
591.416	65426.08923
591.591	65414.69668
591.766	65414.69668
591.941	65528.81818
592.116	65542.54231
592.29	65423.81037
592.465	65471.70278
592.64	65586.04441
592.815	65519.67231
592.99	65570.0098
593.165	65528.81818
593.339	65551.69528
593.514	65521.95851
593.689	65444.3263
593.864	65526.53144
594.038	65553.98397
594.213	65446.60672
594.388	65528.81818
594.562	65505.9588
594.737	65444.3263
594.912	65524.24489
595.086	65581.46219
595.261	65533.39218
595.436	65462.5745
595.61	65483.11707
595.785	65476.26797
595.959	65471.70278
596.134	65512.81476
596.309	65510.52926
596.483	65517.38628
596.658	65505.9588
596.832	65533.39218
597.007	65407.86322
597.181	65565.4301
597.356	65480.83386
597.53	65570.0098
597.704	65542.54231
597.879	65501.38905
598.053	65505.9588
598.228	65419.25318
598.402	65416.97484
598.576	65517.38628
598.751	65432.92683
598.925	65492.25165
599.1	65492.25165
599.274	65537.96689
599.448	65503.67384
599.622	65410.14087
599.797	65487.68401
599.971	65487.68401
600.145	65364.62052
600.32	65460.29286
600.494	65485.40045
600.668	65437.4861
600.842	65426.08923
601.016	65535.67944
601.191	65437.4861
601.365	65228.46533
601.539	65458.0114
601.713	65492.25165
601.887	65401.03131
602.061	65517.38628
602.235	65439.76599
602.409	65510.52926
602.583	65448.88731
602.758	65572.29992
602.932	65510.52926
603.106	65574.59022
603.28	65524.24489
603.454	65478.55083
603.628	65432.92683
603.802	65528.81818
603.976	65512.81476
604.149	65494.53574
604.323	65448.88731
604.497	65526.53144
604.671	65444.3263
604.845	65478.55083
605.019	65517.38628
605.193	65528.81818
605.367	65442.04606
605.541	65473.98529
605.714	65419.25318
605.888	65428.36826
606.062	65499.10444
606.236	65602.08782
606.41	65385.0962
606.583	65510.52926
606.757	65533.39218
606.931	65478.55083
607.105	65512.81476
607.278	65517.38628
607.452	65563.14052
607.626	65428.36826
607.799	65512.81476
607.973	65531.10509
608.147	65471.70278
608.32	65528.81818
608.494	65483.11707
608.668	65510.52926
608.841	65410.14087
609.015	65421.53169
609.188	65473.98529
609.362	65583.75321
609.535	65496.82
609.709	65521.95851
609.882	65485.40045
610.056	65458.0114
610.229	65487.68401
610.403	65489.96774
610.576	65385.0962
610.75	65458.0114
610.923	65487.68401
611.097	65544.83028
611.27	65412.41869
611.443	65478.55083
611.617	65579.17136
611.79	65583.75321
611.963	65476.26797
612.137	65487.68401
612.31	65483.11707
612.483	65510.52926
612.657	65494.53574
612.83	65551.69528
613.003	65549.40677
613.177	65510.52926
613.35	65528.81818
613.523	65487.68401
613.696	65464.85631
613.869	65602.08782
614.043	65439.76599
614.216	65487.68401
614.389	65526.53144
614.562	65448.88731
614.735	65503.67384
614.908	65512.81476
615.082	65446.60672
615.255	65492.25165
615.428	65455.73012
615.601	65533.39218
615.774	65505.9588
615.947	65460.29286
616.12	65364.62052
616.293	65401.03131
616.466	65414.69668
616.639	65432.92683
616.812	65464.85631
616.985	65382.82044
617.158	65462.5745
617.331	65480.83386
617.504	65460.29286
617.677	65537.96689
617.85	65492.25165
618.022	65505.9588
618.195	65487.68401
618.368	65423.81037
618.541	65410.14087
618.714	65489.96774
618.887	65478.55083
619.059	65444.3263
619.232	65487.68401
619.405	65330.52503
619.578	65360.07225
619.751	65469.42045
619.923	65446.60672
620.096	65378.26944
620.269	65398.75435
620.441	65448.88731
620.614	65489.96774
620.787	65416.97484
620.96	65430.64746
621.132	65335.06889
621.305	65307.81583
621.477	65364.62052
621.65	65451.16807
621.823	65464.85631
621.995	65360.07225
622.168	65369.16948
622.34	65371.44421
622.513	65382.82044
622.685	65378.26944
622.858	65360.07225
623.03	65419.25318
623.203	65446.60672
623.375	65398.75435
623.548	65439.76599
623.72	65371.44421
623.893	65373.71912
624.065	65396.47756
624.238	65389.64823
624.41	65489.96774
624.582	65328.25335
624.755	65405.58575
624.927	65382.82044
625.1	65375.99419
625.272	65448.88731
625.444	65341.88595
625.617	65255.64828
625.789	65332.79687
625.961	65394.20095
626.133	65330.52503
626.306	65316.89749
626.478	65316.89749
626.65	65301.00635
626.822	65382.82044
626.995	65280.58696
627.167	65291.9294
627.339	65362.3463
627.511	65253.38213
627.683	65291.9294
627.855	65262.44775
628.027	65341.88595
628.2	65276.05116
628.372	65301.00635
628.544	65303.27601
628.716	65301.00635
628.888	65278.31898
629.06	65214.88276
629.232	65378.26944
629.404	65303.27601
629.576	65219.40963
629.748	65319.16832
629.92	65180.95216
630.092	65169.65011
630.264	65266.98155
630.436	65344.15865
630.608	65276.05116
630.78	65271.51602
630.952	65314.62682
631.124	65237.52367
631.295	65260.18109
631.467	65312.35632
631.639	65228.46533
631.811	65307.81583
631.983	65287.39192
632.155	65287.39192
632.326	65282.85512
632.498	65278.31898
632.67	65287.39192
632.842	65321.43933
633.014	65266.98155
633.185	65210.35656
633.357	65298.73686
633.529	65171.9102
633.7	65205.831
633.872	65321.43933
634.044	65323.7105
634.215	65212.61958
634.387	65287.39192
634.559	65364.62052
634.73	65307.81583
634.902	65355.52466
635.074	65291.9294
635.245	65282.85512
635.417	65305.54584
635.588	65219.40963
635.76	65364.62052
635.931	65350.97774
636.103	65364.62052
636.274	65260.18109
636.446	65312.35632
636.617	65246.58465
636.789	65339.61343
636.96	65332.79687
637.132	65353.25112
637.303	65341.88595
637.474	65373.71912
637.646	65291.9294
637.817	65366.89492
637.989	65319.16832
638.16	65378.26944
638.331	65401.03131
638.503	65264.71457
638.674	65296.46754
638.845	65401.03131
639.017	65312.35632
639.188	65314.62682
639.359	65403.30844
639.53	65389.64823
639.702	65319.16832
639.873	65398.75435
640.044	65362.3463
640.215	65373.71912
640.387	65273.78351
640.558	65255.64828
640.729	65228.46533
640.9	65257.91461
641.071	65269.2487
641.242	65273.78351
641.413	65285.12344
641.585	65330.52503
641.756	65257.91461
641.927	65385.0962
642.098	65310.08599
642.269	65307.81583
642.44	65373.71912
642.611	65301.00635
642.782	65307.81583
642.953	65217.14611
643.124	65260.18109
643.295	65382.82044
643.466	65248.85031
643.637	65312.35632
643.808	65294.19838
643.979	65226.20116
644.15	65199.0439
644.32	65253.38213
644.491	65271.51602
644.662	65419.25318
644.833	65296.46754
645.004	65262.44775
645.175	65305.54584
645.346	65242.05383
645.516	65335.06889
645.687	65287.39192
645.858	65289.66058
646.029	65239.78867
646.199	65321.43933
646.37	65282.85512
646.541	65346.43151
646.712	65219.40963
646.882	65266.98155
647.053	65298.73686
647.224	65294.19838
647.394	65280.58696
647.565	65285.12344
647.736	65323.7105
647.906	65357.79837
648.077	65285.12344
648.248	65355.52466
648.418	65328.25335
648.589	65371.44421
648.759	65312.35632
648.93	65314.62682
649.1	65373.71912
649.271	65242.05383
649.441	65251.11614
649.612	65323.7105
649.782	65248.85031
649.953	65230.72967
650.123	65282.85512
650.294	65223.93715
650.464	65264.71457
650.635	64971.38837
650.805	65287.39192
650.975	65160.6114
651.146	65323.7105
651.316	65278.31898
651.487	65307.81583
651.657	65310.08599
651.827	65242.05383
651.998	65364.62052
652.168	65251.11614
652.338	65314.62682
652.508	65380.54485
652.679	65303.27601
652.849	65223.93715
653.019	65260.18109
653.189	65255.64828
653.36	65269.2487
653.53	65364.62052
653.7	65271.51602
653.87	65385.0962
654.04	65319.16832
654.211	65337.34108
654.381	65242.05383
654.551	65355.52466
654.721	65264.71457
654.891	65339.61343
655.061	65262.44775
655.231	65373.71912
655.401	65387.37213
655.571	65353.25112
655.741	65271.51602
655.911	65319.16832
656.081	65257.91461
656.251	65389.64823
656.421	65285.12344
656.591	65380.54485
656.761	65296.46754
656.931	65421.53169
657.101	65387.37213
657.271	65332.79687
657.441	65310.08599
657.611	65423.81037
657.781	65314.62682
657.951	65357.79837
658.121	65296.46754
658.291	65291.9294
658.46	65398.75435
658.63	65325.98184
658.8	65353.25112
658.97	65321.43933
659.14	65269.2487
659.309	65348.70454
659.479	65303.27601
659.649	65378.26944
659.819	65294.19838
659.988	65414.69668
660.158	65446.60672
660.328	65325.98184
660.497	65389.64823
660.667	65375.99419
660.837	65325.98184
661.006	65305.54584
661.176	65464.85631
661.346	65355.52466
661.515	65396.47756
661.685	65401.03131
661.854	65357.79837
662.024	65385.0962
662.194	65346.43151
662.363	65335.06889
662.533	65387.37213
662.702	65483.11707
662.872	65432.92683
663.041	65323.7105
663.211	65469.42045
663.38	65526.53144
663.55	65389.64823
663.719	65385.0962
663.889	65508.24395
664.058	65464.85631
664.227	65410.14087
664.397	65396.47756
664.566	65394.20095
664.735	65483.11707
664.905	65444.3263
665.074	65444.3263
665.244	65428.36826
665.413	65492.25165
665.582	65405.58575
665.751	65439.76599
665.921	65442.04606
666.09	65451.16807
666.259	65403.30844
666.428	65446.60672
666.598	65451.16807
666.767	65394.20095
666.936	65403.30844
667.105	65382.82044
667.275	65435.20638
667.444	65432.92683
667.613	65339.61343
667.782	65492.25165
667.951	65396.47756
668.12	65423.81037
668.289	65435.20638
668.458	65387.37213
668.628	65489.96774
668.797	65458.0114
668.966	65473.98529
669.135	65355.52466
669.304	65426.08923
669.473	65426.08923
669.642	65453.44901
669.811	65455.73012
669.98	65407.86322
670.149	65385.0962
670.318	65501.38905
670.487	65469.42045
670.656	65414.69668
670.824	65460.29286
670.993	65510.52926
671.162	65412.41869
671.331	65398.75435
671.5	65462.5745
671.669	65483.11707
671.838	65499.10444
672.007	65432.92683
672.175	65448.88731
672.344	65460.29286
672.513	65319.16832
672.682	65494.53574
672.85	65410.14087
673.019	65378.26944
673.188	65353.25112
673.357	65407.86322
673.525	65499.10444
673.694	65499.10444
673.863	65448.88731
674.032	65410.14087
674.2	65476.26797
674.369	65476.26797
674.537	65419.25318
674.706	65515.10043
674.875	65467.13829
675.043	65446.60672
675.212	65432.92683
675.381	65432.92683
675.549	65487.68401
675.718	65505.9588
675.886	65458.0114
676.055	65528.81818
676.223	65501.38905
676.392	65437.4861
676.56	65451.16807
676.729	65462.5745
676.897	65524.24489
677.066	65487.68401
677.234	65485.40045
677.403	65588.33578
677.571	65492.25165
677.739	65483.11707
677.908	65505.9588
678.076	65458.0114
678.244	65471.70278
678.413	65521.95851
678.581	65453.44901
678.75	65508.24395
678.918	65512.81476
679.086	65496.82
679.254	65590.62734
679.423	65401.03131
679.591	65496.82
679.759	65492.25165
679.928	65519.67231
680.096	65471.70278
680.264	65505.9588
680.432	65467.13829
680.6	65494.53574
680.769	65446.60672
680.937	65547.11844
681.105	65446.60672
681.273	65444.3263
681.441	65499.10444
681.609	65391.9245
681.777	65499.10444
681.945	65464.85631
682.114	65521.95851
682.282	65473.98529
682.45	65505.9588
682.618	65533.39218
682.786	65590.62734
682.954	65485.40045
683.122	65314.62682
683.29	65412.41869
683.458	65519.67231
683.626	65515.10043
683.794	65485.40045
683.962	65604.38046
684.13	65430.64746
684.298	65544.83028
684.465	65478.55083
684.633	65533.39218
684.801	65547.11844
684.969	65521.95851
685.137	65442.04606
685.305	65542.54231
685.473	65483.11707
685.64	65542.54231
685.808	65620.43399
685.976	65414.69668
686.144	65570.0098
686.312	65401.03131
686.479	65563.14052
686.647	65553.98397
686.815	65512.81476
686.983	65531.10509
687.15	65494.53574
687.318	65528.81818
687.486	65496.82
687.653	65483.11707
687.821	65535.67944
687.989	65485.40045
688.156	65576.8807
688.324	65551.69528
688.492	65494.53574
688.659	65638.79176
688.827	65467.13829
688.994	65560.85111
689.162	65542.54231
689.329	65435.20638
689.497	65563.14052
689.665	65604.38046
689.832	65492.25165
690	65473.98529
690.167	65572.29992
690.335	65533.39218
690.502	65556.27284
690.669	65492.25165
690.837	65535.67944
691.004	65444.3263
691.172	65442.04606
691.339	65426.08923
691.507	65595.21099
691.674	65560.85111
691.841	65570.0098
692.009	65608.96628
692.176	65524.24489
692.343	65570.0098
692.511	65531.10509
692.678	65537.96689
692.845	65524.24489
693.013	65579.17136
693.18	65489.96774
693.347	65510.52926
693.514	65613.55282
693.682	65512.81476
693.849	65558.56189
694.016	65537.96689
694.183	65469.42045
694.35	65652.56774
694.518	65565.4301
694.685	65567.71986
694.852	65563.14052
695.019	65657.16119
695.186	65526.53144
695.353	65448.88731
695.52	65503.67384
695.687	65499.10444
695.855	65517.38628
696.022	65515.10043
696.189	65560.85111
696.356	65579.17136
696.523	65629.61142
696.69	65446.60672
696.857	65657.16119
697.024	65485.40045
697.191	65576.8807
697.358	65487.68401
697.525	65469.42045
697.692	65519.67231
697.858	65595.21099
698.025	65503.67384
698.192	65508.24395
698.359	65608.96628
698.526	65519.67231
698.693	65526.53144
698.86	65570.0098
699.027	65549.40677
699.193	65615.84636
699.36	65570.0098
699.527	65581.46219
699.694	65604.38046
699.861	65604.38046
700.027	65446.60672
700.194	65492.25165
700.361	65508.24395
700.528	65499.10444
700.694	65553.98397
700.861	65590.62734
701.028	65521.95851
701.195	65521.95851
701.361	65512.81476
701.528	65560.85111
701.694	65503.67384
701.861	65629.61142
702.028	65430.64746
702.194	65489.96774
702.361	65560.85111
702.528	65558.56189
702.694	65551.69528
702.861	65405.58575
703.027	65519.67231
703.194	65576.8807
703.36	65521.95851
703.527	65620.43399
703.693	65467.13829
703.86	65455.73012
704.026	65544.83028
704.193	65696.23516
704.359	65542.54231
704.526	65592.91908
