Data from Air lamp in box _Subt6__1__14-44-02-332.txt Node

Date: Thu Oct 02 14:44:02 EDT 2025
User: brett
Spectrometer: USB4F03499
Trigger mode: 4
Integration Time (sec): 1.000000E-1
Scans to average: 1
Electric dark correction enabled: true
Nonlinearity correction enabled: true
Boxcar width: 0
XAxis mode: Wavelengths
Number of Pixels in Spectrum: 3648
>>>>>Begin Spectral Data<<<<<
345.386	45.67853
345.605	45.67853
345.824	45.67853
346.044	70.6898
346.263	35.34121
346.482	58.62752
346.701	46.98708
346.92	-19.04678
347.139	-58.59822
347.358	-93.68265
347.577	-4.393
347.796	27.92478
348.015	-10.2886
348.234	5.8716
348.453	41.15547
348.672	-38.1404
348.891	43.99931
349.11	71.83855
349.329	1563.90842
349.548	2637.52352
349.767	3032.45819
349.986	3106.35828
350.205	3446.73256
350.424	3524.35646
350.643	3799.12146
350.862	3729.36608
351.08	4201.79885
351.299	4196.41528
351.518	4528.66647
351.737	4766.32417
351.956	5181.41156
352.174	5480.93442
352.393	6061.69099
352.612	6701.5613
352.831	7086.8985
353.049	7985.34479
353.268	8541.19106
353.487	9351.40387
353.705	10263.17657
353.924	11219.65077
354.143	12036.64208
354.361	12481.84345
354.58	12706.94108
354.798	13182.96666
355.017	12943.35462
355.236	12991.16514
355.454	13462.66911
355.673	13751.5982
355.891	13973.72575
356.11	13767.61655
356.328	14084.41792
356.547	14206.60496
356.765	13832.32151
356.984	14102.21005
357.202	14037.99581
357.42	14033.89211
357.639	13943.28996
357.857	13811.53522
358.076	13300.35651
358.294	13002.15481
358.512	12728.55976
358.731	12432.19952
358.949	12312.72498
359.167	12429.67228
359.386	12484.85646
359.604	12479.73518
359.822	12331.74323
360.04	12311.79632
360.259	12027.59221
360.477	11664.67789
360.695	11128.54882
360.913	10404.63882
361.131	9999.5427
361.35	9125.48406
361.568	8105.10378
361.786	6981.27484
362.004	5677.54748
362.222	4492.86267
362.44	3260.94739
362.658	2058.45777
362.876	1300.73458
363.094	925.61272
363.312	794.21719
363.53	812.49055
363.749	811.60075
363.967	752.11252
364.184	844.97062
364.402	948.94102
364.62	749.3263
364.838	891.81957
365.056	976.91516
365.274	951.47656
365.492	1107.42386
365.71	1147.85
365.928	1197.87731
366.146	1220.06773
366.364	1379.68697
366.581	1501.93918
366.799	1449.76002
367.017	1579.27857
367.235	1883.16364
367.453	1784.41681
367.67	2010.5863
367.888	2091.3984
368.106	2219.15102
368.323	2104.90712
368.541	2259.51797
368.759	2385.22998
368.977	2250.3099
369.194	2528.00673
369.412	2714.15114
369.629	2860.66762
369.847	2831.03525
370.065	2962.5579
370.282	3209.86918
370.5	3437.07274
370.717	3644.71029
370.935	3918.0865
371.152	4260.55656
371.37	4629.25412
371.588	4991.15787
371.805	5325.57458
372.022	5470.31497
372.24	5862.38314
372.457	5968.08654
372.675	5999.76137
372.892	6017.52526
373.11	6090.78406
373.327	6286.7278
373.544	6237.3617
373.762	6390.66088
373.979	6523.91763
374.196	6705.04317
374.414	6644.67022
374.631	6788.79886
374.848	7095.14635
375.066	6921.01234
375.283	7362.2266
375.5	7433.75856
375.717	7730.32698
375.935	8208.49659
376.152	8507.54137
376.369	8938.05839
376.586	9439.40709
376.803	9929.62211
377.02	10705.39712
377.238	10840.71859
377.455	10770.5783
377.672	11121.52959
377.889	11084.5964
378.106	11081.41856
378.323	11071.33196
378.54	11188.95289
378.757	10961.72866
378.974	10588.84975
379.191	10571.94462
379.408	10671.65435
379.625	10147.48288
379.842	9621.17827
380.059	9505.8031
380.276	8837.3406
380.493	8417.37362
380.71	8265.96813
380.927	8073.82066
381.143	8009.16292
381.36	8360.00455
381.577	8102.38712
381.794	8081.34504
382.011	8122.158
382.228	8285.58381
382.444	8251.80449
382.661	8010.70986
382.878	7997.70424
383.095	8127.45259
383.311	7868.17289
383.528	7416.08073
383.745	7077.46423
383.962	6834.41211
384.178	6645.75463
384.395	6128.95035
384.612	5777.13196
384.828	5088.74221
385.045	4544.7532
385.261	3718.20848
385.478	3442.93463
385.695	2958.43665
385.911	2780.63924
386.128	2812.73851
386.344	3072.9532
386.561	3215.9942
386.777	3550.424
386.994	4001.20379
387.21	4245.46675
387.427	4627.7123
387.643	5038.2647
387.86	5313.57114
388.076	5675.91391
388.292	5904.12865
388.509	5988.09667
388.725	6233.1438
388.942	6626.81586
389.158	6715.54492
389.374	6824.5298
389.591	6737.09535
389.807	6934.02793
390.023	7449.18945
390.239	7335.55755
390.456	7476.27943
390.672	7713.63182
390.888	7596.13186
391.104	8079.79325
391.321	7978.16577
391.537	8232.71678
391.753	7930.26302
391.969	8249.04025
392.185	8224.70828
392.401	8242.103
392.618	7994.18259
392.834	7680.84667
393.05	8051.01586
393.266	7901.40705
393.482	8157.56191
393.698	7831.84851
393.914	7688.49877
394.13	7711.83728
394.346	7453.40974
394.562	7412.92233
394.778	7009.4542
394.994	6998.43851
395.21	7026.90369
395.426	6846.74836
395.642	6559.84969
395.858	6585.23909
396.073	6094.06246
396.289	6034.97054
396.505	5779.1893
396.721	5568.1383
396.937	5460.52518
397.153	4957.72342
397.369	4826.83029
397.584	5077.53249
397.8	4821.99525
398.016	4899.34246
398.232	4614.08956
398.447	4547.29279
398.663	4636.99395
398.879	4258.3468
399.094	4263.82683
399.31	4192.04903
399.526	3853.62688
399.741	4006.39936
399.957	4139.59507
400.173	4078.65255
400.388	4187.89922
400.604	4137.56307
400.82	4376.62604
401.035	4630.17716
401.251	4805.50056
401.466	4883.30157
401.682	5068.37461
401.897	5417.5964
402.113	5540.57047
402.328	5579.35342
402.544	5922.62851
402.759	5644.37427
402.974	5781.47861
403.19	5534.52447
403.405	5610.98512
403.621	5574.8831
403.836	5322.57374
404.051	5388.19947
404.267	5132.38806
404.482	4546.28246
404.697	4098.9961
404.913	4100.84922
405.128	4024.157
405.343	3785.75256
405.559	3428.3788
405.774	3590.82095
405.989	3844.78721
406.204	3549.92672
406.42	3762.4031
406.635	3677.20433
406.85	3644.67805
407.065	3768.2676
407.28	3820.55799
407.495	3788.43053
407.71	3670.56819
407.926	3667.56705
408.141	4086.39263
408.356	3978.30062
408.571	3801.88314
408.786	3647.14584
409.001	3761.24592
409.216	3823.89205
409.431	3498.09566
409.646	3441.33442
409.861	3125.32969
410.076	2874.86511
410.291	2759.1286
410.506	2517.43124
410.721	2203.87557
410.936	1863.86123
411.15	1717.99232
411.365	1759.28302
411.58	1488.35866
411.795	1510.95063
412.01	1347.84789
412.225	1429.23981
412.439	1315.08585
412.654	1305.13693
412.869	1173.21109
413.084	1331.78723
413.299	1229.0902
413.513	1260.84077
413.728	1221.04848
413.943	1276.05716
414.157	1269.73736
414.372	1288.40151
414.587	1218.16259
414.801	1445.94278
415.016	1368.38502
415.231	1493.01757
415.445	1587.51745
415.66	1445.01576
415.874	1476.91526
416.089	1652.54602
416.304	1898.03472
416.518	1823.67138
416.733	1998.08642
416.947	1921.62354
417.162	1853.8295
417.376	1805.7094
417.59	1947.86599
417.805	2180.78676
418.019	1967.51006
418.234	1937.38028
418.448	1902.33079
418.663	1973.96163
418.877	1727.91516
419.091	1851.03811
419.306	1947.48884
419.52	1776.07453
419.734	1770.87485
419.949	1831.25823
420.163	2085.38173
420.377	2029.72564
420.591	2092.96563
420.806	2080.01497
421.02	2113.5583
421.234	2324.16459
421.448	2335.78365
421.663	2501.56066
421.877	2418.36836
422.091	2722.87889
422.305	2686.37321
422.519	2920.13554
422.733	3435.45147
422.947	3300.59964
423.161	3509.61698
423.376	3771.88003
423.59	4036.74753
423.804	4123.70177
424.018	4188.4785
424.232	4318.52787
424.446	4678.54653
424.66	4540.61106
424.874	4620.04625
425.088	4359.13638
425.302	4402.06698
425.515	4735.51079
425.729	4621.07958
425.943	4540.13044
426.157	4475.8929
426.371	4329.37337
426.585	4476.52917
426.799	4563.26825
427.013	4692.39544
427.226	4783.32178
427.44	4491.77621
427.654	4622.87862
427.868	4395.80782
428.081	4576.8
428.295	4457.05545
428.509	4510.67221
428.723	4462.49342
428.936	4519.84124
429.15	4320.61475
429.364	4541.06753
429.577	4261.11105
429.791	4169.5422
430.005	4543.96084
430.218	4483.16463
430.432	4232.4947
430.645	4153.58299
430.859	4245.22678
431.073	4192.64
431.286	4194.71506
431.5	3984.60802
431.713	3576.41553
431.927	3269.27816
432.14	3299.10334
432.354	2869.97548
432.567	2742.75275
432.781	2403.27206
432.994	2404.09642
433.207	2102.65194
433.421	2126.1884
433.634	1974.86672
433.848	1890.13552
434.061	1782.79165
434.274	1619.42604
434.488	1777.73894
434.701	1631.3434
434.914	1720.20512
435.127	1903.75576
435.341	1781.0984
435.554	1806.48018
435.767	1769.92343
435.98	1886.43563
436.194	1767.66272
436.407	1728.95383
436.62	1869.57546
436.833	1725.06137
437.046	1863.24938
437.259	1749.10234
437.473	1816.44154
437.686	1914.44761
437.899	1690.06734
438.112	1754.97941
438.325	1617.56751
438.538	1666.42155
438.751	1875.83411
438.964	1383.05787
439.177	1432.50932
439.39	1315.71867
439.603	1248.63065
439.816	1157.94176
440.029	1135.21493
440.242	1009.65196
440.455	945.18363
440.668	1008.67139
440.881	938.54785
441.094	987.72653
441.306	924.21173
441.519	923.52682
441.732	876.12044
441.945	974.17462
442.158	797.07503
442.37	813.91512
442.583	791.10079
442.796	868.53254
443.009	971.92129
443.222	881.22127
443.434	837.82948
443.647	785.1324
443.86	1066.12724
444.072	1017.95345
444.285	969.5177
444.498	924.52216
444.71	929.70145
444.923	1138.13772
445.136	984.02176
445.348	1058.76105
445.561	886.0084
445.773	1082.78597
445.986	1010.92062
446.198	1187.25613
446.411	1106.4065
446.623	1133.56401
446.836	987.74315
447.048	1090.61522
447.261	1110.79766
447.473	1033.80561
447.686	981.00313
447.898	1089.55707
448.11	1026.02425
448.323	1030.41771
448.535	1009.92274
448.748	1005.9357
448.96	1027.54079
449.172	1086.65242
449.385	1006.37809
449.597	1068.05616
449.809	1085.52784
450.021	1195.1157
450.234	1230.31698
450.446	981.54754
450.658	1180.75375
450.87	1074.27591
451.083	1066.26394
451.295	1135.89547
451.507	1204.9336
451.719	1260.55135
451.931	1105.22813
452.143	1172.15705
452.356	1115.17333
452.568	1249.28345
452.78	1124.2632
452.992	1219.74389
453.204	1128.42674
453.416	1192.72732
453.628	1146.32935
453.84	1199.61241
454.052	1167.43382
454.264	1176.08609
454.476	1211.24847
454.688	1285.92021
454.9	1182.99324
455.112	1119.28849
455.324	1095.46651
455.536	1139.75587
455.747	1113.60892
455.959	955.9237
456.171	1103.35949
456.383	1146.15406
456.595	1122.32752
456.807	950.75532
457.018	1069.8071
457.23	1175.26331
457.442	1195.99212
457.654	1062.58114
457.865	1038.29232
458.077	1009.47176
458.289	1045.45968
458.501	1047.1725
458.712	1198.17784
458.924	1263.2115
459.136	1052.93734
459.347	1225.73718
459.559	1123.75337
459.77	1247.86758
459.982	1118.684
460.194	1154.39021
460.405	1065.04172
460.617	1158.10464
460.828	1263.6662
461.04	1232.37261
461.251	1171.78217
461.463	1297.98967
461.674	1206.04111
461.886	1047.22495
462.097	1137.51704
462.309	1100.6264
462.52	1124.5562
462.731	1223.99085
462.943	1068.93574
463.154	1114.42122
463.366	1073.33641
463.577	1211.68535
463.788	1161.46433
464	1238.45023
464.211	1226.37245
464.422	1312.82296
464.634	1297.87363
464.845	1206.31466
465.056	1219.33157
465.267	1226.54432
465.478	1315.06871
465.69	1270.56832
465.901	1406.37356
466.112	1372.60785
466.323	1476.37983
466.534	1468.96984
466.745	1577.8277
466.957	1635.89339
467.168	1657.02687
467.379	1630.7992
467.59	1760.22918
467.801	1761.24941
468.012	1886.39606
468.223	1992.48446
468.434	2054.29277
468.645	1926.03159
468.856	2000.97019
469.067	2022.79958
469.278	2078.74429
469.489	2084.65669
469.7	1922.37713
469.911	1919.28321
470.122	1961.02053
470.333	2018.24727
470.543	1770.43505
470.754	1898.95051
470.965	1800.79411
471.176	1818.99775
471.387	1848.40642
471.598	1781.16884
471.808	1653.08962
472.019	1644.43272
472.23	1610.54017
472.441	1686.20827
472.651	1646.80824
472.862	1629.87478
473.073	1540.9602
473.283	1533.52127
473.494	1600.88407
473.705	1446.54275
473.915	1387.44826
474.126	1394.18288
474.337	1306.41951
474.547	1493.89958
474.758	1469.47674
474.968	1327.78748
475.179	1341.89072
475.389	1128.8333
475.6	1173.31278
475.81	1185.92682
476.021	1105.72413
476.231	1034.38337
476.442	1068.52529
476.652	1049.61011
476.863	931.0592
477.073	1016.51123
477.284	872.17348
477.494	955.105
477.704	818.50843
477.915	947.66735
478.125	978.25049
478.335	1000.52659
478.546	1035.80364
478.756	948.68041
478.966	1008.99164
479.177	1111.99558
479.387	1180.01251
479.597	1241.0118
479.807	1178.54113
480.018	1196.35634
480.228	1316.71346
480.438	1293.86576
480.648	1345.86563
480.858	1312.15558
481.068	1305.29593
481.279	1357.12181
481.489	1346.91926
481.699	1397.20017
481.909	1411.94683
482.119	1580.40965
482.329	1468.96439
482.539	1352.07827
482.749	1432.68625
482.959	1414.8103
483.169	1502.42748
483.379	1536.53976
483.589	1507.6217
483.799	1554.1643
484.009	1371.7518
484.219	1326.78113
484.429	1407.84315
484.639	1574.443
484.849	1602.82495
485.059	1507.88157
485.268	1587.14544
485.478	1501.12574
485.688	1443.29481
485.898	1449.22464
486.108	1494.78221
486.317	1331.20124
486.527	1426.84345
486.737	1527.16859
486.947	1442.10503
487.156	1385.35598
487.366	1392.79412
487.576	1401.2537
487.785	1424.03338
487.995	1232.706
488.205	1382.01867
488.414	1471.15976
488.624	1349.37316
488.834	1341.62939
489.043	1227.35347
489.253	1340.34413
489.462	1408.71422
489.672	1298.09202
489.882	1262.43618
490.091	1317.07569
490.301	1399.77076
490.51	1350.67246
490.72	1352.77246
490.929	1425.35924
491.138	1500.09483
491.348	1310.12158
491.557	1225.08181
491.767	1397.64523
491.976	1458.10284
492.185	1298.85086
492.395	1320.12936
492.604	1279.88111
492.813	1304.68173
493.023	1376.91911
493.232	1401.37786
493.441	1330.47488
493.651	1412.40256
493.86	1355.52209
494.069	1391.71085
494.278	1326.00512
494.488	1207.2461
494.697	1300.37707
494.906	1252.97302
495.115	1300.64059
495.324	1204.48265
495.533	1460.95682
495.743	1224.85368
495.952	1216.03897
496.161	1258.20153
496.37	1250.69927
496.579	1164.91531
496.788	1101.27219
496.997	1101.80181
497.206	1068.35794
497.415	1071.96822
497.624	1100.94523
497.833	1006.99444
498.042	1028.73338
498.251	1095.54789
498.46	1126.38147
498.669	1145.30129
498.878	1086.21369
499.087	1077.10455
499.296	1093.25602
499.504	1180.68985
499.713	1235.6224
499.922	1125.57109
500.131	1134.37333
500.34	1182.05083
500.549	1186.09967
500.757	1196.00963
500.966	1169.5367
501.175	1368.50937
501.384	1192.78545
501.592	1222.56913
501.801	1288.32706
502.01	1290.23153
502.218	1246.56411
502.427	1391.75685
502.636	1205.82704
502.844	1395.61554
503.053	1261.13599
503.262	1383.3568
503.47	1457.22508
503.679	1392.55097
503.887	1413.31225
504.096	1277.65451
504.304	1377.39782
504.513	1545.28261
504.721	1266.9399
504.93	1339.51767
505.138	1503.52037
505.347	1163.45629
505.555	1333.52734
505.764	1411.94683
505.972	1527.17166
506.18	1428.24841
506.389	1360.05687
506.597	1296.84916
506.806	1509.00301
507.014	1526.68702
507.222	1269.04583
507.431	1420.72957
507.639	1267.57923
507.847	1391.50976
508.055	1217.04305
508.264	1198.75869
508.472	1246.34619
508.68	1248.85004
508.888	1339.28923
509.096	1164.16386
509.305	1122.14994
509.513	1150.3366
509.721	1224.30887
509.929	1285.2691
510.137	1226.16176
510.345	1272.77247
510.553	1233.65088
510.762	1339.30625
510.97	1321.88749
511.178	1187.13023
511.386	1362.33306
511.594	1295.38694
511.802	1252.22306
512.01	1321.07376
512.218	1371.02659
512.426	1236.15609
512.634	1296.75245
512.842	1343.86356
513.049	1354.6613
513.257	1417.09137
513.465	1322.36734
513.673	1277.11147
513.881	1372.68881
514.089	1422.01255
514.297	1408.3932
514.504	1468.58081
514.712	1473.04866
514.92	1447.76174
515.128	1460.42236
515.336	1626.68739
515.543	1657.8496
515.751	1515.09187
515.959	1694.39257
516.166	1791.87605
516.374	1757.97717
516.582	1877.91858
516.789	1957.08896
516.997	1912.78384
517.205	1992.32873
517.412	1957.29033
517.62	2088.45557
517.827	2052.71387
518.035	1977.06305
518.243	2002.93111
518.45	2063.57187
518.658	2104.40931
518.865	2043.60323
519.073	2109.07144
519.28	2068.47051
519.488	2214.0669
519.695	2163.66522
519.902	2182.70106
520.11	2117.53705
520.317	2119.50982
520.525	2039.54565
520.732	2018.81464
520.939	2072.55631
521.147	2087.47091
521.354	2190.05819
521.561	1871.30297
521.769	2035.6098
521.976	2041.40499
522.183	2003.09682
522.391	1896.6141
522.598	1960.89289
522.805	1935.62357
523.012	1882.7633
523.219	1903.1213
523.427	1749.03522
523.634	1873.46593
523.841	1774.89504
524.048	1661.20394
524.255	1700.49922
524.462	1542.80536
524.669	1593.9941
524.877	1587.53344
525.084	1426.18022
525.291	1497.76255
525.498	1386.40207
525.705	1203.42743
525.912	1293.63836
526.119	1406.39358
526.326	1238.81206
526.533	1232.24524
526.74	1242.31581
526.947	1216.91805
527.153	1197.23859
527.36	1115.04846
527.567	1190.91074
527.774	1169.47364
527.981	1113.11314
528.188	1177.54542
528.395	1223.07059
528.602	1014.96437
528.808	1025.95334
529.015	1065.3286
529.222	1153.24715
529.429	990.31715
529.635	1067.61264
529.842	1113.71535
530.049	1055.39628
530.256	1145.84253
530.462	1082.09959
530.669	1055.50304
530.876	1199.81003
531.082	1188.26282
531.289	1196.33143
531.495	1093.2578
531.702	1101.17333
531.909	1110.10362
532.115	1276.83155
532.322	1104.09188
532.528	1220.83279
532.735	1184.47137
532.941	1157.49593
533.148	1255.79624
533.354	1285.92021
533.561	1344.11614
533.767	1299.45911
533.974	1397.52104
534.18	1375.21918
534.387	1391.63016
534.593	1473.19567
534.799	1511.77388
535.006	1483.00639
535.212	1430.5212
535.418	1466.54227
535.625	1627.91938
535.831	1552.2157
536.037	1438.61766
536.244	1637.86989
536.45	1537.02148
536.656	1560.02766
536.862	1665.5393
537.068	1716.03932
537.275	1758.08464
537.481	1778.36366
537.687	1764.31567
537.893	1886.0232
538.099	1827.81992
538.305	1843.14572
538.512	1734.81481
538.718	1833.4133
538.924	1958.60823
539.13	1788.15964
539.336	1797.48329
539.542	1822.76096
539.748	1851.49746
539.954	1892.15596
540.16	1906.9003
540.366	1750.36856
540.572	1896.40649
540.778	1957.56089
540.984	1810.2373
541.19	1898.35166
541.396	1746.24933
541.602	1980.65949
541.807	1872.98038
542.013	1943.88045
542.219	1873.28271
542.425	1929.4214
542.631	1964.49896
542.837	1961.71978
543.042	1834.88564
543.248	1934.23741
543.454	1787.34394
543.66	1838.71817
543.865	1834.80482
544.071	1831.89161
544.277	1817.34645
544.483	1812.38368
544.688	1859.68974
544.894	1891.84067
545.1	1925.51845
545.305	1744.04486
545.511	1855.51765
545.716	1608.01686
545.922	1725.39927
546.128	1920.06863
546.333	1715.49098
546.539	1797.15112
546.744	1843.77836
546.95	1711.4984
547.155	1636.90001
547.361	1623.75528
547.566	1684.39057
547.772	1746.47057
547.977	1688.90539
548.182	1680.4143
548.388	1708.70591
548.593	1618.30206
548.799	1588.75692
549.004	1655.7441
549.209	1622.73214
549.415	1591.213
549.62	1544.80305
549.825	1587.14544
550.031	1802.07333
550.236	1611.25997
550.441	1473.5609
550.646	1503.54301
550.852	1654.82341
551.057	1556.6212
551.262	1519.80444
551.467	1503.13878
551.672	1488.90046
551.878	1479.83939
552.083	1468.32378
552.288	1558.43033
552.493	1476.75461
552.698	1432.2154
552.903	1441.97789
553.108	1362.15936
553.313	1442.1706
553.518	1445.95874
553.723	1444.28491
553.928	1317.73448
554.133	1394.32312
554.338	1338.46883
554.543	1508.53688
554.748	1435.19325
554.953	1343.39045
555.158	1443.89517
555.363	1346.20562
555.568	1413.46288
555.773	1455.0584
555.978	1445.0581
556.182	1392.18691
556.387	1511.55928
556.592	1348.78596
556.797	1490.04573
557.002	1464.49454
557.206	1395.43725
557.411	1489.63976
557.616	1595.23749
557.821	1494.85692
558.025	1595.69265
558.23	1488.48516
558.435	1593.562
558.64	1491.54294
558.844	1522.98953
559.049	1479.69717
559.253	1593.85536
559.458	1521.51518
559.663	1567.10968
559.867	1384.63788
560.072	1580.65521
560.276	1393.60896
560.481	1315.87276
560.685	1509.8057
560.89	1470.23983
561.094	1344.22554
561.299	1454.409
561.503	1406.43809
561.708	1331.53385
561.912	1369.07642
562.117	1336.70134
562.321	1266.59568
562.525	1352.22129
562.73	1359.7221
562.934	1355.01788
563.139	1325.66581
563.343	1252.53358
563.547	1333.18735
563.752	1326.14824
563.956	1273.6835
564.16	1271.42066
564.364	1265.03598
564.569	1297.25053
564.773	1169.74393
564.977	1324.95395
565.181	1239.30212
565.385	1162.95568
565.59	1278.63592
565.794	1236.48559
565.998	1261.80554
566.202	1294.56225
566.406	1070.13014
566.61	1275.75965
566.814	1181.53394
567.018	1114.28593
567.222	1236.80226
567.426	1111.81718
567.63	1244.96483
567.834	1290.29397
568.038	1269.99404
568.242	1277.28646
568.446	1235.75795
568.65	1342.24968
568.854	1290.61133
569.058	1255.59999
569.262	1378.69592
569.466	1360.35765
569.67	1344.68102
569.874	1453.49462
570.078	1411.32817
570.281	1576.83688
570.485	1579.59048
570.689	1482.75278
570.893	1615.34175
571.097	1568.81958
571.3	1692.37802
571.504	1757.83066
571.708	1710.01548
571.912	1956.23953
572.115	2003.82453
572.319	1980.00926
572.523	1933.05375
572.726	2135.86996
572.93	2135.69581
573.133	2087.70853
573.337	2174.34308
573.541	2322.67948
573.744	2279.81886
573.948	2351.0304
574.151	2371.10391
574.355	2343.75655
574.558	2474.3709
574.762	2399.40969
574.965	2610.68373
575.169	2624.12004
575.372	2633.66868
575.576	2710.90105
575.779	2695.51945
575.983	2838.16528
576.186	2835.14007
576.389	2987.84948
576.593	3017.24623
576.796	3043.30003
577	3037.4501
577.203	3114.03887
577.406	3330.88962
577.609	3279.65366
577.813	3380.89195
578.016	3294.81808
578.219	3418.2948
578.423	3335.15616
578.626	3485.09232
578.829	3512.90766
579.032	3356.55397
579.235	3604.03646
579.438	3555.54143
579.642	3571.3483
579.845	3477.73378
580.048	3634.37466
580.251	3484.2315
580.454	3560.18775
580.657	3640.00811
580.86	3755.55161
581.063	3610.51754
581.266	3881.24426
581.469	3833.83
581.672	3775.29231
581.875	3775.65964
582.078	4013.48241
582.281	3852.86977
582.484	3851.94852
582.687	3993.27966
582.89	3829.18595
583.093	3920.42572
583.296	3846.17924
583.499	3968.89183
583.702	3963.74795
583.904	3759.73401
584.107	3910.30604
584.31	3904.32378
584.513	3936.43356
584.716	3912.3748
584.918	3909.98523
585.121	3872.84605
585.324	3880.93516
585.527	3739.94032
585.729	3770.01342
585.932	3667.39008
586.135	3881.30012
586.337	3938.57814
586.54	3941.38416
586.743	4042.0581
586.945	4007.43966
587.148	4030.57658
587.35	4021.04378
587.553	3990.23022
587.755	4141.58262
587.958	4112.79724
588.161	4050.89729
588.363	4102.96593
588.566	4313.67023
588.768	4066.36594
588.971	4160.76606
589.173	4077.02894
589.375	3913.31511
589.578	3965.98781
589.78	4129.66996
589.983	3970.02828
590.185	4070.40546
590.387	3957.57416
590.59	3937.60285
590.792	3844.91109
590.994	3920.34318
591.197	3934.96212
591.399	3991.02497
591.601	3980.32312
591.803	3862.58226
592.006	3991.01895
592.208	4027.63034
592.41	4027.90612
592.612	4058.61028
592.815	4139.12963
593.017	4159.80904
593.219	4068.75363
593.421	4153.1411
593.623	3919.78136
593.825	3964.65204
594.027	3865.02274
594.229	3773.36009
594.432	3897.26946
594.634	3903.23264
594.836	3849.8341
595.038	3731.01032
595.24	3785.38458
595.442	3830.26719
595.644	3669.80747
595.846	3565.19042
596.048	3625.12315
596.249	3586.21017
596.451	3616.75451
596.653	3680.29115
596.855	3660.57115
597.057	3678.03316
597.259	3821.7173
597.461	3785.45614
597.663	3673.83285
597.864	3627.906
598.066	3868.65411
598.268	3758.74654
598.47	3690.61496
598.671	3846.69263
598.873	3782.35919
599.075	3954.89964
599.277	3772.11018
599.478	3903.76294
599.68	3733.34797
599.882	3823.93815
600.083	3651.32893
600.285	3610.24113
600.487	3819.0534
600.688	3824.62291
600.89	3677.55205
601.091	3701.76079
601.293	3652.00553
601.494	3555.78361
601.696	3704.50509
601.898	3748.42183
602.099	3752.3707
602.301	3854.57916
602.502	3773.62601
602.703	3787.0801
602.905	3826.5075
603.106	3946.17563
603.308	3973.89807
603.509	3922.83849
603.711	3889.65051
603.912	4054.60614
604.113	3975.2667
604.315	4078.11435
604.516	3878.70823
604.717	4040.99168
604.919	3941.64463
605.12	3961.11212
605.321	3871.17181
605.522	3847.77405
605.724	3862.91709
605.925	3793.14051
606.126	3734.4378
606.327	3737.02887
606.528	3739.72486
606.729	3666.28141
606.931	3620.01594
607.132	3714.23034
607.333	3377.01091
607.534	3451.05306
607.735	3528.04146
607.936	3458.61737
608.137	3346.82255
608.338	3452.26339
608.539	3442.34815
608.74	3382.59386
608.941	3311.1125
609.142	3232.31244
609.343	3214.90818
609.544	3277.86817
609.745	3240.09737
609.946	3209.2655
610.147	3256.46931
610.348	3138.0466
610.549	3021.60216
610.75	3133.3159
610.95	2949.79811
611.151	2807.36804
611.352	2898.49013
611.553	2690.77394
611.754	2676.01353
611.954	2763.74885
612.155	2555.63397
612.356	2490.99432
612.557	2356.6823
612.757	2385.23915
612.958	2310.67415
613.159	2386.60489
613.359	2260.959
613.56	2106.50763
613.761	2126.41067
613.961	2167.96459
614.162	2236.49837
614.362	2195.37379
614.563	2255.76891
614.764	2198.92339
614.964	2145.37746
615.165	2136.38354
615.365	2104.92177
615.566	2122.05514
615.766	2004.9607
615.967	2078.29296
616.167	2029.95513
616.368	2050.39418
616.568	2041.46301
616.768	2013.36391
616.969	2008.97497
617.169	1939.58577
617.37	1977.39832
617.57	1796.36669
617.77	1818.67369
617.971	1747.34143
618.171	1751.96777
618.371	1829.84911
618.571	1686.70589
618.772	1864.02195
618.972	1769.44742
619.172	1820.4637
619.372	1752.05418
619.573	1916.9086
619.773	1801.63351
619.973	1835.26375
620.173	1838.50232
620.373	1922.8991
620.573	1810.87705
620.774	1954.76128
620.974	1870.50278
621.174	1931.4226
621.374	1938.92326
621.574	2001.70988
621.774	1971.89305
621.974	2037.6996
622.174	2143.81033
622.374	2158.17337
622.574	2067.69151
622.774	2082.2285
622.974	2227.46244
623.174	2243.0354
623.374	2178.48908
623.574	2290.5463
623.774	2330.74026
623.973	2349.99325
624.173	2354.01631
624.373	2465.12522
624.573	2546.39716
624.773	2540.92018
624.973	2788.73773
625.172	2699.43156
625.372	2792.48729
625.572	2933.13513
625.772	2873.50567
625.971	2973.82212
626.171	3135.71169
626.371	3028.4455
626.57	3258.88181
626.77	3249.2369
626.97	3189.12164
627.169	3345.90032
627.369	3580.57653
627.569	3532.56728
627.768	3693.7958
627.968	3917.22541
628.167	3927.62148
628.367	4152.26709
628.566	4245.30526
628.766	4522.94655
628.965	4668.19973
629.165	5020.81452
629.364	5101.74934
629.564	5447.07743
629.763	5428.50401
629.963	5575.85072
630.162	5600.06577
630.362	5819.24527
630.561	5824.80304
630.76	6030.56247
630.96	5787.68506
631.159	5962.85186
631.358	5871.48457
631.558	5956.9671
631.757	5888.23413
631.956	5855.53568
632.155	5905.5612
632.355	5809.29759
632.554	5652.16468
632.753	5671.89175
632.952	5523.50676
633.152	5576.82425
633.351	5485.71038
633.55	5593.25769
633.749	5629.63474
633.948	5382.43749
634.147	5364.15932
634.346	5396.44222
634.545	5483.62299
634.744	5501.99509
634.944	5439.29281
635.143	5450.64639
635.342	5470.27341
635.541	5326.32027
635.74	5165.03064
635.939	5287.3724
636.138	5280.48852
636.336	5141.39633
636.535	4994.51476
636.734	5169.21664
636.933	4918.57146
637.132	4886.72044
637.331	4623.08987
637.53	4343.8572
637.729	4314.25085
637.928	4155.18376
638.126	4170.79381
638.325	3807.68157
638.524	3703.77319
638.723	3844.17422
638.921	3686.40872
639.12	3664.78493
639.319	3548.58347
639.518	3478.84693
639.716	3590.17757
639.915	3453.85327
640.114	3336.69108
640.312	3521.17965
640.511	3536.72144
640.71	3457.54557
640.908	3539.44824
641.107	3552.10917
641.305	3553.71743
641.504	3669.05901
641.702	3437.15664
641.901	3702.34163
642.099	3541.60125
642.298	3818.17864
642.496	3777.71799
642.695	3916.67497
642.893	3777.33935
643.092	3912.45952
643.29	3906.73712
643.489	3956.55443
643.687	3895.51577
643.885	4100.53438
644.084	4037.53859
644.282	4053.54254
644.48	4283.67079
644.679	4230.4685
644.877	4072.06177
645.075	4115.87793
645.274	4225.3675
645.472	4239.41107
645.67	4189.81064
645.868	4189.77744
646.067	4232.74533
646.265	4172.19649
646.463	4092.76849
646.661	4154.55072
646.859	4169.30409
647.057	4167.39832
647.256	4275.54333
647.454	4332.18567
647.652	4346.95109
647.85	4469.19229
648.048	4402.50681
648.246	4488.64734
648.444	4600.85908
648.642	4635.65928
648.84	4713.72002
649.038	4646.62102
649.236	4884.40529
649.434	4804.62113
649.632	4784.65439
649.83	5067.16685
650.028	4863.10923
650.226	5293.61908
650.423	5232.81744
650.621	5301.23407
650.819	5288.88472
651.017	5518.81411
651.215	5442.34081
651.413	5564.51407
651.61	5615.06726
651.808	5604.68841
652.006	5654.84232
652.204	5690.50751
652.401	5748.90524
652.599	5759.54748
652.797	5649.54339
652.995	5805.95654
653.192	5846.14456
653.39	6006.6122
653.588	6205.06806
653.785	6277.84083
653.983	6291.20097
654.18	6343.7283
654.378	6375.67273
654.576	6529.85237
654.773	6436.28802
654.971	6679.2186
655.168	6676.70074
655.366	7102.54153
655.563	6890.50158
655.761	7231.85328
655.958	7269.64098
656.156	7342.21384
656.353	7375.59965
656.55	7596.23878
656.748	7677.06882
656.945	7843.27002
657.143	7742.84708
657.34	7778.04614
657.537	7937.20099
657.735	7877.84173
657.932	8215.85325
658.129	8047.13512
658.326	8358.65341
658.524	8440.394
658.721	8521.9212
658.918	8579.01175
659.115	8546.45543
659.313	8630.12057
659.51	8573.24733
659.707	8836.06148
659.904	8671.30013
660.101	8872.8085
660.298	8986.51473
660.496	8881.83357
660.693	8915.25944
660.89	8941.65674
661.087	8956.73484
661.284	8835.69684
661.481	8702.29212
661.678	8657.46583
661.875	8751.87382
662.072	8699.51996
662.269	8540.44655
662.466	8539.13117
662.663	8431.9399
662.86	8458.47899
663.057	8287.56752
663.254	8128.82326
663.45	8434.87437
663.647	8437.45395
663.844	8389.4103
664.041	8214.90604
664.238	8256.45151
664.435	8206.28737
664.631	8065.73872
664.828	8326.15865
665.025	8325.70024
665.222	8316.86939
665.419	8166.85715
665.615	8276.90031
665.812	8058.43628
666.009	8228.97342
666.205	8224.70349
666.402	8268.55449
666.599	8177.94005
666.795	8396.9575
666.992	8118.51355
667.188	8153.26889
667.385	8265.14824
667.582	8140.08315
667.778	8179.33514
667.975	8108.34551
668.171	8155.28999
668.368	8201.81652
668.564	8040.36955
668.761	8383.27489
668.957	8308.40894
669.154	8433.36671
669.35	8388.82134
669.547	8618.14559
669.743	8765.33269
669.939	8955.18912
670.136	9191.85817
670.332	9373.39143
670.528	9675.51507
670.725	9934.40042
670.921	10415.38835
671.117	11012.52077
671.314	11505.28771
671.51	12077.39795
671.706	13001.93396
671.902	13387.70726
672.099	13758.83514
672.295	14072.56828
672.491	14330.9769
672.687	14530.707
672.883	14924.8084
673.08	15281.05251
673.276	15039.5568
673.472	15259.75805
673.668	15521.06222
673.864	15131.40902
674.06	15041.68353
674.256	15102.4583
674.452	14793.98249
674.648	14900.53867
674.844	14966.26939
675.04	14979.93456
675.236	14699.33035
675.432	14685.18164
675.628	14460.54103
675.824	14259.80139
676.02	14075.33827
676.216	13941.5759
676.412	13855.57559
676.608	13805.95029
676.804	13366.53977
676.999	13516.39871
677.195	13322.65868
677.391	13171.1229
677.587	12857.2166
677.783	12864.28027
677.978	12774.67078
678.174	12511.72573
678.37	12062.60841
678.566	12027.37416
678.761	11402.07955
678.957	11260.28197
679.153	10818.5139
679.348	10681.41086
679.544	10017.16453
679.74	9527.30813
679.935	8652.65008
680.131	8189.31959
680.327	7577.9834
680.522	7295.97933
680.718	6659.31903
680.913	6411.22659
681.109	6209.93754
681.304	5805.36629
681.5	5562.99842
681.695	5322.06993
681.891	5094.5596
682.086	4927.16972
682.282	4517.22523
682.477	4062.17857
682.672	4234.06331
682.868	4105.00115
683.063	3962.67957
683.259	3606.1984
683.454	3478.98252
683.649	3419.754
683.845	3202.39135
684.04	3323.06525
684.235	3033.39713
684.43	2939.79742
684.626	2803.92352
684.821	2812.3568
685.016	2755.47172
685.211	2636.82275
685.407	2499.94063
685.602	2553.51864
685.797	2476.76331
685.992	2555.21699
686.187	2415.62394
686.382	2432.2792
686.577	2378.54281
686.773	2207.08092
686.968	2336.34174
687.163	2289.63818
687.358	2217.98818
687.553	2322.49445
687.748	2234.51916
687.943	2205.72411
688.138	2086.93533
688.333	2002.12671
688.528	2062.56307
688.723	2073.26363
688.918	1960.43555
689.112	1922.8535
689.307	1755.59268
689.502	1960.64543
689.697	1746.90066
689.892	1817.91074
690.087	1736.78132
690.282	1695.56283
690.476	1605.6595
690.671	1581.8118
690.866	1493.85018
691.061	1497.85447
691.255	1395.73036
691.45	1385.63628
691.645	1398.60863
691.84	1218.75974
692.034	1242.94694
692.229	1167.84978
692.424	1064.85081
692.618	1125.19358
692.813	1005.8749
693.007	892.67455
693.202	997.23624
693.397	774.99437
693.591	819.27213
693.786	787.72629
693.98	710.33074
694.175	750.48782
694.369	758.37519
694.564	724.72534
694.758	569.3255
694.953	601.17229
695.147	724.86612
695.342	623.2383
695.536	690.5774
695.73	575.17172
695.925	710.34835
696.119	627.28301
696.313	571.50424
696.508	685.93742
696.702	685.48292
696.896	715.2841
697.091	767.27734
697.285	776.66388
697.479	731.21453
697.673	767.33698
697.868	877.54871
698.062	777.35218
698.256	764.2558
698.45	778.63845
698.644	899.59298
698.839	866.46475
699.033	917.07119
699.227	788.01865
699.421	766.05063
699.615	751.78173
699.809	815.42073
700.003	862.97603
700.197	900.35378
700.391	855.37338
700.585	930.00946
700.779	966.8639
700.973	928.53112
701.167	959.28918
701.361	1016.13507
701.555	917.89312
701.749	1026.21191
701.943	998.76754
702.137	976.81473
702.331	1110.46522
702.525	1199.05545
702.718	1278.77395
702.912	1239.55877
703.106	1263.95915
703.3	1330.47155
703.494	1422.66924
703.687	1441.97242
703.881	1508.40244
704.075	1621.89371
704.269	1657.9777
704.462	1849.33329
704.656	2055.90127
704.85	2124.63459
705.043	2140.36413
705.237	2330.19
705.431	2378.23033
705.624	2384.91481
705.818	2513.33017
706.012	2552.49472
706.205	2479.78991
706.399	2590.82272
706.592	2605.84475
706.786	2648.71386
706.979	2626.30247
707.173	2580.39996
707.366	2678.64232
707.56	2719.75185
707.753	2723.52222
707.947	2800.64048
708.14	2716.99353
708.333	2592.69448
708.527	2595.33011
708.72	2837.35212
708.914	2795.86157
709.107	2790.40558
709.3	2769.4678
709.494	2805.81149
709.687	2795.73714
709.88	2930.27646
710.073	2967.71976
710.267	3112.68184
710.46	3166.18875
710.653	3198.84657
710.846	3400.86473
711.04	3438.52119
711.233	3816.83651
711.426	3639.36998
711.619	3825.59269
711.812	3959.99066
712.005	4400.68898
712.198	4593.22846
712.391	4873.80786
712.585	5099.51276
712.778	5468.40436
712.971	5674.21742
713.164	5698.05813
713.357	6050.53668
713.55	6126.99382
713.743	6075.0813
713.936	6385.45023
714.129	6388.38332
714.322	6499.19723
714.514	6417.43429
714.707	6653.79497
714.9	6521.00428
715.093	6665.99838
715.286	6455.51232
715.479	6608.08782
715.672	6460.11238
715.864	6465.64009
716.057	6313.87919
716.25	6478.92976
716.443	6309.53179
716.636	6555.67487
716.828	6326.00445
717.021	6193.25914
717.214	6044.08685
717.406	5973.13964
717.599	6057.12871
717.792	5807.97036
717.984	5821.08846
718.177	5900.45148
718.37	5819.46518
718.562	5648.54232
718.755	5358.30591
718.947	5540.44642
719.14	5276.54103
719.333	5269.25687
719.525	5234.37904
719.718	5056.01324
719.91	5010.21996
720.103	4957.20308
720.295	4626.18624
720.487	4615.69535
720.68	4344.55953
720.872	4197.82795
721.065	3962.39386
721.257	3595.36171
721.449	3247.97437
721.642	3214.10911
721.834	2950.36312
722.026	2869.09936
722.219	2882.49597
722.411	2747.8253
722.603	2676.41634
722.796	2614.19337
722.988	2767.48633
723.18	2568.48462
723.372	2734.4425
723.565	2582.01042
723.757	2584.97726
723.949	2507.72135
724.141	2680.99668
724.333	2669.34195
724.525	2645.6566
724.717	2754.54259
724.91	2684.57544
725.102	2561.05978
725.294	2610.11788
725.486	2715.09652
725.678	2799.31685
725.87	2641.04268
726.062	2713.04975
726.254	2750.72764
726.446	2874.6924
726.638	2715.22686
726.83	2844.296
727.022	2747.05594
727.213	2772.04169
727.405	2544.35295
727.597	2546.20792
727.789	2736.43069
727.981	2823.43749
728.173	2686.35146
728.365	2696.73793
728.556	2661.76461
728.748	2697.41417
728.94	2518.88928
729.132	2525.29554
729.324	2481.44691
729.515	2558.13999
729.707	2621.15315
729.899	2514.69788
730.09	2647.78577
730.282	2571.80807
730.474	2459.97779
730.665	2480.04685
730.857	2561.86797
731.049	2604.91211
731.24	2621.8954
731.432	2599.57548
731.623	2790.92324
731.815	2757.45898
732.006	2806.32366
732.198	2876.20919
732.389	2885.6165
732.581	2973.78696
732.772	3038.33098
732.964	2882.72368
733.155	3139.33254
733.347	3136.15193
733.538	3262.70294
733.729	3234.45936
733.921	3380.10038
734.112	3480.6757
734.304	3588.31157
734.495	3598.65666
734.686	3685.98912
734.877	3799.51905
735.069	3718.56648
735.26	3768.12893
735.451	3845.35124
735.643	4046.33128
735.834	4222.93529
736.025	4198.16546
736.216	4289.14716
736.407	4300.5712
736.599	4238.71429
736.79	4426.95615
736.981	4252.3947
737.172	4386.83773
737.363	4475.07705
737.554	4497.65871
737.745	4416.04241
737.936	4446.14672
738.127	4527.55372
738.318	4465.14246
738.509	4585.1005
738.7	4358.30416
738.891	4487.03284
739.082	4338.58682
739.273	4401.43802
739.464	4426.00557
739.655	4294.35762
739.846	4290.20302
740.037	4407.21236
740.228	4138.64667
740.419	4049.56322
740.609	4149.13754
740.8	4190.20612
740.991	4071.22064
741.182	4019.88272
741.373	3952.8302
741.563	3941.56302
741.754	3798.24274
741.945	3821.8963
742.136	3828.92806
742.326	3803.53725
742.517	3787.5285
742.708	3681.67685
742.898	3776.28781
743.089	3968.32081
743.28	3724.26426
743.47	3911.97747
743.661	3861.62194
743.851	4070.42906
744.042	4146.5434
744.233	4116.02631
744.423	4047.4877
744.614	4144.77356
744.804	4115.76135
744.995	4199.97693
745.185	4312.26936
745.376	4459.68771
745.566	4487.42071
745.756	4840.93389
745.947	4591.09255
746.137	4883.81085
746.328	5117.36932
746.518	5116.76083
746.708	5035.6861
746.899	5297.59258
747.089	5329.40255
747.279	5636.85476
747.47	5725.37514
747.66	5800.50942
747.85	5943.56917
748.04	6012.7509
748.231	6233.77799
748.421	6393.33718
748.611	6441.54812
748.801	6487.78297
748.991	6657.67292
749.182	6678.8277
749.372	6812.14067
749.562	6620.59377
749.752	6687.38569
749.942	6600.11521
750.132	6735.5406
750.322	6652.26487
750.512	6672.16155
750.702	6708.1761
750.892	6573.41315
751.082	6468.24706
751.272	6314.37609
751.462	6322.51272
751.652	6249.43344
751.842	6162.2623
752.032	5941.26177
752.222	5999.21479
752.412	5871.5711
752.602	5712.74978
752.792	5545.19634
752.981	5538.91273
753.171	5323.6121
753.361	5326.50282
753.551	5193.71701
753.741	5241.69892
753.93	5056.3461
754.12	4853.41705
754.31	4908.36751
754.5	4891.61009
754.689	4826.36515
754.879	4648.84416
755.069	4564.72732
755.258	4739.17341
755.448	4633.84907
755.638	4490.28423
755.827	4562.98794
756.017	4602.16818
756.206	4359.44528
756.396	4527.89407
756.586	4379.87509
756.775	4578.87399
756.965	4579.62694
757.154	4516.52969
757.344	4769.78555
757.533	4634.42987
757.723	4815.51545
757.912	4850.61659
758.101	5041.08418
758.291	5241.71594
758.48	5261.55969
758.67	5654.28655
758.859	5788.95661
759.048	5791.46004
759.238	5850.11158
759.427	6141.03115
759.616	6080.63034
759.806	6254.01227
759.995	6330.34394
760.184	6422.92952
760.373	6498.99523
760.563	6620.94841
760.752	6557.57736
760.941	6520.00469
761.13	6688.79005
761.319	6698.76776
761.509	6650.25013
761.698	6629.13237
761.887	6733.52266
762.076	6864.83485
762.265	6516.49238
762.454	6708.23463
762.643	6447.69084
762.832	6565.03192
763.021	6488.90031
763.21	6210.6038
763.399	6239.6435
763.588	6099.9093
763.777	6107.07739
763.966	5793.60232
764.155	5821.70169
764.344	5607.68767
764.533	5688.69706
764.722	5464.31423
764.911	5260.45879
765.1	5119.19873
765.288	4898.55647
765.477	4857.24399
765.666	4794.18201
765.855	4618.06224
766.044	4625.27784
766.232	4326.89586
766.421	4362.69459
766.61	4118.90271
766.799	3931.99444
766.987	3880.51262
767.176	3838.90289
767.365	3774.04418
767.553	3708.79091
767.742	3591.08718
767.931	3565.05929
768.119	3700.67629
768.308	3680.5198
768.497	3589.1795
768.685	3597.41937
768.874	3677.70205
769.062	3777.80913
769.251	3703.22412
769.439	3780.44988
769.628	3825.16823
769.816	3785.42701
770.005	3897.3657
770.193	4004.11521
770.382	4076.231
770.57	4217.24414
770.758	4163.40168
770.947	4370.67314
771.135	4449.16993
771.323	4466.41615
771.512	4679.27761
771.7	4802.70446
771.888	4868.43489
772.077	4785.10913
772.265	5135.12061
772.453	5264.60086
772.642	5254.82794
772.83	5382.83119
773.018	5426.91601
773.206	5233.10863
773.394	5550.42077
773.583	5506.49597
773.771	5613.96998
773.959	5667.08723
774.147	5580.15998
774.335	5630.49572
774.523	5692.29256
774.711	5821.86471
774.899	5898.37299
775.087	5816.1164
775.275	5859.59227
775.463	5816.43188
775.651	5723.43213
775.839	5573.04461
776.027	5742.86086
776.215	5615.69662
776.403	5745.16376
776.591	5423.066
776.779	5533.02189
776.967	5331.22651
777.155	5350.42454
777.343	5087.06317
777.531	5083.76809
777.718	5016.68505
777.906	4980.50655
778.094	4775.81758
778.282	4789.20291
778.47	4538.3657
778.657	4648.75258
778.845	4170.63673
779.033	4133.34792
779.22	4079.96703
779.408	3999.05332
779.596	3861.73589
779.783	3682.21477
779.971	3676.48802
780.159	3630.50701
780.346	3374.22878
780.534	3335.17672
780.722	3279.93107
780.909	3170.68644
781.097	3027.47495
781.284	2888.43872
781.472	2848.24154
781.659	2739.15695
781.847	2784.85636
782.034	2544.25806
782.222	2526.05502
782.409	2465.3175
782.597	2502.34488
782.784	2404.95824
782.971	2310.75044
783.159	2288.32772
783.346	1962.27577
783.533	1944.32357
783.721	1866.34444
783.908	1691.30648
784.095	1782.2985
784.283	1792.78937
784.47	1732.50814
784.657	1627.53542
784.844	1619.86793
785.032	1586.95126
785.219	1722.0834
785.406	1582.91035
785.593	1476.76829
785.78	1489.76852
785.968	1475.0993
786.155	1539.19049
786.342	1297.87128
786.529	1383.35198
786.716	1473.4391
786.903	1394.62888
787.09	1350.31709
787.277	1353.06128
787.464	1333.87914
787.651	1408.57431
787.838	1206.8129
788.025	1324.35782
788.212	1350.84059
788.399	1274.53031
788.586	1102.49214
788.773	1038.55026
788.96	1044.60704
789.147	1002.70408
789.334	1003.86604
789.521	884.07599
789.707	862.97603
789.894	928.72039
790.081	884.70133
790.268	897.48831
790.455	948.19775
790.641	815.79508
790.828	735.78277
791.015	841.23002
791.202	795.97591
791.388	793.42028
791.575	641.56529
791.762	707.35806
791.948	786.08317
792.135	656.63164
792.322	546.802
792.508	773.72286
792.695	678.21678
792.881	618.01244
793.068	600.63403
793.254	702.68085
793.441	676.51811
793.627	607.41211
793.814	494.58761
794	671.46942
794.187	634.57292
794.373	489.23559
794.56	453.5915
794.746	572.23512
794.933	446.88671
795.119	410.26505
795.305	638.83337
795.492	578.00517
795.678	516.52253
795.864	476.7201
796.051	670.31302
796.237	573.73287
796.423	603.84195
796.61	609.25635
796.796	607.52741
796.982	544.95279
797.168	645.69683
797.355	615.29016
797.541	638.15547
797.727	646.8297
797.913	559.79278
798.099	742.06143
798.285	972.19644
798.471	742.47736
798.658	607.448
798.844	708.30337
799.03	684.38855
799.216	819.80978
799.402	736.12482
799.588	754.71998
799.774	811.13025
799.96	770.27177
800.146	777.42366
800.332	843.52065
800.518	734.89779
800.704	716.89734
800.89	744.09699
801.075	865.27647
801.261	854.73041
801.447	807.44043
801.633	786.44172
801.819	782.51308
802.005	824.61292
802.19	819.50222
802.376	807.52175
802.562	794.03674
802.748	776.99345
802.934	897.15245
803.119	790.77769
803.305	736.55735
803.491	726.548
803.676	708.77332
803.862	701.99091
804.048	783.31773
804.233	686.46633
804.419	722.3372
804.605	556.6575
804.79	717.13132
804.976	569.00334
805.161	616.4379
805.347	659.92767
805.532	622.2723
805.718	683.45227
805.903	520.75144
806.089	547.67809
806.274	555.34728
806.46	517.3674
806.645	570.34112
806.831	499.44254
807.016	603.03739
807.201	448.11721
807.387	463.22395
807.572	462.04576
807.757	379.90119
807.943	488.49879
808.128	398.05667
808.313	438.04665
808.499	398.16986
808.684	462.09046
808.869	622.27266
809.054	535.58654
809.24	489.80296
809.425	647.59282
809.61	486.11388
809.795	619.25824
809.98	575.45247
810.165	481.6247
810.35	415.847
810.536	556.09482
810.721	386.28726
810.906	425.59188
811.091	417.49024
811.276	608.80667
811.461	591.04068
811.646	502.81544
811.831	424.26971
812.016	588.32625
812.201	517.86641
812.386	547.9121
812.571	413.43233
812.756	640.64211
812.941	476.49415
813.125	456.82614
813.31	423.63395
813.495	495.01406
813.68	592.59636
813.865	539.80687
814.05	505.75527
814.234	619.31803
814.419	552.8385
814.604	495.01406
814.789	536.20034
814.973	406.87057
815.158	537.38577
815.343	505.51117
815.528	512.63599
815.712	544.65576
815.897	448.07438
816.081	491.29662
816.266	488.45143
816.451	431.94645
816.635	414.11086
816.82	429.74705
817.004	531.76643
817.189	430.24627
817.374	479.44642
817.558	406.47525
817.743	414.96048
817.927	297.62495
818.111	349.28094
818.296	390.01335
818.48	336.89652
818.665	373.67866
818.849	317.85083
819.034	239.03258
819.218	376.83783
819.402	388.90608
819.587	322.7357
819.771	312.44383
819.955	283.4918
820.14	254.65522
820.324	271.00778
820.508	383.64509
820.692	422.42276
820.877	306.36427
821.061	292.07378
821.245	383.05728
821.429	345.33078
821.613	491.04724
821.798	348.2058
821.982	284.41764
822.166	277.23908
822.35	330.06219
822.534	353.0864
822.718	303.93629
822.902	292.24573
823.086	213.09638
823.27	285.70309
823.454	363.66439
823.638	332.10279
823.822	339.10853
824.006	240.99994
824.19	201.32145
824.374	271.58768
824.558	261.9006
824.742	260.13548
824.926	154.44271
825.11	255.84544
825.294	351.35871
825.477	331.57961
825.661	204.44861
825.845	281.81615
826.029	239.73354
826.213	324.69886
826.396	326.15351
826.58	239.89927
826.764	383.05728
826.948	225.08187
827.131	283.35271
827.315	310.17921
827.499	274.92664
827.682	239.75716
827.866	319.38709
828.05	261.84874
828.233	308.87686
828.417	266.21772
828.6	192.40938
828.784	389.1367
828.967	268.57537
829.151	299.5744
829.335	279.26576
829.518	253.05877
829.701	269.10343
829.885	169.59939
830.068	316.00075
830.252	259.0127
830.435	213.59969
830.619	224.70756
830.802	307.38999
830.985	352.88427
831.169	187.14455
831.352	251.45313
831.535	265.18291
831.719	207.39986
831.902	239.99434
832.085	311.26587
832.269	160.44161
832.452	294.33972
832.635	258.96137
832.818	194.43111
833.002	285.2837
833.185	156.16845
833.368	191.49783
833.551	375.30918
833.734	282.23195
833.917	249.05989
834.1	217.90803
834.284	290.08374
834.467	253.10887
834.65	162.19709
834.833	254.97134
835.016	166.48694
835.199	122.74026
835.382	282.76504
835.565	169.78411
835.748	209.47586
835.931	175.58659
836.114	105.30953
836.297	207.78864
836.479	222.38907
836.662	188.36134
836.845	206.2283
837.028	210.83046
837.211	222.47731
837.394	247.13417
837.577	134.72283
837.759	278.30697
837.942	289.33733
838.125	269.50444
838.308	213.70564
838.49	163.83192
838.673	221.41352
838.856	221.085
839.039	302.69103
839.221	166.73281
839.404	288.48188
839.587	271.50806
839.769	219.80161
839.952	194.29732
840.134	262.10877
840.317	274.98098
840.499	140.15115
840.682	205.84356
840.865	286.7965
841.047	222.54365
841.23	191.42247
841.412	311.6347
841.595	262.4555
841.777	336.26778
841.959	373.59051
842.142	385.47026
842.324	307.33943
842.507	384.20387
842.689	433.47988
842.871	444.63874
843.054	352.13352
843.236	502.57284
843.418	521.2504
843.601	473.66216
843.783	553.95638
843.965	568.10128
844.147	629.76874
844.33	593.24361
844.512	672.99788
844.694	569.81134
844.876	637.92101
845.059	524.19872
845.241	638.03602
845.423	666.11068
845.605	729.71184
845.787	690.12576
845.969	744.30369
846.151	725.82587
846.333	908.77241
846.515	651.17849
846.697	827.08948
846.879	725.1535
847.061	843.99346
847.243	679.13591
847.425	767.76945
847.607	820.83636
847.789	749.71326
847.971	775.78941
848.153	849.4
848.335	688.05027
848.517	839.8572
848.699	849.55858
848.881	773.85107
849.062	828.01501
849.244	841.20989
849.426	788.90076
849.608	863.40106
849.789	832.88609
849.971	829.48801
850.153	776.28138
850.335	893.53345
850.516	860.67586
850.698	874.68724
850.88	859.91672
851.061	732.10024
851.243	703.87487
851.425	652.69362
851.606	797.86709
851.788	753.87145
851.969	736.39935
852.151	807.14371
852.333	700.35977
852.514	648.26522
852.696	533.85591
852.877	626.72582
853.059	844.23063
853.24	628.87387
853.422	703.80959
853.603	637.7397
853.784	770.13096
853.966	693.45304
854.147	663.8018
854.329	696.32843
854.51	686.40178
854.691	627.02036
854.873	557.49365
855.054	656.61475
855.235	567.93939
855.416	620.36138
855.598	641.32757
855.779	596.88446
855.96	711.44675
856.141	679.3963
856.323	547.1226
856.504	560.42429
856.685	471.26435
856.866	602.63804
857.047	580.67293
857.228	584.6567
857.409	575.35397
857.591	472.70781
857.772	495.98333
857.953	467.79866
858.134	544.39428
858.315	450.19241
858.496	422.78651
858.677	535.53069
858.858	433.37985
859.039	622.86659
859.22	448.20296
859.401	445.61271
859.582	504.55401
859.762	548.81714
859.943	447.05841
860.124	480.61421
860.305	495.73094
860.486	371.95731
860.667	499.39455
860.848	495.01406
861.028	471.4445
861.209	494.72945
861.39	535.42821
861.571	650.04348
861.751	549.01424
861.932	548.29122
862.113	613.57584
862.293	575.46308
862.474	596.32256
862.655	646.42779
862.835	684.96626
863.016	607.53406
863.197	731.55828
863.377	686.7814
863.558	831.11107
863.738	842.6412
863.919	1020.12731
864.099	970.23554
864.28	934.16656
864.46	950.33106
864.641	1009.31851
864.821	1050.66659
865.002	1231.5423
865.182	1310.47187
865.363	1323.53564
865.543	1320.71097
865.723	1309.21544
865.904	1412.81448
866.084	1333.05944
866.264	1313.17283
866.445	1326.43918
866.625	1419.69499
866.805	1533.57712
866.986	1542.09801
867.166	1539.56005
867.346	1540.10579
867.526	1662.74341
867.707	1688.72352
867.887	1708.02468
868.067	1719.7739
868.247	1689.21298
868.427	1846.55951
868.607	1786.02997
868.788	1954.04228
868.968	1884.44091
869.148	1860.79044
869.328	1902.75296
869.508	1948.06399
869.688	1859.38789
869.868	1995.99093
870.048	1995.17685
870.228	2108.36674
870.408	2154.20053
870.588	2067.76337
870.768	1893.02528
870.948	2058.36929
871.128	2076.51665
871.307	2137.11265
871.487	2048.10875
871.667	2069.14716
871.847	1826.1776
872.027	1945.19621
872.207	1859.68974
872.387	1899.46459
872.566	1778.36366
872.746	1749.32658
872.926	1704.26983
873.106	1775.92631
873.285	1555.62073
873.465	1610.67499
873.645	1476.01512
873.824	1663.90096
874.004	1595.6734
874.184	1503.12379
874.363	1387.09514
874.543	1372.46327
874.723	1323.78379
874.902	1317.35544
875.082	1305.1652
875.261	1345.07338
875.441	1119.15541
875.62	1217.23613
875.8	1031.33803
875.979	1046.42616
876.159	978.59615
876.338	1066.12724
876.518	1065.09474
876.697	771.85302
876.876	937.75841
877.056	887.25787
877.235	774.42008
877.415	836.75885
877.594	713.59795
877.773	738.52325
877.953	715.99771
878.132	713.46436
878.311	599.81804
878.49	592.31222
878.67	604.76354
878.849	469.0188
879.028	651.48024
879.207	566.82274
879.387	470.06166
879.566	515.44427
879.745	592.96166
879.924	511.31706
880.103	584.76757
880.282	609.48879
880.461	634.02741
880.64	671.05071
880.819	628.28016
880.998	684.11099
881.178	715.00168
881.357	715.0991
881.536	758.09851
881.715	754.0829
881.893	875.2998
882.072	794.11961
882.251	879.04845
882.43	1031.1417
882.609	1070.7819
882.788	1175.47695
882.967	1105.00278
883.146	1156.60866
883.325	1306.22543
883.503	1279.99328
883.682	1296.71785
883.861	1252.74081
884.04	1450.43064
884.219	1363.90743
884.397	1435.27243
884.576	1470.4432
884.755	1337.56729
884.933	1693.2075
885.112	1693.00356
885.291	1693.53215
885.469	1715.01963
885.648	1801.61066
885.827	1868.07772
886.005	1858.91717
886.184	1822.0856
886.363	1999.20058
886.541	1975.52613
886.72	1918.84544
886.898	1852.35605
887.077	2102.65313
887.255	2098.63344
887.434	2274.27216
887.612	2165.23831
887.791	2155.40783
887.969	2176.25154
888.147	2332.95329
888.326	2243.46782
888.504	2311.01683
888.682	2448.16823
888.861	2380.53233
889.039	2372.35932
889.218	2451.34846
889.396	2325.43367
889.574	2425.17558
889.752	2440.70605
889.931	2292.97503
890.109	2338.12759
890.287	2279.1378
890.465	2230.01672
890.643	2179.68896
890.822	2266.47253
891	2113.48363
891.178	2094.65793
891.356	2042.18341
891.534	2008.78505
891.712	2050.32546
891.89	1993.95658
892.068	1841.96122
892.247	1823.02461
892.425	1907.09987
892.603	1728.71386
892.781	1746.17423
892.959	1495.36925
893.137	1645.96241
893.314	1660.25214
893.492	1567.10968
893.67	1483.13491
893.848	1451.90601
894.026	1347.49981
894.204	1285.47219
894.382	1291.04577
894.56	1288.81874
894.738	1147.71175
894.915	1098.7327
895.093	1036.93102
895.271	1003.63755
895.449	917.97948
895.626	917.89312
895.804	832.09275
895.982	866.5445
896.16	774.35687
896.337	781.00887
896.515	758.59089
896.693	716.72139
896.87	501.70659
897.048	690.46045
897.225	571.61971
897.403	365.36177
897.581	453.67299
897.758	474.02951
897.936	473.08927
898.113	354.606
898.291	345.3993
898.468	260.62608
898.646	268.81206
898.823	198.72398
899.001	206.2283
899.178	177.11573
899.356	246.16655
899.533	230.08816
899.71	155.37182
899.888	102.37919
900.065	146.48183
900.242	141.97069
900.42	80.3911
900.597	58.58652
900.774	74.69229
900.952	182.04007
901.129	196.63171
901.306	134.91162
901.483	-14.64443
901.661	-5.85981
901.838	90.81379
902.015	67.45211
902.192	-4.39563
902.369	101.19106
902.546	61.51892
902.723	2.92714
902.901	83.61775
903.078	74.81962
903.255	104.06672
903.432	64.50968
903.609	117.15011
903.786	64.50968
903.963	137.93474
904.14	29.25833
904.317	8.78316
904.494	80.65539
904.671	68.83405
904.848	67.50645
905.024	157.19797
905.201	-7.32861
905.378	187.95051
905.555	-35.07883
905.732	158.50253
905.909	-32.2629
906.086	86.50389
906.262	51.32093
906.439	-23.41362
906.616	32.23704
906.793	-2.92918
906.969	88.02979
907.146	80.53449
907.323	-26.37312
907.5	66.06728
907.676	70.42377
907.853	101.06955
908.03	93.84183
908.206	149.53862
908.383	23.45568
908.559	108.4884
908.736	198.5371
908.912	99.85794
909.089	246.41352
909.266	17.56022
909.442	92.43364
909.619	93.88902
909.795	149.67404
909.972	74.71465
910.148	125.81771
910.324	27.86271
910.501	55.63226
910.677	127.55697
910.854	-2.92947
911.03	115.65407
911.206	96.75985
911.383	16.07977
911.559	83.55059
911.735	149.22599
911.912	127.49309
912.088	123.04447
912.264	115.73476
912.44	102.44003
912.617	209.55961
912.793	95.14408
912.969	131.86638
913.145	111.31474
913.321	52.67025
913.498	161.07406
913.674	106.67486
913.85	150.92534
914.026	168.3748
914.202	125.47234
914.378	240.64321
914.554	48.23222
914.73	61.37291
914.906	194.73945
915.082	137.61739
915.258	190.43686
915.434	231.36313
915.61	269.37029
915.786	87.8013
915.962	13.13363
916.138	243.49215
916.314	202.29797
916.49	133.11631
916.665	147.98731
916.841	218.10241
917.017	143.47353
917.193	178.43361
917.369	236.21127
917.545	57.02139
917.72	178.6106
917.896	202.1362
918.072	127.15201
918.247	172.61734
918.423	186.11178
918.599	250.51876
918.775	243.22372
918.95	176.67976
919.126	192.97394
919.301	235.85618
919.477	49.64385
919.653	194.93395
919.828	5.83447
920.004	74.42769
920.179	178.48657
920.355	-15.93946
920.53	20.43558
920.706	219.88966
920.881	138.99517
921.057	130.44358
921.232	237.4577
921.408	175.6563
921.583	115.55091
921.759	99.45896
921.934	114.19292
922.109	175.83144
922.285	150.89518
922.46	96.70174
922.635	177.70323
922.811	136.21098
922.986	102.7067
923.161	114.36417
923.336	115.93242
923.512	120.00134
923.687	73.19312
923.862	74.74453
924.037	115.8857
924.212	87.73184
924.388	118.75389
924.563	108.54291
924.738	169.88547
924.913	162.94249
925.088	137.90694
925.263	77.75765
925.438	61.59288
925.613	140.59443
925.788	60.03175
925.963	64.50968
926.138	107.11115
926.313	194.91444
926.488	193.90273
926.663	172.99611
926.838	38.02268
927.013	93.73861
927.188	180.46718
927.363	124.66842
927.538	96.85724
927.713	108.6415
927.888	58.62165
928.062	141.92845
928.237	93.64547
928.412	168.71224
928.587	114.45625
928.761	33.68471
928.936	83.57573
929.111	170.26088
929.286	2.92453
929.46	200.99858
929.635	134.87101
929.81	174.68634
929.984	33.68135
930.159	152.44787
930.334	180.66802
930.508	161.44597
930.683	79.12743
930.857	206.92991
931.032	57.11759
931.206	126.14464
931.381	10.25186
931.556	107.00356
931.73	129.04583
931.904	146.64324
932.079	74.56649
932.253	0
932.428	131.8532
932.602	65.91479
932.777	132.1051
932.951	143.64547
933.125	116.91842
933.3	64.27965
933.474	62.91327
933.648	101.22161
933.823	86.40017
933.997	61.51279
934.171	97.93108
934.345	132.03848
934.52	150.81997
934.694	108.39078
934.868	127.56978
935.042	184.87358
935.217	73.04867
935.391	205.38462
935.565	227.53431
935.739	122.92213
935.913	75.98929
936.087	51.11773
936.261	105.27833
936.435	161.01
936.609	108.32605
936.783	114.10233
936.957	177.31003
937.131	146.2493
937.305	144.73321
937.479	243.34547
937.653	156.306
937.827	204.77071
938.001	239.92301
938.175	109.62444
938.349	238.53681
938.523	211.91168
938.697	274.29
938.87	146.1484
939.044	229.85871
939.218	200.3975
939.392	279.10082
939.566	177.34553
939.739	226.64958
939.913	319.38709
940.087	179.96298
940.261	231.20226
940.434	307.17677
940.608	192.65254
940.782	157.59342
940.955	308.47964
941.129	320.20794
941.302	227.54845
941.476	184.32048
941.65	215.01487
941.823	348.83054
941.997	167.79574
942.17	215.07873
942.344	382.82278
942.517	215.7742
942.691	238.39515
942.864	153.28677
943.038	278.08549
943.211	318.97427
943.385	140.17856
943.558	274.41426
943.731	198.02994
943.905	197.44263
944.078	258.75677
944.251	289.30889
944.425	143.1902
944.598	223.60375
944.771	327.90041
944.945	257.37731
945.118	308.84617
945.291	188.49065
945.464	229.38216
945.638	198.5488
945.811	299.72194
945.984	261.13044
946.157	242.28876
946.33	302.51214
946.503	248.4924
946.677	245.8969
946.85	203.27286
947.023	271.98831
947.196	270.39929
947.369	183.77908
947.542	182.60998
947.715	215.8999
947.888	283.43611
948.061	268.97071
948.234	254.11483
948.407	205.90396
948.58	298.17898
948.753	310.05647
948.926	227.83727
949.099	162.19709
949.271	207.76805
949.444	272.12281
949.617	304.72013
949.79	197.63845
949.963	320.42962
950.136	203.09275
950.308	336.56718
950.481	209.2468
950.654	198.68495
950.827	236.91499
950.999	194.66203
951.172	166.58497
951.345	135.84781
951.517	216.30152
951.69	208.18272
951.863	228.19643
952.035	185.52271
952.208	149.25556
952.381	221.06301
952.553	169.98727
952.726	143.41654
952.898	214.28431
953.071	130.1842
953.243	153.66455
953.416	116.03804
953.588	7.29789
953.761	74.79703
953.933	38.07932
954.106	187.79869
954.278	130.43052
954.45	173.06561
954.623	36.62294
954.795	77.82837
954.967	60.10978
955.14	90.9504
955.312	117.42068
955.484	54.2074
955.657	120.26529
955.829	79.19091
956.001	-10.24829
956.173	134.84398
956.346	83.75322
956.518	166.27581
956.69	136.76202
956.862	74.92564
957.034	111.43732
957.207	95.30573
957.379	89.34236
957.551	7.32972
957.723	-19.02593
957.895	169.03728
958.067	107.1544
958.239	164.43957
958.411	4.39016
958.583	104.03548
958.755	30.77865
958.927	126.2337
959.099	57.1119
959.271	43.94645
959.443	136.18384
959.615	209.79113
959.787	29.24965
959.959	130.53524
960.13	135.07495
960.302	77.73417
960.474	60.13998
960.646	26.35472
960.818	162.95897
960.99	76.26173
961.161	123.45442
961.333	10.25698
961.505	158.18479
961.677	29.27575
961.848	73.25879
962.02	126.25922
962.192	211.74626
962.363	43.99488
962.535	64.34931
962.707	108.63052
962.878	0
963.05	115.73476
963.221	164.19129
963.393	144.91955
963.564	87.90623
963.736	106.87546
963.907	122.8856
964.079	80.4546
964.25	84.93787
964.422	118.44701
964.593	136.36096
964.765	142.08377
964.936	137.4403
965.108	142.21175
965.279	99.72702
965.45	45.34259
965.622	-7.32495
965.793	124.28404
965.964	71.83855
966.136	179.00444
966.307	224.31572
966.478	153.74091
966.65	86.42602
966.821	215.14272
966.992	127.60824
967.163	71.70967
967.334	112.87813
967.506	152.72462
967.677	171.56875
967.848	52.69115
968.019	102.62412
968.19	122.95874
968.361	67.45211
968.532	173.10044
968.703	76.18535
968.874	193.5896
969.045	96.74045
969.216	55.65997
969.387	173.17025
969.558	121.63127
969.729	80.58269
969.9	93.8136
970.071	48.37617
970.242	186.37375
970.413	68.74527
970.584	124.40711
970.755	20.47779
970.926	77.57894
971.097	178.82466
971.267	96.68243
971.438	77.81262
971.609	106.96074
971.78	7.31803
971.951	52.78592
972.121	88.02979
972.292	21.97705
972.463	60.09773
972.633	38.14808
972.804	51.33641
972.975	86.591
973.145	54.26719
973.316	16.09726
973.487	155.68535
973.657	51.25425
973.828	4.39937
973.998	45.45111
974.169	136.41578
974.339	42.60688
974.51	60.12789
974.68	74.72211
974.851	79.20683
975.021	114.59536
975.192	120.31373
975.362	14.65907
975.533	71.95451
975.703	35.11
975.874	59.97816
976.044	20.5392
976.214	29.34911
976.385	10.25391
976.555	19.08222
976.725	11.74439
976.896	24.90857
977.066	123.47957
977.236	74.86492
977.406	114.42166
977.577	-23.45098
977.747	-119.8473
977.917	-10.26366
978.087	96.71141
978.257	85.1341
978.427	2.93152
978.598	16.12295
978.768	121.90107
978.938	30.78173
979.108	-74.68113
979.278	19.06875
979.448	108.45579
979.618	105.63588
979.788	146.76142
979.958	79.11952
980.128	49.92126
980.298	121.98781
980.468	102.74817
980.638	63.03881
980.808	189.58726
980.978	85.1427
981.148	2.92918
981.317	35.18001
981.487	80.81039
981.657	88.08313
981.827	16.14242
981.997	104.3615
982.167	14.68717
982.336	107.17607
982.506	73.32489
982.676	2.92859
982.846	8.79016
983.015	58.73388
983.185	108.63052
983.355	-24.84322
983.524	102.61383
983.694	83.71072
983.864	70.42377
984.033	19.08994
984.203	5.86392
984.372	61.68621
984.542	11.72314
984.712	-1.46484
984.881	-41.02692
985.051	167.08148
985.22	-20.51243
985.39	61.67371
985.559	21.94864
985.728	104.06672
985.898	149.40406
986.067	39.57851
986.237	125.96785
986.406	10.26521
986.576	-42.47626
986.745	1.46521
986.914	74.7595
987.084	54.21282
987.253	35.15539
987.422	76.36184
987.591	124.7564
987.761	96.78899
987.93	77.78117
988.099	74.80456
988.268	58.60992
988.438	-61.34881
988.607	80.65539
988.776	158.48654
988.945	112.92346
989.114	104.13986
989.283	82.16939
989.452	29.30787
989.621	153.95619
989.791	112.84422
989.96	167.69147
990.129	67.43857
990.298	105.6146
990.467	58.67462
990.636	91.0515
990.805	46.93024
990.974	146.6138
991.142	82.1363
991.311	107.05726
991.48	98.14487
991.649	77.71855
991.818	-65.93124
991.987	144.14071
992.156	70.4025
992.325	11.71729
992.493	142.28321
992.662	163.24008
992.831	23.44629
993	82.07862
993.168	45.46481
993.337	171.81121
993.506	27.88517
993.675	22.0013
993.843	70.3179
994.012	108.6635
994.181	-5.85631
994.349	46.94913
994.518	102.86281
994.686	124.89553
994.855	60.09773
995.024	220.33367
995.192	-10.25135
995.361	89.42279
995.529	141.01929
995.698	-8.80518
995.866	102.73779
996.035	55.73808
996.203	-23.42758
996.371	115.83911
996.54	-10.2534
996.708	29.24388
996.877	39.59837
997.045	82.17768
997.213	105.8287
997.382	64.5486
997.55	126.17004
997.718	68.78614
997.887	-33.67967
998.055	-33.68303
998.223	63.08953
998.391	39.60236
998.56	123.35415
998.728	0
998.896	11.75033
999.064	14.67381
999.232	46.9444
999.401	48.26553
999.569	30.8189
999.737	2.93684
999.905	80.6716
1000.073	74.89524
1000.241	-32.22417
1000.409	96.94549
1000.577	21.96609
1000.745	21.97486
1000.913	-1.46484
1001.081	26.40754
1001.249	-38.08311
1001.417	-51.19072
1001.585	-29.33433
1001.753	-64.47738
1001.921	71.90362
1002.089	126.24646
1002.256	58.66872
1002.424	-71.78465
1002.592	92.61182
1002.76	-14.67529
1002.928	45.59873
1003.096	170.90566
1003.263	85.09117
1003.431	-35.15189
1003.599	105.78564
1003.767	8.79809
1003.934	73.42112
1004.102	38.1712
1004.27	64.46449
1004.437	154.12685
1004.605	49.95164
1004.773	123.26688
1004.94	-86.43033
1005.108	114.73567
1005.275	135.26727
1005.443	-42.53587
1005.61	45.40567
1005.778	17.59176
1005.945	130.69343
1006.113	77.82837
1006.28	0
1006.448	217.4289
1006.615	105.71057
1006.783	95.3921
1006.95	124.7564
1007.118	65.97416
1007.285	291.31906
1007.452	140.53847
1007.62	133.51568
1007.787	46.82263
1007.954	184.92954
1008.122	160.89834
1008.289	89.40487
1008.456	46.90669
1008.623	161.23501
1008.791	54.14807
1008.958	134.77658
1009.125	262.2133
1009.292	252.07834
1009.459	131.63069
1009.627	201.9954
1009.794	146.06232
1009.961	197.13221
1010.128	159.18865
1010.295	219.21383
1010.462	277.53728
1010.629	220.45363
1010.796	378.81092
1010.963	359.62687
1011.13	294.95139
1011.297	273.06794
1011.464	312.32182
1011.631	316.64645
1011.798	334.2233
1011.965	386.73222
1012.132	338.54435
1012.299	214.09387
1012.466	416.20743
1012.633	415.7609
1012.799	474.58447
1012.966	461.99579
1013.133	436.93386
1013.3	364.61788
1013.467	386.31912
1013.633	507.03873
1013.8	506.64128
1013.967	402.56166
1014.134	406.82921
1014.3	450.55817
1014.467	349.57525
1014.634	359.85009
1014.8	466.38524
1014.967	466.20514
1015.134	489.06983
1015.3	405.10615
1015.467	393.14406
1015.633	485.98348
1015.8	409.48818
1015.966	441.5466
1016.133	402.40546
1016.3	398.17585
1016.466	331.44975
1016.632	375.09273
1016.799	388.52391
1016.965	389.40491
1017.132	243.52911
1017.298	391.69542
1017.465	226.56022
1017.631	259.57696
1017.797	248.39466
1017.964	336.16841
1018.13	220.36757
1018.296	192.46529
1018.463	207.82987
1018.629	77.35775
1018.795	263.40949
1018.961	208.01614
1019.128	168.64436
1019.294	67.33765
1019.46	68.77932
1019.626	120.16883
1019.792	29.32549
1019.959	-13.17572
1020.125	19.05345
1020.291	73.20768
1020.457	85.19446
1020.623	17.58296
1020.789	20.54749
1020.955	32.28565
1021.121	83.65992
1021.287	-41.00645
1021.453	36.68917
1021.619	-65.96424
1021.785	35.22605
1021.951	77.78902
1022.117	133.86878
1022.283	-67.33096
1022.449	-55.63226
1022.615	48.42484
1022.781	-71.6919
1022.946	-92.17084
1023.112	47.00614
1023.278	90.92296
1023.444	126.28479
1023.61	92.43364
1023.775	110.36511
1023.941	52.81246
1024.107	54.42152
1024.273	44.08841
1024.438	7.34154
1024.604	14.67381
1024.77	-218.4265
1024.935	57.18619
1025.101	54.28905
1025.267	-30.78945
1025.432	83.66837
1025.598	97.06404
1025.763	-101.02425
1025.929	38.1404
1026.095	-19.06971
1026.26	-30.80803
1026.426	33.76597
1026.591	-5.86805
1026.757	-35.16944
1026.922	102.71706
1027.087	-10.26366
1027.253	-48.44195
1027.418	39.67049
1027.584	-57.08634
1027.749	33.76597
1027.914	88.02979
1028.08	22.02574
1028.245	77.79688
1028.41	2.93447
1028.576	110.04018
1028.741	-14.66938
1028.906	111.59472
1029.072	-7.33082
1029.237	-70.38128
1029.402	-20.54749
1029.567	73.15681
1029.732	88.13669
1029.898	1.46757
1030.063	0
1030.228	44.07497
1030.393	-52.78062
1030.558	41.05982
1030.723	114.642
1030.888	58.67462
1031.053	58.71013
1031.218	-2.93684
1031.383	96.89639
1031.548	-57.20056
1031.713	117.52776
1031.878	69.07719
1032.043	-7.32568
1032.208	-16.12699
1032.373	8.80784
1032.538	-99.49835
1032.703	39.61831
1032.868	-42.49748
1033.033	7.34377
1033.198	29.37584
1033.362	82.16111
1033.527	94.00296
1033.692	-149.44882
1033.857	-82.0376
1034.021	51.36746
1034.186	67.48603
1034.351	70.42377
1034.516	29.31961
1034.68	5.86333
1034.845	94.08906
1035.01	57.16899
1035.174	60.21291
1035.339	111.54959
1035.504	35.26176
1035.668	-109.72732
1035.833	85.22909
1035.997	52.80184
1036.162	20.54541
1036.326	66.1816
1036.491	-35.22249
1036.655	-55.63779
1036.82	-8.78841
1036.984	-24.87759
1037.149	-38.14424
1037.313	14.66643
1037.478	36.68177
1037.642	-29.32549
1037.807	104.38278
1037.971	51.35709
1038.135	-51.2415
1038.3	74.88007
1038.464	88.05643
1038.628	20.52887
1038.792	-23.41827
1038.957	22.01906
1039.121	79.14327
1039.285	117.4563
1039.449	41.08462
1039.614	95.51785
1039.778	10.27245
1039.942	-35.09959
1040.106	113.27918
1040.27	-10.26882
1040.434	-19.0316
1040.599	67.5611
1040.763	45.51528
1040.927	86.51257
1041.091	44.00373
1041.255	90.91382
1041.419	52.82311
1041.583	29.29032
1041.747	1.46653
1041.911	20.51858
1042.075	-10.26779
1042.239	127.85379
1042.403	54.21824
1042.567	-52.73838
1042.731	64.43877
1042.894	13.19879
1043.058	13.20943
1043.222	149.81033
1043.386	93.87957
1043.55	67.40481
1043.714	46.96808
1043.877	-10.27193
1044.041	64.5486
1044.205	-14.68271
1044.369	70.45931
1044.532	17.62193
1044.696	89.56704
1044.86	23.47692
1045.023	2.92685
1045.187	-24.92729
1045.351	-83.49631
1045.514	49.90107
1045.678	33.71502
1045.841	4.40159
