Data from Sun spf650_Subt2__2__10-03-15-990.txt Node

Date: Tue Sep 23 10:03:15 EDT 2025
User: brett
Spectrometer: USB4F03499
Trigger mode: 4
Integration Time (sec): 1.000000E-1
Scans to average: 1
Electric dark correction enabled: true
Nonlinearity correction enabled: true
Boxcar width: 0
XAxis mode: Wavelengths
Number of Pixels in Spectrum: 3648
>>>>>Begin Spectral Data<<<<<
0	-60.2569
0.225	-60.2569
0.449	-60.2569
0.674	-97.08428
0.898	-108.66804
1.123	-18.5068
1.347	70.72048
1.572	38.77478
1.796	34.25826
2.021	38.77173
2.245	-9.33861
2.469	22.73093
2.694	-89.5341
2.918	-36.90983
3.143	-76.01708
3.367	-18.52566
3.591	43.36924
3.815	-48.371
4.04	1520.81729
4.264	2168.11519
4.488	2258.24437
4.712	2130.25746
4.936	2046.03013
5.161	2122.75521
5.385	2126.79991
5.609	2037.15353
5.833	2143.71341
6.057	2078.68797
6.281	2134.50389
6.505	2218.51312
6.729	2078.77106
6.953	2267.02834
7.177	2090.00657
7.401	2183.84026
7.625	2219.23129
7.849	2075.08591
8.073	2242.50018
8.297	2179.25733
8.521	2065.19399
8.744	2117.61665
8.968	2222.76432
9.192	2229.09477
9.416	2271.48323
9.64	2175.9265
9.863	2371.7514
10.087	2214.20149
10.311	2235.47603
10.535	2265.17953
10.758	2142.5247
10.982	2251.16965
11.205	2301.14846
11.429	2306.82273
11.653	2245.88998
11.876	2184.90093
12.1	2360.27734
12.323	2308.82396
12.547	2370.29128
12.77	2421.14864
12.994	2201.32437
13.217	2417.81598
13.441	2269.65548
13.664	2376.04888
13.887	2278.54933
14.111	2338.91704
14.334	2293.79714
14.557	2235.1275
14.781	2472.28021
15.004	2327.05328
15.227	2347.64988
15.451	2464.36215
15.674	2290.40944
15.897	2227.37153
16.12	2422.48073
16.343	2390.74086
16.567	2502.50277
16.79	2514.13132
17.013	2418.65548
17.236	2530.49663
17.459	2539.82368
17.682	2351.94945
17.905	2625.30721
18.128	2635.64361
18.351	2681.26817
18.574	2494.93044
18.797	2710.91405
19.02	2612.49406
19.243	2779.12997
19.466	2695.79519
19.689	2794.52951
19.911	2912.89864
20.134	2873.16696
20.357	2856.85918
20.58	2855.72555
20.803	3096.31429
21.025	3128.74508
21.248	3030.97572
21.471	3170.14056
21.694	3216.97118
21.916	3094.52804
22.139	3445.24579
22.362	3306.22163
22.584	3391.10427
22.807	3576.9609
23.029	3432.33064
23.252	3679.15017
23.475	3987.2177
23.697	3811.91075
23.92	4095.51155
24.142	3863.90407
24.365	4077.60703
24.587	4187.957
24.809	4353.81641
25.032	4350.56831
25.254	4372.80104
25.477	4801.02368
25.699	4810.6933
25.921	4962.48553
26.144	5114.65799
26.366	5250.08187
26.588	5334.65385
26.81	5630.07322
27.033	5759.52447
27.255	5821.13921
27.477	6286.81481
27.699	6487.4921
27.921	6723.03263
28.144	6906.35405
28.366	7222.8647
28.588	7435.01335
28.81	7675.6533
29.032	8206.27108
29.254	8600.50625
29.476	8897.62519
29.698	9052.46534
29.92	9549.8891
30.142	10083.4477
30.364	10407.8364
30.586	10800.50659
30.808	11047.30497
31.029	11822.66071
31.251	12086.39771
31.473	12724.78918
31.695	13284.7311
31.917	13376.43789
32.139	13852.28692
32.36	14673.79322
32.582	15174.3305
32.804	15260.16807
33.026	16076.55889
33.247	16328.62314
33.469	16886.17742
33.691	17410.75346
33.912	18336.02096
34.134	18161.94603
34.355	18713.61806
34.577	19368.75805
34.798	20028.24866
35.02	20375.28302
35.242	20511.75519
35.463	21526.53424
35.684	21946.05348
35.906	22084.28734
36.127	22931.63632
36.349	22854.29498
36.57	24262.43329
36.792	25222.90241
37.013	25237.16016
37.234	25084.38541
37.456	26260.87435
37.677	26763.19182
37.898	27111.15148
38.119	27060.25963
38.341	28182.27306
38.562	28561.28449
38.783	29108.79883
39.004	28794.60066
39.225	29020.74659
39.447	30131.27243
39.668	31215.66942
39.889	31073.33906
40.11	31921.61004
40.331	32379.36464
40.552	32877.40497
40.773	33243.64886
40.994	34114.09525
41.215	34172.67612
41.436	35304.26297
41.657	35581.44254
41.878	36349.49872
42.099	37836.15049
42.32	38548.82226
42.54	39529.56365
42.761	41011.90419
42.982	41678.17873
43.203	43207.35958
43.424	44779.66354
43.645	44738.45846
43.865	46446.85928
44.086	46965.09449
44.307	48834.59984
44.527	50307.78605
44.748	51639.54201
44.969	52445.34227
45.189	51866.50489
45.41	52791.63167
45.631	55861.11996
45.851	54766.11127
46.072	55877.32865
46.292	56629.00702
46.513	57425.39659
46.733	60093.23005
46.954	60869.5077
47.174	62978.24502
47.395	62438.539
47.615	65518.36971
47.836	65511.50471
48.056	65619.24216
48.276	65575.6407
48.497	65509.21673
48.717	65513.79286
48.937	65472.63323
49.158	65593.99122
49.378	65591.69677
49.598	65566.46979
49.818	65495.4926
50.038	65500.0666
50.259	65607.76173
50.479	65644.51522
50.699	65573.3477
50.919	65568.76225
51.139	65550.42764
51.359	65577.93388
51.579	65596.28585
51.799	65593.99122
52.02	65580.22725
52.24	65543.55512
52.46	65584.81451
52.68	65600.87565
52.899	65545.84578
53.119	65571.05489
53.339	65612.35335
53.559	65561.88542
53.779	65481.77486
53.999	65502.35387
54.219	65438.3772
54.439	65623.83561
54.658	65658.30989
54.878	65559.5935
55.098	65598.58066
55.318	65536.68423
55.538	65509.21673
55.757	65559.5935
55.977	65571.05489
56.197	65500.0666
56.416	65573.3477
56.636	65571.05489
56.855	65593.99122
57.075	65509.21673
57.295	65605.46619
57.514	65646.81387
57.734	65543.55512
57.953	65559.5935
58.173	65550.42764
58.392	65587.10841
58.612	65596.28585
58.831	65600.87565
59.051	65538.97435
59.27	65472.63323
59.489	65555.01021
59.709	65568.76225
59.928	65589.4025
60.147	65573.3477
60.367	65598.58066
60.586	65520.6584
60.805	65580.22725
61.024	65561.88542
61.244	65642.21675
61.463	65575.6407
61.682	65552.71883
61.901	65541.26464
62.12	65598.58066
62.34	65561.88542
62.559	65566.46979
62.778	65442.94239
62.997	65587.10841
63.216	65630.72716
63.435	65623.83561
63.654	65472.63323
63.873	65584.81451
64.092	65571.05489
64.311	65511.50471
64.53	65550.42764
64.749	65568.76225
64.968	65557.30176
65.187	65653.71093
65.405	65571.05489
65.624	65566.46979
65.843	65545.84578
66.062	65555.01021
66.281	65518.36971
66.499	65642.21675
66.718	65623.83561
66.937	65541.26464
67.156	65557.30176
67.374	65596.28585
67.593	65458.92608
67.812	65566.46979
68.03	65577.93388
68.249	65626.13261
68.467	65596.28585
68.686	65529.81494
68.905	57464.27738
69.123	31032.26909
69.342	22636.79421
69.56	20644.96967
69.779	19383.64304
69.997	18559.05754
70.216	17478.62281
70.434	15940.34239
70.652	15125.72461
70.871	14349.06946
71.089	13302.72035
71.307	12531.3895
71.526	11558.98744
71.744	11227.52758
71.962	10547.88427
72.181	10016.62912
72.399	9630.92047
72.617	8865.51568
72.835	8423.60991
73.054	8096.39517
73.272	7689.11224
73.49	7427.16867
73.708	7411.08265
73.926	7221.40969
74.144	6987.43994
74.362	6660.69816
74.58	6579.11795
74.798	6544.25846
75.016	6355.0905
75.234	6307.70282
75.452	6221.29197
75.67	6429.20106
75.888	6280.43442
76.106	6404.0235
76.324	6369.94405
76.542	6319.48656
76.76	6090.18543
76.978	6313.81568
77.196	6152.1462
77.413	6150.20095
77.631	6265.9823
77.849	6310.52612
78.067	6141.54062
78.284	6029.02928
78.502	6241.42496
78.72	6114.90718
78.938	6594.03405
79.155	6294.46885
79.373	6264.88198
79.59	6196.5408
79.808	6469.69599
80.026	6342.11932
80.243	6346.43692
80.461	6116.18478
80.678	6399.771
80.896	6389.99817
81.113	6507.3393
81.331	6331.65564
81.548	6425.2578
81.766	6692.70086
81.983	6815.19651
82.2	6784.34239
82.418	6806.94302
82.635	6846.37948
82.852	6898.64416
83.07	6902.86592
83.287	6977.28969
83.504	7239.15728
83.722	6977.28771
83.939	7186.24504
84.156	7104.33626
84.373	7320.66421
84.591	7293.54868
84.808	7296.01148
85.025	7427.30215
85.242	7466.2048
85.459	7505.95739
85.676	7730.00159
85.893	7579.92714
86.11	7681.30841
86.327	8021.41007
86.544	7885.25088
86.761	7866.51686
86.978	7728.972
87.195	8129.35322
87.412	8184.99712
87.629	8210.68194
87.846	8654.35822
88.063	8359.67068
88.28	8269.866
88.497	8604.16946
88.713	8660.23904
88.93	8871.17033
89.147	8721.14823
89.364	9107.38323
89.58	9292.14748
89.797	9194.08952
90.014	9266.21368
90.231	9368.77019
90.447	9253.13032
90.664	9188.04061
90.881	9076.21164
91.097	9111.09837
91.314	9168.36913
91.53	9518.39742
91.747	9430.14172
91.963	9744.28275
92.18	10078.92436
92.396	10278.36015
92.613	9861.68423
92.829	10095.3751
93.046	10715.83588
93.262	10317.88349
93.479	10228.15235
93.695	10130.27063
93.911	10557.45146
94.128	10835.5555
94.344	10768.5426
94.56	11141.80473
94.777	11127.56034
94.993	11135.15101
95.209	11807.36039
95.426	11590.02479
95.642	11899.46529
95.858	12076.04257
96.074	12549.76225
96.29	12654.64175
96.506	12974.65475
96.723	13597.85447
96.939	13822.3603
97.155	13633.27207
97.371	13562.62387
97.587	13584.6397
97.803	14509.63913
98.019	15341.27021
98.235	15514.54084
98.451	15917.5576
98.667	15479.60996
98.883	15671.65239
99.099	16922.5163
99.315	17529.2629
99.53	17828.5147
99.746	17897.11768
99.962	17749.03769
100.178	19436.49282
100.394	20804.25375
100.61	22066.59353
100.825	22285.52744
101.041	23474.62598
101.257	24103.86047
101.473	26094.27384
101.688	27168.23681
101.904	28457.01575
102.12	30677.9196
102.335	33684.95361
102.551	34597.87461
102.766	39784.68492
102.982	42705.64867
103.198	46875.72307
103.413	49899.52643
103.629	53974.37624
103.844	59961.93197
104.06	63270.24999
104.275	65527.52554
104.49	65545.84578
104.706	65619.24216
104.921	64983.01503
105.137	65566.46979
105.352	65500.0666
105.567	65580.22725
105.783	65557.30176
105.998	65550.42764
106.213	65532.10452
106.429	65616.94571
106.644	65600.87565
106.859	65559.5935
107.074	65433.81271
107.29	65619.24216
107.505	65584.81451
107.72	65513.79286
107.935	65518.36971
108.15	65550.42764
108.365	65630.72716
108.58	65527.52554
108.795	65520.6584
109.01	65527.52554
109.226	65651.41172
109.441	65413.28114
109.656	65630.72716
109.871	65463.49442
110.085	65532.10452
110.3	65561.88542
110.515	65639.91846
110.73	65477.20369
110.945	65589.4025
111.16	65532.10452
111.375	65536.68423
111.59	65584.81451
111.804	65555.01021
112.019	65557.30176
112.234	65593.99122
112.449	65532.10452
112.663	65571.05489
112.878	65593.99122
113.093	65573.3477
113.308	65486.34673
113.522	65571.05489
113.737	65692.82567
113.951	65541.26464
114.166	65573.3477
114.381	65561.88542
114.595	65584.81451
114.81	65555.01021
115.024	65568.76225
115.239	65541.26464
115.453	65603.17083
115.668	65587.10841
115.882	65534.39429
116.097	65587.10841
116.311	65669.81052
116.525	65561.88542
116.74	65676.71312
116.954	65525.23631
117.169	65573.3477
117.383	65555.01021
117.597	65511.50471
117.811	65571.05489
118.026	65486.34673
118.24	65522.94726
118.454	65575.6407
118.668	65577.93388
118.883	65577.93388
119.097	65559.5935
119.311	65559.5935
119.525	65561.88542
119.739	65566.46979
119.953	65587.10841
120.167	65445.22525
120.381	65596.28585
120.595	65561.88542
120.809	65603.17083
121.023	65548.13662
121.237	65587.10841
121.451	65596.28585
121.665	65591.69677
121.879	65559.5935
122.093	65495.4926
122.307	65667.51002
122.521	65607.76173
122.735	65495.4926
122.949	65591.69677
123.163	65646.81387
123.376	65529.81494
123.59	65509.21673
123.804	65566.46979
124.018	65603.17083
124.231	65614.64944
124.445	65637.62036
124.659	65493.20587
124.872	65474.91837
125.086	65571.05489
125.3	65566.46979
125.513	65548.13662
125.727	65603.17083
125.94	65550.42764
126.154	65571.05489
126.368	65619.24216
126.581	65593.99122
126.795	65603.17083
127.008	65598.58066
127.222	65630.72716
127.435	65619.24216
127.648	65616.94571
127.862	65545.84578
128.075	65610.05745
128.289	65527.52554
128.502	65621.5388
128.715	65557.30176
128.929	65672.1112
129.142	65598.58066
129.355	65568.76225
129.568	65506.92893
129.782	65545.84578
129.995	65490.91931
130.208	65591.69677
130.421	65612.35335
130.634	65605.46619
130.848	65527.52554
131.061	65490.91931
131.274	65532.10452
131.487	65630.72716
131.7	65603.17083
131.913	65529.81494
132.126	65575.6407
132.339	65479.48918
132.552	65390.4848
132.765	65497.77951
132.978	65575.6407
133.191	65598.58066
133.404	65534.39429
133.617	65593.99122
133.83	65545.84578
134.043	65623.83561
134.255	65649.1127
134.468	65548.13662
134.681	65644.51522
134.894	65685.91917
135.107	65614.64944
135.319	65536.68423
135.532	65564.17751
135.745	65529.81494
135.958	65582.52079
136.17	65656.01031
136.383	65559.5935
136.596	65607.76173
136.808	65580.22725
137.021	65518.36971
137.233	65610.05745
137.446	65552.71883
137.659	65591.69677
137.871	65442.94239
138.084	65582.52079
138.296	65543.55512
138.509	65577.93388
138.721	65612.35335
138.934	65559.5935
139.146	65545.84578
139.358	65605.46619
139.571	65484.0607
139.783	65488.63293
139.996	65564.17751
140.208	65509.21673
140.42	65516.0812
140.632	65543.55512
140.845	65596.28585
141.057	65656.01031
141.269	65603.17083
141.481	65577.93388
141.694	65623.83561
141.906	65557.30176
142.118	65674.41207
142.33	65550.42764
142.542	65630.72716
142.754	65538.97435
142.967	65662.90959
143.179	65616.94571
143.391	65504.64131
143.603	65596.28585
143.815	65493.20587
144.027	65573.3477
144.239	65465.77886
144.451	65564.17751
144.663	65575.6407
144.875	65500.0666
145.086	65468.06347
145.298	65520.6584
145.51	65598.58066
145.722	65502.35387
145.934	65591.69677
146.146	65596.28585
146.358	65580.22725
146.569	65630.72716
146.781	65545.84578
146.993	65628.4298
147.205	65481.77486
147.416	65582.52079
147.628	65573.3477
147.84	65532.10452
148.051	65580.22725
148.263	65545.84578
148.475	65619.24216
148.686	65584.81451
148.898	65509.21673
149.109	65493.20587
149.321	65621.5388
149.532	65500.0666
149.744	65557.30176
149.955	65534.39429
150.167	65589.4025
150.378	65575.6407
150.59	65605.46619
150.801	65644.51522
151.013	65630.72716
151.224	65493.20587
151.435	65580.22725
151.647	65493.20587
151.858	65548.13662
152.069	65580.22725
152.281	65582.52079
152.492	65552.71883
152.703	65587.10841
152.914	65452.07487
153.126	65548.13662
153.337	65552.71883
153.548	65649.1127
153.759	65543.55512
153.97	65628.4298
154.181	65612.35335
154.392	65522.94726
154.604	65639.91846
154.815	65603.17083
155.026	65536.68423
155.237	65580.22725
155.448	65472.63323
155.659	65555.01021
155.87	65561.88542
156.081	65541.26464
156.292	65610.05745
156.502	65642.21675
156.713	65538.97435
156.924	65516.0812
157.135	65559.5935
157.346	65575.6407
157.557	65538.97435
157.768	65605.46619
157.978	65646.81387
158.189	65550.42764
158.4	65612.35335
158.611	65550.42764
158.821	65500.0666
159.032	65589.4025
159.243	65520.6584
159.453	65568.76225
159.664	65568.76225
159.875	65529.81494
160.085	65605.46619
160.296	65529.81494
160.507	65589.4025
160.717	65614.64944
160.928	65527.52554
161.138	65731.99417
161.349	65587.10841
161.559	65653.71093
161.77	65584.81451
161.98	65607.76173
162.19	65534.39429
162.401	65589.4025
162.611	65522.94726
162.822	65596.28585
163.032	65589.4025
163.242	65603.17083
163.453	65522.94726
163.663	65626.13261
163.873	65550.42764
164.084	65612.35335
164.294	65623.83561
164.504	65573.3477
164.714	65555.01021
164.924	65557.30176
165.135	65607.76173
165.345	65527.52554
165.555	65566.46979
165.765	65513.79286
165.975	65522.94726
166.185	65571.05489
166.395	65598.58066
166.605	65639.91846
166.815	65628.4298
167.025	65587.10841
167.235	65488.63293
167.445	65685.91917
167.655	65550.42764
167.865	65580.22725
168.075	65564.17751
168.285	65580.22725
168.495	65561.88542
168.705	65497.77951
168.915	65472.63323
169.124	65536.68423
169.334	65538.97435
169.544	65543.55512
169.754	65580.22725
169.964	65534.39429
170.173	65509.21673
170.383	65555.01021
170.593	65561.88542
170.802	65518.36971
171.012	65621.5388
171.222	65584.81451
171.431	65626.13261
171.641	65591.69677
171.851	65646.81387
172.06	65605.46619
172.27	65607.76173
172.479	65541.26464
172.689	65603.17083
172.898	65550.42764
173.108	65593.99122
173.317	65527.52554
173.527	65633.02471
173.736	65637.62036
173.945	65564.17751
174.155	65525.23631
174.364	65527.52554
174.574	65564.17751
174.783	65575.6407
174.992	65513.79286
175.202	65573.3477
175.411	65516.0812
175.62	65603.17083
175.829	65616.94571
176.039	65552.71883
176.248	65522.94726
176.457	65575.6407
176.666	65490.91931
176.875	65607.76173
177.084	65536.68423
177.294	65614.64944
177.503	65628.4298
177.712	65486.34673
177.921	65610.05745
178.13	65577.93388
178.339	65665.20971
178.548	65598.58066
178.757	65566.46979
178.966	65527.52554
179.175	65541.26464
179.384	65584.81451
179.593	65561.88542
179.802	65639.91846
180.011	65566.46979
180.219	65587.10841
180.428	65557.30176
180.637	65557.30176
180.846	65527.52554
181.055	65559.5935
181.263	65584.81451
181.472	65481.77486
181.681	65614.64944
181.89	65550.42764
182.098	65484.0607
182.307	65591.69677
182.516	65552.71883
182.724	65568.76225
182.933	65532.10452
183.142	65656.01031
183.35	65552.71883
183.559	65559.5935
183.767	65575.6407
183.976	65605.46619
184.184	65619.24216
184.393	65545.84578
184.601	65605.46619
184.81	65486.34673
185.018	65610.05745
185.227	65548.13662
185.435	65628.4298
185.644	65532.10452
185.852	65674.41207
186.06	65529.81494
186.269	65529.81494
186.477	65525.23631
186.685	65573.3477
186.894	65484.0607
187.102	65568.76225
187.31	65500.0666
187.518	65573.3477
187.727	65658.30989
187.935	65635.32245
188.143	65575.6407
188.351	65543.55512
188.559	65635.32245
188.768	65497.77951
188.976	65518.36971
189.184	65534.39429
189.392	65532.10452
189.6	65541.26464
189.808	65461.21016
190.016	65603.17083
190.224	65591.69677
190.432	65561.88542
190.64	65566.46979
190.848	65557.30176
191.056	65509.21673
191.264	65548.13662
191.472	65573.3477
191.679	65589.4025
191.887	65582.52079
192.095	65665.20971
192.303	65545.84578
192.511	65596.28585
192.719	65672.1112
192.926	65516.0812
193.134	65672.1112
193.342	65600.87565
193.55	65580.22725
193.757	65573.3477
193.965	65550.42764
194.173	65534.39429
194.38	65639.91846
194.588	65614.64944
194.796	65593.99122
195.003	65518.36971
195.211	65614.64944
195.418	65596.28585
195.626	65662.90959
195.833	65557.30176
196.041	65513.79286
196.248	65573.3477
196.456	65516.0812
196.663	65472.63323
196.871	65603.17083
197.078	65555.01021
197.285	65580.22725
197.493	65555.01021
197.7	65436.09487
197.908	65548.13662
198.115	65589.4025
198.322	65559.5935
198.529	65630.72716
198.737	65649.1127
198.944	65555.01021
199.151	65646.81387
199.358	65612.35335
199.566	65690.52332
199.773	65481.77486
199.98	65577.93388
200.187	65607.76173
200.394	65571.05489
200.601	65449.79149
200.809	65660.60964
201.016	65548.13662
201.223	65541.26464
201.43	65656.01031
201.637	65598.58066
201.844	65603.17083
202.051	65676.71312
202.258	65552.71883
202.465	65593.99122
202.672	65665.20971
202.878	65571.05489
203.085	65598.58066
203.292	65552.71883
203.499	65522.94726
203.706	65571.05489
203.913	65568.76225
204.12	65630.72716
204.326	65612.35335
204.533	65623.83561
204.74	65513.79286
204.947	65561.88542
205.153	65573.3477
205.36	65557.30176
205.567	65662.90959
205.773	65656.01031
205.98	65534.39429
206.187	65577.93388
206.393	65568.76225
206.6	65591.69677
206.806	65633.02471
207.013	65506.92893
207.22	65513.79286
207.426	65623.83561
207.633	65564.17751
207.839	65497.77951
208.046	65529.81494
208.252	65532.10452
208.458	65527.52554
208.665	65555.01021
208.871	65593.99122
209.078	65486.34673
209.284	65577.93388
209.49	65589.4025
209.697	65591.69677
209.903	65630.72716
210.109	65596.28585
210.316	65529.81494
210.522	65610.05745
210.728	65548.13662
210.934	65351.77062
211.14	65591.69677
211.347	65651.41172
211.553	65536.68423
211.759	65559.5935
211.965	65513.79286
212.171	65536.68423
212.377	65502.35387
212.583	65564.17751
212.789	65600.87565
212.996	65550.42764
213.202	65516.0812
213.408	65557.30176
213.614	65564.17751
213.82	65612.35335
214.025	65596.28585
214.231	65642.21675
214.437	65600.87565
214.643	65497.77951
214.849	65561.88542
215.055	65568.76225
215.261	65626.13261
215.467	65559.5935
215.672	65639.91846
215.878	65500.0666
216.084	65619.24216
216.29	65559.5935
216.496	65484.0607
216.701	65527.52554
216.907	65621.5388
217.113	65561.88542
217.318	65493.20587
217.524	65605.46619
217.73	65616.94571
217.935	65584.81451
218.141	65532.10452
218.346	65550.42764
218.552	65582.52079
218.758	65550.42764
218.963	65538.97435
219.169	65548.13662
219.374	65559.5935
219.58	65559.5935
219.785	65580.22725
219.991	65506.92893
220.196	65660.60964
220.401	65593.99122
220.607	65564.17751
220.812	65479.48918
221.017	65568.76225
221.223	65516.0812
221.428	65490.91931
221.633	65511.50471
221.839	65559.5935
222.044	65619.24216
222.249	65550.42764
222.454	65543.55512
222.66	65545.84578
222.865	65591.69677
223.07	65445.22525
223.275	65566.46979
223.48	65534.39429
223.686	65619.24216
223.891	65649.1127
224.096	65642.21675
224.301	65458.92608
224.506	65614.64944
224.711	65520.6584
224.916	65600.87565
225.121	65593.99122
225.326	65591.69677
225.531	65619.24216
225.736	65598.58066
225.941	65628.4298
226.146	65577.93388
226.351	65548.13662
226.555	65545.84578
226.76	65541.26464
226.965	65644.51522
227.17	65587.10841
227.375	65610.05745
227.58	65593.99122
227.784	65525.23631
227.989	65683.61738
228.194	65605.46619
228.399	65534.39429
228.603	65626.13261
228.808	65600.87565
229.013	65511.50471
229.217	65564.17751
229.422	65616.94571
229.627	65577.93388
229.831	65598.58066
230.036	65529.81494
230.24	65557.30176
230.445	65534.39429
230.649	65557.30176
230.854	65548.13662
231.058	65587.10841
231.263	65575.6407
231.467	65543.55512
231.672	65582.52079
231.876	65564.17751
232.081	65513.79286
232.285	65536.68423
232.489	65534.39429
232.694	65603.17083
232.898	65513.79286
233.102	65470.34826
233.307	65557.30176
233.511	65580.22725
233.715	65532.10452
233.919	65509.21673
234.124	65623.83561
234.328	65662.90959
234.532	65559.5935
234.736	65520.6584
234.94	65614.64944
235.145	65555.01021
235.349	65543.55512
235.553	65449.79149
235.757	65458.92608
235.961	65616.94571
236.165	65610.05745
236.369	65525.23631
236.573	65527.52554
236.777	65623.83561
236.981	65550.42764
237.185	65486.34673
237.389	65584.81451
237.593	65564.17751
237.797	65534.39429
238.001	65529.81494
238.205	65545.84578
238.409	65600.87565
238.612	65605.46619
238.816	65442.94239
239.02	65568.76225
239.224	65582.52079
239.428	65532.10452
239.631	65555.01021
239.835	65538.97435
240.039	65568.76225
240.243	65518.36971
240.446	65493.20587
240.65	65619.24216
240.854	65718.16382
241.057	65543.55512
241.261	65619.24216
241.464	65639.91846
241.668	65516.0812
241.872	65605.46619
242.075	65566.46979
242.279	65555.01021
242.482	65603.17083
242.686	65593.99122
242.889	65502.35387
243.093	65605.46619
243.296	65509.21673
243.499	65566.46979
243.703	65568.76225
243.906	65628.4298
244.11	65538.97435
244.313	65573.3477
244.516	65548.13662
244.72	65509.21673
244.923	65630.72716
245.126	65474.91837
245.33	65545.84578
245.533	65621.5388
245.736	65548.13662
245.939	65584.81451
246.142	65552.71883
246.346	65600.87565
246.549	65646.81387
246.752	65605.46619
246.955	65582.52079
247.158	65541.26464
247.361	65587.10841
247.564	65527.52554
247.767	65486.34673
247.971	65568.76225
248.174	65536.68423
248.377	65587.10841
248.58	65646.81387
248.783	65612.35335
248.985	65573.3477
249.188	65587.10841
249.391	65538.97435
249.594	65568.76225
249.797	65616.94571
250	65488.63293
250.203	65584.81451
250.406	65591.69677
250.609	65619.24216
250.811	65596.28585
251.014	65596.28585
251.217	65628.4298
251.42	65612.35335
251.622	65445.22525
251.825	65509.21673
252.028	65596.28585
252.231	65600.87565
252.433	65614.64944
252.636	65506.92893
252.838	65534.39429
253.041	65571.05489
253.244	65520.6584
253.446	65470.34826
253.649	65557.30176
253.851	65513.79286
254.054	65591.69677
254.256	65504.64131
254.459	65596.28585
254.661	65538.97435
254.864	65616.94571
255.066	65413.28114
255.269	65575.6407
255.471	65541.26464
255.673	65525.23631
255.876	65596.28585
256.078	65541.26464
256.281	65552.71883
256.483	65568.76225
256.685	65623.83561
256.887	65559.5935
257.09	65550.42764
257.292	65614.64944
257.494	65525.23631
257.696	65584.81451
257.899	65614.64944
258.101	65472.63323
258.303	65545.84578
258.505	65644.51522
258.707	65577.93388
258.909	65605.46619
259.111	65665.20971
259.314	65545.84578
259.516	65596.28585
259.718	65509.21673
259.92	65555.01021
260.122	65582.52079
260.324	65596.28585
260.526	65488.63293
260.728	65552.71883
260.93	65534.39429
261.131	65651.41172
261.333	65610.05745
261.535	65573.3477
261.737	65600.87565
261.939	65527.52554
262.141	65564.17751
262.343	65520.6584
262.544	65538.97435
262.746	65538.97435
262.948	65621.5388
263.15	65571.05489
263.352	65500.0666
263.553	65568.76225
263.755	65621.5388
263.957	65495.4926
264.158	65532.10452
264.36	65555.01021
264.562	65518.36971
264.763	65605.46619
264.965	65536.68423
265.166	65589.4025
265.368	65493.20587
265.569	65598.58066
265.771	65593.99122
265.972	65529.81494
266.174	65598.58066
266.375	65584.81451
266.577	65571.05489
266.778	65538.97435
266.98	65568.76225
267.181	65619.24216
267.383	65639.91846
267.584	65490.91931
267.785	65575.6407
267.987	65596.28585
268.188	65644.51522
268.389	65529.81494
268.591	65639.91846
268.792	65637.62036
268.993	65541.26464
269.194	65596.28585
269.396	65504.64131
269.597	65557.30176
269.798	65607.76173
269.999	65555.01021
270.2	65637.62036
270.401	65500.0666
270.603	65598.58066
270.804	65614.64944
271.005	65616.94571
271.206	65568.76225
271.407	65541.26464
271.608	65495.4926
271.809	65573.3477
272.01	65559.5935
272.211	65587.10841
272.412	65525.23631
272.613	65518.36971
272.814	65621.5388
273.015	65593.99122
273.216	65614.64944
273.416	65589.4025
273.617	65513.79286
273.818	65538.97435
274.019	65582.52079
274.22	65522.94726
274.421	65552.71883
274.621	65589.4025
274.822	65555.01021
275.023	65559.5935
275.224	65566.46979
275.424	65649.1127
275.625	65681.31577
275.826	65575.6407
276.026	65619.24216
276.227	65582.52079
276.428	65534.39429
276.628	65527.52554
276.829	65529.81494
277.029	65582.52079
277.23	65559.5935
277.43	65536.68423
277.631	65493.20587
277.831	65651.41172
278.032	65628.4298
278.232	65582.52079
278.433	65598.58066
278.633	65490.91931
278.834	65600.87565
279.034	65529.81494
279.234	65500.0666
279.435	65571.05489
279.635	65550.42764
279.835	65577.93388
280.036	65488.63293
280.236	65662.90959
280.436	65598.58066
280.637	65571.05489
280.837	65504.64131
281.037	65575.6407
281.237	65575.6407
281.438	65589.4025
281.638	65598.58066
281.838	65593.99122
282.038	65593.99122
282.238	65571.05489
282.438	65580.22725
282.638	65577.93388
282.838	65596.28585
283.038	65550.42764
283.239	65591.69677
283.439	65573.3477
283.639	65477.20369
283.839	65607.76173
284.039	65548.13662
284.238	65573.3477
284.438	65529.81494
284.638	65623.83561
284.838	65600.87565
285.038	65603.17083
285.238	65626.13261
285.438	65566.46979
285.638	65564.17751
285.838	65568.76225
286.037	65534.39429
286.237	65607.76173
286.437	65614.64944
286.637	65591.69677
286.836	65589.4025
287.036	65639.91846
287.236	65536.68423
287.436	65623.83561
287.635	65559.5935
287.835	65568.76225
288.034	65573.3477
288.234	65479.48918
288.434	65545.84578
288.633	65582.52079
288.833	65616.94571
289.032	65672.1112
289.232	65559.5935
289.431	65559.5935
289.631	65596.28585
289.83	65490.91931
290.03	65619.24216
290.229	65607.76173
290.429	65679.01435
290.628	65509.21673
290.828	65642.21675
291.027	65665.20971
291.226	65591.69677
291.426	65552.71883
291.625	65436.09487
291.824	65587.10841
292.024	65587.10841
292.223	65619.24216
292.422	65577.93388
292.621	65596.28585
292.821	65543.55512
293.02	65582.52079
293.219	65511.50471
293.418	65616.94571
293.617	65522.94726
293.817	65610.05745
294.016	65481.77486
294.215	65513.79286
294.414	65656.01031
294.613	65591.69677
294.812	65577.93388
295.011	65605.46619
295.21	65555.01021
295.409	65644.51522
295.608	65690.52332
295.807	65610.05745
296.006	65545.84578
296.205	65580.22725
296.404	65445.22525
296.603	65598.58066
296.802	65484.0607
297.001	65607.76173
297.2	65605.46619
297.398	65623.83561
297.597	65511.50471
297.796	65649.1127
297.995	65633.02471
298.194	65529.81494
298.392	65593.99122
298.591	65587.10841
298.79	65630.72716
298.988	65598.58066
299.187	65593.99122
299.386	65564.17751
299.585	65582.52079
299.783	65566.46979
299.982	65502.35387
300.18	65600.87565
300.379	65589.4025
300.578	65591.69677
300.776	65649.1127
300.975	65555.01021
301.173	65497.77951
301.372	65582.52079
301.57	65600.87565
301.769	65605.46619
301.967	65534.39429
302.166	65582.52079
302.364	65626.13261
302.562	65577.93388
302.761	65532.10452
302.959	65587.10841
303.157	65541.26464
303.356	65614.64944
303.554	65522.94726
303.752	65582.52079
303.951	65548.13662
304.149	65461.21016
304.347	65555.01021
304.546	65525.23631
304.744	65561.88542
304.942	65545.84578
305.14	65614.64944
305.338	65639.91846
305.536	65591.69677
305.735	65593.99122
305.933	65600.87565
306.131	65610.05745
306.329	65522.94726
306.527	65639.91846
306.725	65587.10841
306.923	65534.39429
307.121	65477.20369
307.319	65612.35335
307.517	65614.64944
307.715	65564.17751
307.913	65454.35843
308.111	65541.26464
308.309	65557.30176
308.507	65589.4025
308.705	65577.93388
308.903	65633.02471
309.1	65513.79286
309.298	65518.36971
309.496	65559.5935
309.694	65596.28585
309.892	65621.5388
310.089	65628.4298
310.287	65577.93388
310.485	65607.76173
310.683	65564.17751
310.88	65582.52079
311.078	65589.4025
311.276	65525.23631
311.473	65575.6407
311.671	65566.46979
311.869	65522.94726
312.066	65573.3477
312.264	65571.05489
312.461	65493.20587
312.659	65513.79286
312.856	65525.23631
313.054	65603.17083
313.251	65598.58066
313.449	65511.50471
313.646	65580.22725
313.844	65623.83561
314.041	65580.22725
314.239	65509.21673
314.436	65500.0666
314.634	65468.06347
314.831	65525.23631
315.028	65646.81387
315.226	65580.22725
315.423	65509.21673
315.62	65614.64944
315.817	65561.88542
316.015	65454.35843
316.212	65610.05745
316.409	65529.81494
316.606	65545.84578
316.804	65591.69677
317.001	65626.13261
317.198	65527.52554
317.395	65527.52554
317.592	65527.52554
317.789	65577.93388
317.987	65555.01021
318.184	65607.76173
318.381	65644.51522
318.578	65529.81494
318.775	65639.91846
318.972	65635.32245
319.169	65633.02471
319.366	65525.23631
319.563	65561.88542
319.76	65600.87565
319.957	65591.69677
320.154	65605.46619
320.351	65522.94726
320.547	65545.84578
320.744	65584.81451
320.941	65463.49442
321.138	65577.93388
321.335	65564.17751
321.532	65612.35335
321.728	65532.10452
321.925	65630.72716
322.122	65452.07487
322.319	65679.01435
322.515	65522.94726
322.712	65536.68423
322.909	65649.1127
323.105	65653.71093
323.302	65513.79286
323.499	65493.20587
323.695	65541.26464
323.892	65571.05489
324.089	65527.52554
324.285	65593.99122
324.482	65603.17083
324.678	65653.71093
324.875	65607.76173
325.071	65557.30176
325.268	65561.88542
325.464	65587.10841
325.661	65566.46979
325.857	65580.22725
326.054	65614.64944
326.25	65541.26464
326.446	65538.97435
326.643	65559.5935
326.839	65582.52079
327.035	65662.90959
327.232	65513.79286
327.428	65658.30989
327.624	65651.41172
327.821	65568.76225
328.017	65628.4298
328.213	65605.46619
328.409	65568.76225
328.606	65548.13662
328.802	65550.42764
328.998	65584.81451
329.194	65646.81387
329.39	65525.23631
329.586	65568.76225
329.783	65529.81494
329.979	65557.30176
330.175	65587.10841
330.371	65568.76225
330.567	65584.81451
330.763	65557.30176
330.959	65621.5388
331.155	65593.99122
331.351	65603.17083
331.547	65538.97435
331.743	65679.01435
331.939	65575.6407
332.135	65603.17083
332.33	65502.35387
332.526	65566.46979
332.722	65550.42764
332.918	65518.36971
333.114	65621.5388
333.31	65465.77886
333.506	65493.20587
333.701	65571.05489
333.897	65681.31577
334.093	65527.52554
334.289	65633.02471
334.484	65468.06347
334.68	65484.0607
334.876	65511.50471
335.071	65577.93388
335.267	65506.92893
335.463	65589.4025
335.658	65587.10841
335.854	65697.43093
336.049	65573.3477
336.245	65603.17083
336.441	65598.58066
336.636	65550.42764
336.832	65532.10452
337.027	65449.79149
337.223	65637.62036
337.418	65495.4926
337.613	65628.4298
337.809	65545.84578
338.004	65621.5388
338.2	65564.17751
338.395	65614.64944
338.591	65520.6584
338.786	65628.4298
338.981	65623.83561
339.177	65633.02471
339.372	65559.5935
339.567	65500.0666
339.762	65532.10452
339.958	65699.73384
340.153	65658.30989
340.348	65030.28218
340.543	65580.22725
340.739	65623.83561
340.934	65593.99122
341.129	65541.26464
341.324	65541.26464
341.519	65649.1127
341.714	65713.5552
341.909	65628.4298
342.104	65568.76225
342.299	65577.93388
342.495	65600.87565
342.69	65619.24216
342.885	65605.46619
343.08	65319.92554
343.275	65486.34673
343.469	65589.4025
343.664	65534.39429
343.859	65577.93388
344.054	65639.91846
344.249	65621.5388
344.444	65566.46979
344.639	65600.87565
344.834	65626.13261
345.029	65573.3477
345.223	65548.13662
345.418	65628.4298
345.613	65559.5935
345.808	65577.93388
346.003	65582.52079
346.197	65577.93388
346.392	65561.88542
346.587	65465.77886
346.781	65591.69677
346.976	65550.42764
347.171	65495.4926
347.365	65600.87565
347.56	65598.58066
347.755	65520.6584
347.949	65596.28585
348.144	65626.13261
348.338	65564.17751
348.533	65559.5935
348.727	65610.05745
348.922	65527.52554
349.116	65642.21675
349.311	65571.05489
349.505	65642.21675
349.7	65626.13261
349.894	65614.64944
350.089	65550.42764
350.283	65584.81451
350.477	65568.76225
350.672	65587.10841
350.866	65509.21673
351.06	65564.17751
351.255	65568.76225
351.449	65573.3477
351.643	65573.3477
351.837	65529.81494
352.032	65669.81052
352.226	65619.24216
352.42	65623.83561
352.614	65506.92893
352.809	65610.05745
353.003	65566.46979
353.197	65552.71883
353.391	65589.4025
353.585	65555.01021
353.779	65651.41172
353.973	65506.92893
354.167	65543.55512
354.361	65630.72716
354.555	65518.36971
354.749	65587.10841
354.943	65610.05745
355.137	65545.84578
355.331	65593.99122
355.525	65607.76173
355.719	65545.84578
355.913	65584.81451
356.107	65557.30176
356.301	65587.10841
356.495	65582.52079
356.689	65573.3477
356.883	65545.84578
357.076	65642.21675
357.27	65511.50471
357.464	65607.76173
357.658	65509.21673
357.852	65580.22725
358.045	65548.13662
358.239	65621.5388
358.433	65596.28585
358.626	65607.76173
358.82	65580.22725
359.014	65559.5935
359.207	65568.76225
359.401	65660.60964
359.595	65548.13662
359.788	65600.87565
359.982	65573.3477
360.175	65538.97435
360.369	65596.28585
360.563	65568.76225
360.756	65580.22725
360.95	65557.30176
361.143	65667.51002
361.336	65718.16382
361.53	65623.83561
361.723	65610.05745
361.917	65552.71883
362.11	65612.35335
362.304	65587.10841
362.497	65577.93388
362.69	65452.07487
362.884	65561.88542
363.077	65600.87565
363.27	65593.99122
363.464	65568.76225
363.657	65610.05745
363.85	65527.52554
364.043	65596.28585
364.237	65568.76225
364.43	65541.26464
364.623	65536.68423
364.816	65626.13261
365.009	65516.0812
365.202	65600.87565
365.396	65500.0666
365.589	65561.88542
365.782	65561.88542
365.975	65642.21675
366.168	65532.10452
366.361	65495.4926
366.554	65577.93388
366.747	65610.05745
366.94	65543.55512
367.133	65582.52079
367.326	65593.99122
367.519	65596.28585
367.712	65704.34021
367.905	65591.69677
368.098	65616.94571
368.291	65474.91837
368.484	65577.93388
368.676	65548.13662
368.869	65649.1127
369.062	65589.4025
369.255	65573.3477
369.448	65536.68423
369.64	65561.88542
369.833	65600.87565
370.026	65527.52554
370.219	65644.51522
370.411	65472.63323
370.604	65658.30989
370.797	65561.88542
370.989	65534.39429
371.182	65651.41172
371.375	65522.94726
371.567	65552.71883
371.76	65584.81451
371.952	65653.71093
372.145	65557.30176
372.338	65550.42764
372.53	65559.5935
372.723	65637.62036
372.915	65584.81451
373.108	65612.35335
373.3	65545.84578
373.493	65538.97435
373.685	65536.68423
373.877	65630.72716
374.07	65520.6584
374.262	65511.50471
374.455	65621.5388
374.647	65679.01435
374.839	65513.79286
375.032	65568.76225
375.224	65568.76225
375.416	65628.4298
375.609	65131.80486
375.801	65575.6407
375.993	65621.5388
376.185	65633.02471
376.378	65584.81451
376.57	65564.17751
376.762	65559.5935
376.954	65545.84578
377.146	65532.10452
377.338	65623.83561
377.53	65614.64944
377.723	65529.81494
377.915	65619.24216
378.107	65577.93388
378.299	65610.05745
378.491	65605.46619
378.683	65559.5935
378.875	65600.87565
379.067	65511.50471
379.259	65538.97435
379.451	65587.10841
379.643	65522.94726
379.835	65552.71883
380.027	65506.92893
380.219	65619.24216
380.41	65573.3477
380.602	65566.46979
380.794	65665.20971
380.986	65610.05745
381.178	65580.22725
381.37	65587.10841
381.561	65571.05489
381.753	65488.63293
381.945	65502.35387
382.137	65568.76225
382.328	65598.58066
382.52	65610.05745
382.712	65603.17083
382.903	65506.92893
383.095	65589.4025
383.287	65635.32245
383.478	65548.13662
383.67	65607.76173
383.862	65566.46979
384.053	65559.5935
384.245	65605.46619
384.436	65536.68423
384.628	65564.17751
384.819	65591.69677
385.011	65532.10452
385.202	65584.81451
385.394	65605.46619
385.585	65479.48918
385.777	65600.87565
385.968	65642.21675
386.159	65577.93388
386.351	65571.05489
386.542	65543.55512
386.734	65495.4926
386.925	65596.28585
387.116	65555.01021
387.308	65559.5935
387.499	65621.5388
387.69	65536.68423
387.881	65495.4926
388.073	65571.05489
388.264	65568.76225
388.455	65656.01031
388.646	65522.94726
388.837	65541.26464
389.029	65564.17751
389.22	65589.4025
389.411	65610.05745
389.602	65566.46979
389.793	65600.87565
389.984	65580.22725
390.175	65550.42764
390.366	65536.68423
390.557	65633.02471
390.748	65573.3477
390.939	65649.1127
391.13	65596.28585
391.321	65559.5935
391.512	65591.69677
391.703	65577.93388
391.894	65605.46619
392.085	65628.4298
392.276	65619.24216
392.467	65633.02471
392.658	65614.64944
392.849	65568.76225
393.039	65598.58066
393.23	65582.52079
393.421	65557.30176
393.612	65573.3477
393.803	65580.22725
393.993	65479.48918
394.184	65543.55512
394.375	65630.72716
394.566	65568.76225
394.756	65557.30176
394.947	65520.6584
395.138	65603.17083
395.328	65506.92893
395.519	65527.52554
395.709	65633.02471
395.9	65474.91837
396.091	65603.17083
396.281	65605.46619
396.472	65598.58066
396.662	65623.83561
396.853	65614.64944
397.043	65596.28585
397.234	65600.87565
397.424	65555.01021
397.615	65555.01021
397.805	65564.17751
397.996	65653.71093
398.186	65518.36971
398.376	65500.0666
398.567	65612.35335
398.757	65582.52079
398.947	65713.5552
399.138	65529.81494
399.328	65518.36971
399.518	65635.32245
399.709	65665.20971
399.899	65577.93388
400.089	65614.64944
400.279	65568.76225
400.47	65575.6407
400.66	65573.3477
400.85	65502.35387
401.04	65538.97435
401.23	65513.79286
401.421	65552.71883
401.611	65596.28585
401.801	65536.68423
401.991	65568.76225
402.181	65587.10841
402.371	65555.01021
402.561	65506.92893
402.751	65589.4025
402.941	65541.26464
403.131	65500.0666
403.321	65610.05745
403.511	65559.5935
403.701	65529.81494
403.891	65568.76225
404.081	65566.46979
404.271	65616.94571
404.461	65497.77951
404.651	65626.13261
404.84	65548.13662
405.03	65538.97435
405.22	65614.64944
405.41	65603.17083
405.6	65516.0812
405.789	65520.6584
405.979	65504.64131
406.169	65644.51522
406.359	65577.93388
406.548	65628.4298
406.738	65628.4298
406.928	65502.35387
407.118	65536.68423
407.307	65522.94726
407.497	65571.05489
407.686	65513.79286
407.876	65621.5388
408.066	65600.87565
408.255	65610.05745
408.445	65603.17083
408.634	65529.81494
408.824	65550.42764
409.013	65593.99122
409.203	65516.0812
409.392	65550.42764
409.582	65555.01021
409.771	65649.1127
409.961	65607.76173
410.15	65536.68423
410.34	65548.13662
410.529	65623.83561
410.718	65564.17751
410.908	65436.09487
411.097	65623.83561
411.286	65607.76173
411.476	65637.62036
411.665	65598.58066
411.854	65589.4025
412.044	65633.02471
412.233	65548.13662
412.422	65548.13662
412.611	65566.46979
412.8	65525.23631
412.99	65612.35335
413.179	65532.10452
413.368	65605.46619
413.557	65630.72716
413.746	65582.52079
413.935	65605.46619
414.124	65651.41172
414.313	65516.0812
414.503	65550.42764
414.692	65607.76173
414.881	65495.4926
415.07	65511.50471
415.259	65584.81451
415.448	65509.21673
415.637	65566.46979
415.826	65548.13662
416.015	65639.91846
416.203	65584.81451
416.392	65534.39429
416.581	65596.28585
416.77	65555.01021
416.959	65543.55512
417.148	65603.17083
417.337	65614.64944
417.525	65559.5935
417.714	65541.26464
417.903	65619.24216
418.092	65614.64944
418.281	65548.13662
418.469	65557.30176
418.658	65561.88542
418.847	65591.69677
419.035	65626.13261
419.224	65639.91846
419.413	65616.94571
419.601	65559.5935
419.79	65649.1127
419.979	65584.81451
420.167	65619.24216
420.356	65582.52079
420.544	65545.84578
420.733	65614.64944
420.921	65593.99122
421.11	65545.84578
421.299	65532.10452
421.487	65575.6407
421.675	65571.05489
421.864	65580.22725
422.052	65598.58066
422.241	65479.48918
422.429	65591.69677
422.618	65582.52079
422.806	65559.5935
422.994	65591.69677
423.183	65536.68423
423.371	65591.69677
423.559	65550.42764
423.748	65522.94726
423.936	65596.28585
424.124	65681.31577
424.312	65616.94571
424.501	65559.5935
424.689	65582.52079
424.877	65580.22725
425.065	65577.93388
425.254	65596.28585
425.442	65433.81271
425.63	65502.35387
425.818	65493.20587
426.006	65582.52079
426.194	65488.63293
426.382	65506.92893
426.57	65538.97435
426.758	65555.01021
426.946	65591.69677
427.134	65529.81494
427.323	65607.76173
427.51	65577.93388
427.698	65564.17751
427.886	65534.39429
428.074	65497.77951
428.262	65679.01435
428.45	65568.76225
428.638	65561.88542
428.826	65536.68423
429.014	65610.05745
429.202	65683.61738
429.39	65646.81387
429.577	65506.92893
429.765	65509.21673
429.953	65504.64131
430.141	65580.22725
430.329	65536.68423
430.516	65605.46619
430.704	65445.22525
430.892	65593.99122
431.079	65667.51002
431.267	65509.21673
431.455	65644.51522
431.643	65497.77951
431.83	65545.84578
432.018	65534.39429
432.205	65593.99122
432.393	65642.21675
432.581	65577.93388
432.768	65509.21673
432.956	65513.79286
433.143	65555.01021
433.331	65527.52554
433.518	65593.99122
433.706	65575.6407
433.893	65468.06347
434.081	65600.87565
434.268	65484.0607
434.456	65616.94571
434.643	65605.46619
434.83	65518.36971
435.018	65518.36971
435.205	65600.87565
435.392	65600.87565
435.58	65674.41207
435.767	65516.0812
435.954	65571.05489
436.142	65509.21673
436.329	65610.05745
436.516	65591.69677
436.703	65534.39429
436.891	65495.4926
437.078	65520.6584
437.265	65516.0812
437.452	65525.23631
437.639	65559.5935
437.827	65541.26464
438.014	65522.94726
438.201	65575.6407
438.388	65518.36971
438.575	65568.76225
438.762	65571.05489
438.949	65584.81451
439.136	65529.81494
439.323	65477.20369
439.51	65577.93388
439.697	65500.0666
439.884	65504.64131
440.071	65529.81494
440.258	65502.35387
440.445	65513.79286
440.632	65319.92554
440.819	65522.94726
441.006	65452.07487
441.193	65536.68423
441.38	65500.0666
441.566	65561.88542
441.753	65571.05489
441.94	65504.64131
442.127	65568.76225
442.314	65488.63293
442.5	65465.77886
442.687	65481.77486
442.874	65509.21673
443.061	65516.0812
443.247	65500.0666
443.434	65411.00073
443.621	65577.93388
443.807	65522.94726
443.994	65399.60126
444.181	65536.68423
444.367	65566.46979
444.554	65481.77486
444.74	65506.92893
444.927	65536.68423
445.114	65479.48918
445.3	65354.04655
445.487	65431.53073
445.673	65447.50828
445.86	65477.20369
446.046	65502.35387
446.233	65465.77886
446.419	65497.77951
446.605	65392.76365
446.792	65397.32188
446.978	65536.68423
447.165	65472.63323
447.351	65497.77951
447.537	65511.50471
447.724	65520.6584
447.91	65406.44042
448.096	65431.53073
448.283	65367.70574
448.469	65470.34826
448.655	65454.35843
448.841	65401.8808
449.028	65440.65971
449.214	65426.96729
449.4	65404.16052
449.586	65424.68583
449.773	65397.32188
449.959	65424.68583
450.145	65310.83307
450.331	65440.65971
450.517	65470.34826
450.703	65349.49487
450.889	65442.94239
451.075	65388.20611
451.261	65313.10593
451.447	65306.28785
451.633	65385.92761
451.819	65374.53764
452.005	65304.0155
452.191	65372.26017
452.377	65354.04655
452.563	65331.29495
452.749	65335.8439
452.935	65310.83307
453.121	65272.22026
453.307	65301.74331
453.493	65244.9934
453.679	65285.84275
453.865	65256.335
454.05	65229.12217
454.236	65274.49026
454.422	65340.39354
454.608	65297.19945
454.794	65317.65217
454.979	65326.74667
455.165	65294.92777
455.351	65235.92313
455.537	65240.45793
455.722	65165.71833
455.908	65247.26139
456.094	65183.82054
456.279	65163.45629
456.465	65129.54526
456.65	65224.58903
456.836	65192.87558
457.022	65181.55719
457.207	65197.4041
457.393	65149.88748
457.578	65201.93326
457.764	65104.70037
457.949	65177.03098
458.135	65115.99108
458.32	65251.79786
458.506	65204.1981
458.691	65167.98053
458.877	65147.62658
459.062	65213.25908
459.248	65220.05655
459.433	65095.6707
459.618	65073.10778
459.804	65170.2429
459.989	65077.61908
460.174	65073.10778
460.36	65100.18521
460.545	65113.73261
460.73	65129.54526
460.915	65118.2497
461.101	65127.28582
461.286	65095.6707
461.471	65113.73261
461.656	65226.85552
461.842	65073.10778
462.027	65102.44271
462.212	65073.10778
462.397	65055.06895
462.582	65086.64361
462.767	64985.26428
462.952	65181.55719
463.138	65066.34202
463.323	64989.76324
463.508	65086.64361
463.693	65046.05336
463.878	65077.61908
464.063	64987.51368
464.248	65023.52548
464.433	65023.52548
464.618	65023.52548
464.803	65019.0218
464.988	65021.27356
465.173	64953.78901
465.357	64994.26283
465.542	64998.76305
465.727	64902.14555
465.912	64951.54194
466.097	65007.76537
466.282	65007.76537
466.467	64951.54194
466.651	64906.63305
466.836	64906.63305
467.021	65064.08709
467.206	64958.28361
467.391	65016.7702
467.575	64978.517
467.76	64969.52283
467.945	64884.20166
468.129	64915.6099
468.314	64877.47522
468.499	64994.26283
468.683	64866.26752
468.868	64947.04827
469.053	64935.81681
469.237	64920.09925
469.422	64866.26752
469.606	64922.34415
469.791	64985.26428
469.975	64904.38923
470.16	64931.32531
470.344	64895.41544
470.529	64967.27467
470.713	64799.1007
470.898	64960.53114
471.082	64922.34415
471.267	64969.52283
471.451	64953.78901
471.636	65070.85237
471.82	64960.53114
472.004	64830.42836
472.189	64949.29503
472.373	65023.52548
472.557	65005.51455
472.742	64992.01296
472.926	65001.01339
473.11	65012.26747
473.295	64917.8545
473.479	64926.83442
473.663	64935.81681
473.847	64998.76305
474.031	64989.76324
474.216	64985.26428
474.4	65010.01634
474.584	65003.26389
474.768	64965.02667
474.952	64899.90203
475.136	64897.65866
475.32	65030.28218
475.505	64917.8545
475.689	64864.02644
475.873	64938.06279
476.057	64929.07979
476.241	64976.26823
476.425	64902.14555
476.609	64866.26752
476.793	64942.55522
476.977	65012.26747
477.161	64906.63305
477.345	64888.68671
477.529	65005.51455
477.713	64850.58313
477.896	64987.51368
478.08	64832.66718
478.264	64899.90203
478.448	64924.58921
478.632	64855.06363
478.816	65064.08709
478.999	64870.75014
479.183	64953.78901
479.367	64922.34415
479.551	64758.86524
479.735	64861.78551
479.918	64897.65866
480.102	64830.42836
480.286	64868.50876
480.469	64935.81681
480.653	64832.66718
480.837	64848.34311
481.02	64875.23337
481.204	64834.90614
481.388	64805.8113
481.571	64707.52288
481.755	64843.86351
481.938	64834.90614
482.122	64870.75014
482.305	64774.50665
482.489	64691.9123
482.673	64736.53293
482.856	64810.28578
483.04	64803.57428
483.223	64794.62771
483.406	64814.76086
483.59	64810.28578
483.773	64754.3976
483.957	64834.90614
484.14	64725.37229
484.323	64689.6828
484.507	64732.06823
484.69	64765.56781
484.874	64837.14526
485.057	64783.44786
485.24	64738.7655
485.423	64875.23337
485.607	64716.44641
485.79	64774.50665
485.973	64729.8361
486.156	64665.16787
486.34	64680.76625
486.523	64662.9401
486.706	64723.1406
486.889	64794.62771
487.072	64689.6828
487.256	64669.62382
487.439	64729.8361
487.622	64671.85202
487.805	64725.37229
487.988	64696.37174
488.171	64665.16787
488.354	64654.03049
488.537	64718.67766
488.72	64671.85202
488.903	64647.3498
489.086	64700.83176
489.269	64660.71248
489.452	64656.25768
489.635	64605.06866
489.818	64496.26331
490.001	64734.30051
490.184	64694.14195
490.367	64691.9123
490.55	64596.17392
490.732	64489.61264
490.915	64633.99228
491.098	64596.17392
491.281	64720.90906
491.464	64647.3498
491.647	64674.08036
491.829	64680.76625
492.012	64589.50436
492.195	64536.19356
492.378	64625.09013
492.56	64480.747
492.743	64502.91523
492.926	64474.09923
493.108	64613.96567
493.291	64593.95059
493.474	64456.37786
493.656	64471.88358
493.839	64416.53676
494.022	64482.96321
494.204	64412.11269
494.387	64438.66526
494.569	64576.16906
494.752	64445.30646
494.934	64469.66806
495.117	64456.37786
495.299	64494.04628
495.482	64425.38653
495.664	64378.94936
495.847	64460.80738
496.029	64500.69778
496.212	64248.79745
496.394	64471.88358
496.576	64425.38653
496.759	64518.44122
496.941	64341.40075
497.123	64187.18943
497.306	64494.04628
497.488	64407.68916
497.67	64476.31502
497.853	64469.66806
498.035	64343.60842
498.217	64277.43566
498.4	64348.02417
498.582	64498.48048
498.764	64423.17388
498.946	64352.44045
499.128	64365.6925
499.311	64394.42181
499.493	64487.39602
499.675	64354.64879
499.857	64317.12507
500.039	64279.63951
500.221	64317.12507
500.403	64297.27504
500.585	64195.98441
500.767	64257.60686
500.949	64297.27504
501.132	64321.53764
501.314	64354.64879
501.496	64213.58051
501.678	64427.59931
501.859	64284.04761
502.041	64275.23194
502.223	64275.23194
502.405	64308.30152
502.587	64211.38055
502.769	64235.58722
502.951	64233.38597
503.133	64262.01235
503.315	64317.12507
503.497	64290.66074
503.678	64281.84349
503.86	64370.11092
504.042	64165.21091
504.224	64195.98441
504.406	64255.40432
504.587	64310.50721
504.769	64264.21529
504.951	64239.99011
505.132	64348.02417
505.314	64281.84349
505.496	64244.39352
505.678	64310.50721
505.859	64292.86537
506.041	64244.39352
506.222	64259.80954
506.404	64255.40432
506.586	64268.62156
506.767	64204.78143
506.949	64312.71303
507.13	64262.01235
507.312	64270.82489
507.493	64130.07167
507.675	64246.59542
507.856	64244.39352
508.038	64334.77852
508.219	64312.71303
508.401	64310.50721
508.582	64215.78061
508.764	64253.2019
508.945	64220.18117
509.126	64308.30152
509.308	64290.66074
509.489	64275.23194
509.671	64332.57137
509.852	64239.99011
510.033	64332.57137
510.214	64306.09596
510.396	64345.81623
510.577	64412.11269
510.758	64228.98386
510.94	64239.99011
511.121	64275.23194
511.302	64277.43566
511.483	64312.71303
511.664	64248.79745
511.846	64361.27462
512.027	64279.63951
512.208	64343.60842
512.389	64330.36436
512.57	64246.59542
512.751	64284.04761
512.932	64266.41836
513.113	64176.19858
513.294	64299.48008
513.476	64286.25185
513.657	64319.33129
513.838	64394.42181
514.019	64255.40432
514.2	64334.77852
514.381	64279.63951
514.561	64259.80954
514.742	64356.85727
514.923	64288.45623
515.104	64270.82489
515.285	64314.91898
515.466	64345.81623
515.647	64383.36939
515.828	64237.7886
516.009	64281.84349
516.189	64356.85727
516.37	64392.21106
516.551	64365.6925
516.732	64365.6925
516.913	64330.36436
517.093	64359.06588
517.274	64365.6925
517.455	64206.98101
517.636	64279.63951
517.816	64270.82489
517.997	64295.07014
518.178	64301.68524
518.358	64401.05488
518.539	64328.15748
518.72	64310.50721
518.9	64299.48008
519.081	64312.71303
519.261	64262.01235
519.442	64178.39649
519.622	64295.07014
519.803	64299.48008
519.984	64248.79745
520.164	64325.95073
520.345	64306.09596
520.525	64292.86537
520.705	64348.02417
520.886	64244.39352
521.066	64458.59255
521.247	64314.91898
521.427	64319.33129
521.608	64160.81674
521.788	64345.81623
521.968	64147.63725
522.149	64363.48349
522.329	64286.25185
522.509	64394.42181
522.69	64345.81623
522.87	64374.52987
523.05	64401.05488
523.231	64381.15931
523.411	64341.40075
523.591	64288.45623
523.771	64370.11092
523.951	64284.04761
524.132	64266.41836
524.312	64317.12507
524.492	64345.81623
524.672	64290.66074
524.852	64266.41836
525.032	64328.15748
525.213	64295.07014
525.393	64226.78299
525.573	64403.26617
525.753	64255.40432
525.933	64281.84349
526.113	64288.45623
526.293	64392.21106
526.473	64361.27462
526.653	64215.78061
526.833	64352.44045
527.013	64409.90086
527.193	64325.95073
527.373	64341.40075
527.553	64314.91898
527.733	64284.04761
527.913	64372.32033
528.092	64511.78639
528.272	64297.27504
528.452	64354.64879
528.632	64434.23847
528.812	64339.1932
528.992	64288.45623
529.171	64321.53764
529.351	64416.53676
529.531	64409.90086
529.711	64306.09596
529.89	64407.68916
530.07	64299.48008
530.25	64213.58051
530.43	64217.98082
530.609	64341.40075
530.789	64323.74412
530.969	64312.71303
531.148	64381.15931
531.328	64418.749
531.507	64372.32033
531.687	64286.25185
531.867	64412.11269
532.046	64270.82489
532.226	64376.73955
532.405	64314.91898
532.585	64336.98579
532.764	64359.06588
532.944	64213.58051
533.123	64341.40075
533.303	64392.21106
533.482	64215.78061
533.662	64367.90164
533.841	64310.50721
534.021	64275.23194
534.2	64363.48349
534.379	64407.68916
534.559	64345.81623
534.738	64306.09596
534.917	64447.52047
535.097	64336.98579
535.276	64332.57137
535.455	64290.66074
535.635	64425.38653
535.814	64370.11092
535.993	64301.68524
536.172	64434.23847
536.352	64396.6327
536.531	64416.53676
536.71	64323.74412
536.889	64343.60842
537.068	64383.36939
537.248	64403.26617
537.427	64266.41836
537.606	64336.98579
537.785	64341.40075
537.964	64356.85727
538.143	64420.96137
538.322	64372.32033
538.501	64339.1932
538.68	64394.42181
538.859	64290.66074
539.038	64429.81223
539.217	64429.81223
539.396	64498.48048
539.575	64354.64879
539.754	64336.98579
539.933	64301.68524
540.112	64522.87847
540.291	64361.27462
540.47	64363.48349
540.649	64365.6925
540.828	64522.87847
541.007	64332.57137
541.186	64440.87886
541.364	64341.40075
541.543	64423.17388
541.722	64378.94936
541.901	64416.53676
542.08	64266.41836
542.258	64303.89053
542.437	64447.52047
542.616	64312.71303
542.795	64467.45269
542.973	64423.17388
543.152	64432.02528
543.331	64409.90086
543.509	64456.37786
543.688	64336.98579
543.867	64434.23847
544.045	64447.52047
544.224	64297.27504
544.402	64037.98367
544.581	64401.05488
544.76	64498.48048
544.938	64392.21106
545.117	64361.27462
545.295	64409.90086
545.474	64407.68916
545.652	64482.96321
545.831	64434.23847
546.009	64303.89053
546.188	64407.68916
546.366	64420.96137
546.544	64398.84372
546.723	64394.42181
546.901	64387.78995
547.08	64330.36436
547.258	64440.87886
547.436	64438.66526
547.615	64487.39602
547.793	64414.32466
547.971	64396.6327
548.15	64412.11269
548.328	64359.06588
548.506	64297.27504
548.684	64270.82489
548.863	64432.02528
549.041	64463.02235
549.219	64520.65977
549.397	64383.36939
549.576	64434.23847
549.754	64392.21106
549.932	64418.749
550.11	64460.80738
550.288	64496.26331
550.466	64582.83607
550.644	64359.06588
550.822	64456.37786
551.001	64496.26331
551.179	64549.51367
551.357	64485.17954
551.535	64427.59931
551.713	64487.39602
551.891	64491.82939
552.069	64536.19356
552.247	64496.26331
552.425	64531.75463
552.603	64531.75463
552.781	64509.56839
552.958	64540.63303
553.136	64518.44122
553.314	64633.99228
553.492	64589.50436
553.67	64616.19028
553.848	64629.54092
554.026	64727.60412
554.204	64709.75354
554.381	64649.57655
554.559	64711.98435
554.737	64785.68353
554.915	64718.67766
555.092	64676.30885
555.27	64749.93055
555.448	64711.98435
555.626	64763.33347
555.803	64850.58313
555.981	64678.53748
556.159	64808.04847
556.336	64816.99862
556.514	64879.71721
556.692	64834.90614
556.869	64808.04847
557.047	64803.57428
557.224	64834.90614
557.402	64850.58313
557.58	64774.50665
557.757	64888.68671
557.935	64987.51368
558.112	64893.17238
558.29	64881.95936
558.467	64987.51368
558.645	64989.76324
558.822	65003.26389
559	64976.26823
559.177	64951.54194
559.354	64926.83442
559.532	64933.57098
559.709	64965.02667
559.887	64926.83442
560.064	65028.02979
560.241	64904.38923
560.419	64924.58921
560.596	64904.38923
560.773	64897.65866
560.951	64879.71721
561.128	64763.33347
561.305	64992.01296
561.482	64933.57098
561.66	64881.95936
561.837	64877.47522
562.014	64926.83442
562.191	65001.01339
562.368	64947.04827
562.546	64879.71721
562.723	64980.76594
562.9	64949.29503
563.077	64875.23337
563.254	64971.77114
563.431	64940.30893
563.608	64852.8233
563.785	64969.52283
563.962	64908.87704
564.139	64998.76305
564.317	64881.95936
564.494	65014.51876
564.671	64816.99862
564.848	64913.36546
565.025	64965.02667
565.201	64992.01296
565.378	64922.34415
565.555	64920.09925
565.732	64956.03623
565.909	64965.02667
566.086	64947.04827
566.263	64996.51286
566.44	64951.54194
566.617	64992.01296
566.794	64913.36546
566.97	64976.26823
567.147	65046.05336
567.324	64949.29503
567.501	65010.01634
567.678	64947.04827
567.854	64969.52283
568.031	65079.87497
568.208	64949.29503
568.384	65014.51876
568.561	64989.76324
568.738	65014.51876
568.915	64992.01296
569.091	65066.34202
569.268	65025.77756
569.444	65075.36335
569.621	65046.05336
569.798	65073.10778
569.974	65016.7702
570.151	65012.26747
570.327	65028.02979
570.504	65001.01339
570.681	65095.6707
570.857	65064.08709
571.034	65073.10778
571.21	65023.52548
571.387	65170.2429
571.563	65143.10528
571.739	64980.76594
571.916	65192.87558
572.092	65118.2497
572.269	65066.34202
572.445	65079.87497
572.622	65127.28582
572.798	65066.34202
572.974	65120.50849
573.151	65177.03098
573.327	65118.2497
573.503	65016.7702
573.68	65179.294
573.856	65172.50543
574.032	65177.03098
574.208	65057.32325
574.385	65082.13102
574.561	65195.13976
574.737	65167.98053
574.913	65064.08709
575.089	65167.98053
575.266	65172.50543
575.442	65183.82054
575.618	65023.52548
575.794	65145.36585
575.97	65154.40976
576.146	65084.38724
576.322	65149.88748
576.499	65041.54652
576.675	65059.5777
576.851	65061.83231
577.027	64985.26428
577.203	65118.2497
577.379	65158.9327
577.555	65113.73261
577.731	65068.59711
577.907	64743.23107
578.083	65023.52548
578.259	65095.6707
578.435	65070.85237
578.611	64951.54194
578.786	64967.27467
578.962	65019.0218
579.138	65131.80486
579.314	65023.52548
579.49	65095.6707
579.666	64998.76305
579.842	65075.36335
580.017	65075.36335
580.193	65061.83231
580.369	65010.01634
580.545	65034.78744
580.72	64940.30893
580.896	65070.85237
581.072	64960.53114
581.248	65007.76537
581.423	64935.81681
581.599	65039.29333
581.775	64998.76305
581.95	65001.01339
582.126	65028.02979
582.302	64931.32531
582.477	64994.26283
582.653	65055.06895
582.829	65039.29333
583.004	65129.54526
583.18	65025.77756
583.355	65064.08709
583.531	64994.26283
583.706	64971.77114
583.882	65064.08709
584.057	65147.62658
584.233	65010.01634
584.408	64911.12117
584.584	65030.28218
584.759	65093.41369
584.935	65093.41369
585.11	65079.87497
585.285	65113.73261
585.461	65186.08405
585.636	65086.64361
585.812	65104.70037
585.987	65172.50543
586.162	65158.9327
586.338	65100.18521
586.513	65195.13976
586.688	65256.335
586.863	65134.06462
587.039	65190.61158
587.214	65165.71833
587.389	65161.19441
587.564	65201.93326
587.74	65158.9327
587.915	65326.74667
588.09	65272.22026
588.265	65208.72826
588.44	65285.84275
588.615	65269.95044
588.791	65258.60382
588.966	65313.10593
589.141	65331.29495
589.316	65251.79786
589.491	65265.41129
589.666	65235.92313
589.841	65199.6686
590.016	65310.83307
590.191	65226.85552
590.366	65358.59893
590.541	65376.81529
590.716	65326.74667
590.891	65304.0155
591.066	65399.60126
591.241	65374.53764
591.416	65392.76365
591.591	65381.3711
591.766	65381.3711
591.941	65495.4926
592.116	65509.21673
592.29	65390.4848
592.465	65438.3772
592.64	65552.71883
592.815	65486.34673
592.99	65536.68423
593.165	65495.4926
593.339	65518.36971
593.514	65488.63293
593.689	65411.00073
593.864	65493.20587
594.038	65520.6584
594.213	65413.28114
594.388	65495.4926
594.562	65472.63323
594.737	65411.00073
594.912	65490.91931
595.086	65548.13662
595.261	65500.0666
595.436	65429.24892
595.61	65449.79149
595.785	65442.94239
595.959	65438.3772
596.134	65479.48918
596.309	65477.20369
596.483	65484.0607
596.658	65472.63323
596.832	65500.0666
597.007	65374.53764
597.181	65532.10452
597.356	65447.50828
597.53	65536.68423
597.704	65509.21673
597.879	65468.06347
598.053	65472.63323
598.228	65385.92761
598.402	65383.64927
598.576	65484.0607
598.751	65399.60126
598.925	65458.92608
599.1	65458.92608
599.274	65504.64131
599.448	65470.34826
599.622	65376.81529
599.797	65454.35843
599.971	65454.35843
600.145	65331.29495
600.32	65426.96729
600.494	65452.07487
600.668	65404.16052
600.842	65392.76365
601.016	65502.35387
601.191	65404.16052
601.365	65195.13976
601.539	65424.68583
601.713	65458.92608
601.887	65367.70574
602.061	65484.0607
602.235	65406.44042
602.409	65477.20369
602.583	65415.56173
602.758	65538.97435
602.932	65477.20369
603.106	65541.26464
603.28	65490.91931
603.454	65445.22525
603.628	65399.60126
603.802	65495.4926
603.976	65479.48918
604.149	65461.21016
604.323	65415.56173
604.497	65493.20587
604.671	65411.00073
604.845	65445.22525
605.019	65484.0607
605.193	65495.4926
605.367	65408.72049
605.541	65440.65971
605.714	65385.92761
605.888	65395.04268
606.062	65465.77886
606.236	65568.76225
606.41	65351.77062
606.583	65477.20369
606.757	65500.0666
606.931	65445.22525
607.105	65479.48918
607.278	65484.0607
607.452	65529.81494
607.626	65395.04268
607.799	65479.48918
607.973	65497.77951
608.147	65438.3772
608.32	65495.4926
608.494	65449.79149
608.668	65477.20369
608.841	65376.81529
609.015	65388.20611
609.188	65440.65971
609.362	65550.42764
609.535	65463.49442
609.709	65488.63293
609.882	65452.07487
610.056	65424.68583
610.229	65454.35843
610.403	65456.64217
610.576	65351.77062
610.75	65424.68583
610.923	65454.35843
611.097	65511.50471
611.27	65379.09311
611.443	65445.22525
611.617	65545.84578
611.79	65550.42764
611.963	65442.94239
612.137	65454.35843
612.31	65449.79149
612.483	65477.20369
612.657	65461.21016
612.83	65518.36971
613.003	65516.0812
613.177	65477.20369
613.35	65495.4926
613.523	65454.35843
613.696	65431.53073
613.869	65568.76225
614.043	65406.44042
614.216	65454.35843
614.389	65493.20587
614.562	65415.56173
614.735	65470.34826
614.908	65479.48918
615.082	65413.28114
615.255	65458.92608
615.428	65422.40454
615.601	65500.0666
615.774	65472.63323
615.947	65426.96729
616.12	65331.29495
616.293	65367.70574
616.466	65381.3711
616.639	65399.60126
616.812	65431.53073
616.985	65349.49487
617.158	65429.24892
617.331	65447.50828
617.504	65426.96729
617.677	65504.64131
617.85	65458.92608
618.022	65472.63323
618.195	65454.35843
618.368	65390.4848
618.541	65376.81529
618.714	65456.64217
618.887	65445.22525
619.059	65411.00073
619.232	65454.35843
619.405	65297.19945
619.578	65326.74667
619.751	65436.09487
619.923	65413.28114
620.096	65344.94386
620.269	65365.42878
620.441	65415.56173
620.614	65456.64217
620.787	65383.64927
620.96	65397.32188
621.132	65301.74331
621.305	65274.49026
621.477	65331.29495
621.65	65417.84249
621.823	65431.53073
621.995	65326.74667
622.168	65335.8439
622.34	65338.11864
622.513	65349.49487
622.685	65344.94386
622.858	65326.74667
623.03	65385.92761
623.203	65413.28114
623.375	65365.42878
623.548	65406.44042
623.72	65338.11864
623.893	65340.39354
624.065	65363.15199
624.238	65356.32266
624.41	65456.64217
624.582	65294.92777
624.755	65372.26017
624.927	65349.49487
625.1	65342.66862
625.272	65415.56173
625.444	65308.56038
625.617	65222.32271
625.789	65299.4713
625.961	65360.87537
626.133	65297.19945
626.306	65283.57191
626.478	65283.57191
626.65	65267.68078
626.822	65349.49487
626.995	65247.26139
627.167	65258.60382
627.339	65329.02073
627.511	65220.05655
627.683	65258.60382
627.855	65229.12217
628.027	65308.56038
628.2	65242.72558
628.372	65267.68078
628.544	65269.95044
628.716	65267.68078
628.888	65244.9934
629.06	65181.55719
629.232	65344.94386
629.404	65269.95044
629.576	65186.08405
629.748	65285.84275
629.92	65147.62658
630.092	65136.32454
630.264	65233.65598
630.436	65310.83307
630.608	65242.72558
630.78	65238.19045
630.952	65281.30125
631.124	65204.1981
631.295	65226.85552
631.467	65279.03075
631.639	65195.13976
631.811	65274.49026
631.983	65254.06635
632.155	65254.06635
632.326	65249.52954
632.498	65244.9934
632.67	65254.06635
632.842	65288.11375
633.014	65233.65598
633.185	65177.03098
633.357	65265.41129
633.529	65138.58462
633.7	65172.50543
633.872	65288.11375
634.044	65290.38492
634.215	65179.294
634.387	65254.06635
634.559	65331.29495
634.73	65274.49026
634.902	65322.19908
635.074	65258.60382
635.245	65249.52954
635.417	65272.22026
635.588	65186.08405
635.76	65331.29495
635.931	65317.65217
636.103	65331.29495
636.274	65226.85552
636.446	65279.03075
636.617	65213.25908
636.789	65306.28785
636.96	65299.4713
637.132	65319.92554
637.303	65308.56038
637.474	65340.39354
637.646	65258.60382
637.817	65333.56934
637.989	65285.84275
638.16	65344.94386
638.331	65367.70574
638.503	65231.38899
638.674	65263.14196
638.845	65367.70574
639.017	65279.03075
639.188	65281.30125
639.359	65369.98287
639.53	65356.32266
639.702	65285.84275
639.873	65365.42878
640.044	65329.02073
640.215	65340.39354
640.387	65240.45793
640.558	65222.32271
640.729	65195.13976
640.9	65224.58903
641.071	65235.92313
641.242	65240.45793
641.413	65251.79786
641.585	65297.19945
641.756	65224.58903
641.927	65351.77062
642.098	65276.76042
642.269	65274.49026
642.44	65340.39354
642.611	65267.68078
642.782	65274.49026
642.953	65183.82054
643.124	65226.85552
643.295	65349.49487
643.466	65215.52474
643.637	65279.03075
643.808	65260.87281
643.979	65192.87558
644.15	65165.71833
644.32	65220.05655
644.491	65238.19045
644.662	65385.92761
644.833	65263.14196
645.004	65229.12217
645.175	65272.22026
645.346	65208.72826
645.516	65301.74331
645.687	65254.06635
645.858	65256.335
646.029	65206.46309
646.199	65288.11375
646.37	65249.52954
646.541	65313.10593
646.712	65186.08405
646.882	65233.65598
647.053	65265.41129
647.224	65260.87281
647.394	65247.26139
647.565	65251.79786
647.736	65290.38492
647.906	65324.47279
648.077	65251.79786
648.248	65322.19908
648.418	65294.92777
648.589	65338.11864
648.759	65279.03075
648.93	65281.30125
649.1	65340.39354
649.271	65208.72826
649.441	65217.79056
649.612	65290.38492
649.782	65215.52474
649.953	65197.4041
650.123	65249.52954
650.294	65190.61158
650.464	65231.38899
650.635	64938.06279
650.805	65254.06635
650.975	65127.28582
651.146	65290.38492
651.316	65244.9934
651.487	65274.49026
651.657	65276.76042
651.827	65208.72826
651.998	65331.29495
652.168	65217.79056
652.338	65281.30125
652.508	65347.21928
652.679	65269.95044
652.849	65190.61158
653.019	65226.85552
653.189	65222.32271
653.36	65235.92313
653.53	65331.29495
653.7	65238.19045
653.87	65351.77062
654.04	65285.84275
654.211	65304.0155
654.381	65208.72826
654.551	65322.19908
654.721	65231.38899
654.891	65306.28785
655.061	65229.12217
655.231	65340.39354
655.401	65354.04655
655.571	65319.92554
655.741	65238.19045
655.911	65285.84275
656.081	65224.58903
656.251	65356.32266
656.421	65251.79786
656.591	65347.21928
656.761	65263.14196
656.931	65388.20611
657.101	65354.04655
657.271	65299.4713
657.441	65276.76042
657.611	65390.4848
657.781	65281.30125
657.951	65324.47279
658.121	65263.14196
658.291	65258.60382
658.46	65365.42878
658.63	65292.65626
658.8	65319.92554
658.97	65288.11375
659.14	65235.92313
659.309	65315.37897
659.479	65269.95044
659.649	65344.94386
659.819	65260.87281
659.988	65381.3711
660.158	65413.28114
660.328	65292.65626
660.497	65356.32266
660.667	65342.66862
660.837	65292.65626
661.006	65272.22026
661.176	65431.53073
661.346	65322.19908
661.515	65363.15199
661.685	65367.70574
661.854	65324.47279
662.024	65351.77062
662.194	65313.10593
662.363	65301.74331
662.533	65354.04655
662.702	65449.79149
662.872	65399.60126
663.041	65290.38492
663.211	65436.09487
663.38	65493.20587
663.55	65356.32266
663.719	65351.77062
663.889	65474.91837
664.058	65431.53073
664.227	65376.81529
664.397	65363.15199
664.566	65360.87537
664.735	65449.79149
664.905	65411.00073
665.074	65411.00073
665.244	65395.04268
665.413	65458.92608
665.582	65372.26017
665.751	65406.44042
665.921	65408.72049
666.09	65417.84249
666.259	65369.98287
666.428	65413.28114
666.598	65417.84249
666.767	65360.87537
666.936	65369.98287
667.105	65349.49487
667.275	65401.8808
667.444	65399.60126
667.613	65306.28785
667.782	65458.92608
667.951	65363.15199
668.12	65390.4848
668.289	65401.8808
668.458	65354.04655
668.628	65456.64217
668.797	65424.68583
668.966	65440.65971
669.135	65322.19908
669.304	65392.76365
669.473	65392.76365
669.642	65420.12343
669.811	65422.40454
669.98	65374.53764
670.149	65351.77062
670.318	65468.06347
670.487	65436.09487
670.656	65381.3711
670.824	65426.96729
670.993	65477.20369
671.162	65379.09311
671.331	65365.42878
671.5	65429.24892
671.669	65449.79149
671.838	65465.77886
672.007	65399.60126
672.175	65415.56173
672.344	65426.96729
672.513	65285.84275
672.682	65461.21016
672.85	65376.81529
673.019	65344.94386
673.188	65319.92554
673.357	65374.53764
673.525	65465.77886
673.694	65465.77886
673.863	65415.56173
674.032	65376.81529
674.2	65442.94239
674.369	65442.94239
674.537	65385.92761
674.706	65481.77486
674.875	65433.81271
675.043	65413.28114
675.212	65399.60126
675.381	65399.60126
675.549	65454.35843
675.718	65472.63323
675.886	65424.68583
676.055	65495.4926
676.223	65468.06347
676.392	65404.16052
676.56	65417.84249
676.729	65429.24892
676.897	65490.91931
677.066	65454.35843
677.234	65452.07487
677.403	65555.01021
677.571	65458.92608
677.739	65449.79149
677.908	65472.63323
678.076	65424.68583
678.244	65438.3772
678.413	65488.63293
678.581	65420.12343
678.75	65474.91837
678.918	65479.48918
679.086	65463.49442
679.254	65557.30176
679.423	65367.70574
679.591	65463.49442
679.759	65458.92608
679.928	65486.34673
680.096	65438.3772
680.264	65472.63323
680.432	65433.81271
680.6	65461.21016
680.769	65413.28114
680.937	65513.79286
681.105	65413.28114
681.273	65411.00073
681.441	65465.77886
681.609	65358.59893
681.777	65465.77886
681.945	65431.53073
682.114	65488.63293
682.282	65440.65971
682.45	65472.63323
682.618	65500.0666
682.786	65557.30176
682.954	65452.07487
683.122	65281.30125
683.29	65379.09311
683.458	65486.34673
683.626	65481.77486
683.794	65452.07487
683.962	65571.05489
684.13	65397.32188
684.298	65511.50471
684.465	65445.22525
684.633	65500.0666
684.801	65513.79286
684.969	65488.63293
685.137	65408.72049
685.305	65509.21673
685.473	65449.79149
685.64	65509.21673
685.808	65587.10841
685.976	65381.3711
686.144	65536.68423
686.312	65367.70574
686.479	65529.81494
686.647	65520.6584
686.815	65479.48918
686.983	65497.77951
687.15	65461.21016
687.318	65495.4926
687.486	65463.49442
687.653	65449.79149
687.821	65502.35387
687.989	65452.07487
688.156	65543.55512
688.324	65518.36971
688.492	65461.21016
688.659	65605.46619
688.827	65433.81271
688.994	65527.52554
689.162	65509.21673
689.329	65401.8808
689.497	65529.81494
689.665	65571.05489
689.832	65458.92608
690	65440.65971
690.167	65538.97435
690.335	65500.0666
690.502	65522.94726
690.669	65458.92608
690.837	65502.35387
691.004	65411.00073
691.172	65408.72049
691.339	65392.76365
691.507	65561.88542
691.674	65527.52554
691.841	65536.68423
692.009	65575.6407
692.176	65490.91931
692.343	65536.68423
692.511	65497.77951
692.678	65504.64131
692.845	65490.91931
693.013	65545.84578
693.18	65456.64217
693.347	65477.20369
693.514	65580.22725
693.682	65479.48918
693.849	65525.23631
694.016	65504.64131
694.183	65436.09487
694.35	65619.24216
694.518	65532.10452
694.685	65534.39429
694.852	65529.81494
695.019	65623.83561
695.186	65493.20587
695.353	65415.56173
695.52	65470.34826
695.687	65465.77886
695.855	65484.0607
696.022	65481.77486
696.189	65527.52554
696.356	65545.84578
696.523	65596.28585
696.69	65413.28114
696.857	65623.83561
697.024	65452.07487
697.191	65543.55512
697.358	65454.35843
697.525	65436.09487
697.692	65486.34673
697.858	65561.88542
698.025	65470.34826
698.192	65474.91837
698.359	65575.6407
698.526	65486.34673
698.693	65493.20587
698.86	65536.68423
699.027	65516.0812
699.193	65582.52079
699.36	65536.68423
699.527	65548.13662
699.694	65571.05489
699.861	65571.05489
700.027	65413.28114
700.194	65458.92608
700.361	65474.91837
700.528	65465.77886
700.694	65520.6584
700.861	65557.30176
701.028	65488.63293
701.195	65488.63293
701.361	65479.48918
701.528	65527.52554
701.694	65470.34826
701.861	65596.28585
702.028	65397.32188
702.194	65456.64217
702.361	65527.52554
702.528	65525.23631
702.694	65518.36971
702.861	65372.26017
703.027	65486.34673
703.194	65543.55512
703.36	65488.63293
703.527	65587.10841
703.693	65433.81271
703.86	65422.40454
704.026	65511.50471
704.193	65662.90959
704.359	65509.21673
704.526	65559.5935
