Data from mildly cloudy_Subt2__2__14-15-27-153.txt Node

Date: Mon Oct 13 14:15:27 EDT 2025
User: brett
Spectrometer: USB4F03499
Trigger mode: 4
Integration Time (sec): 8.500000E-4
Scans to average: 1
Electric dark correction enabled: true
Nonlinearity correction enabled: true
Boxcar width: 0
XAxis mode: Wavelengths
Number of Pixels in Spectrum: 3648
>>>>>Begin Spectral Data<<<<<
345.386	65.83672
345.605	65.83672
345.824	65.83672
346.044	81.70106
346.263	62.43752
346.482	-40.22795
346.701	-22.19893
346.92	-3.00857
347.139	-4.13975
347.358	3.75984
347.577	-16.54265
347.796	19.56251
348.015	34.24968
348.234	-16.54968
348.453	-10.905
348.672	25.19432
348.891	30.85096
349.11	13.91489
349.329	316.83304
349.548	1137.54132
349.767	1050.0676
349.986	1162.2657
350.205	1078.16899
350.424	1144.73922
350.643	1173.43338
350.862	1194.00425
351.08	1096.88676
351.299	1086.17112
351.518	1119.59025
351.737	1258.88423
351.956	1182.74221
352.174	1217.24793
352.393	1252.36452
352.612	1291.23832
352.831	1243.78168
353.049	1295.14833
353.268	1265.1011
353.487	1363.34657
353.705	1282.60401
353.924	1387.75238
354.143	1392.57402
354.361	1489.35115
354.58	1449.49542
354.798	1544.68269
355.017	1436.22985
355.236	1562.50354
355.454	1551.25965
355.673	1657.42631
355.891	1550.59686
356.11	1624.27406
356.328	1570.60012
356.547	1615.4406
356.765	1609.67076
356.984	1670.42165
357.202	1744.24842
357.42	1777.83175
357.639	1675.53529
357.857	1690.44362
358.076	1644.63203
358.294	1693.39032
358.512	1721.0084
358.731	1688.06297
358.949	1594.06211
359.167	1751.64228
359.386	1714.21927
359.604	1684.69451
359.822	1767.61214
360.04	1879.47921
360.259	1828.10657
360.477	1865.58343
360.695	1773.63464
360.913	1849.3172
361.131	1815.21161
361.35	1903.04739
361.568	1854.5884
361.786	1876.80525
362.004	1886.71466
362.222	1959.86088
362.44	1894.19019
362.658	1909.90509
362.876	1853.35811
363.094	1949.65651
363.312	1861.77955
363.53	1921.93465
363.749	1917.25418
363.967	1923.3752
364.184	1898.00686
364.402	1984.40801
364.62	2007.11054
364.838	1961.37375
365.056	2053.11367
365.274	2168.35719
365.492	2063.79563
365.71	2167.31032
365.928	2247.34597
366.146	2431.7872
366.364	2309.8197
366.581	2313.18013
366.799	2379.51976
367.017	2452.55513
367.235	2547.09369
367.453	2720.45243
367.67	2622.87344
367.888	2753.27603
368.106	2639.1113
368.323	2784.90921
368.541	2821.82518
368.759	2851.05716
368.977	2848.73288
369.194	2901.13339
369.412	3038.34146
369.629	3102.06814
369.847	2958.48377
370.065	3102.8462
370.282	3169.07457
370.5	3182.25351
370.717	3243.2362
370.935	3269.24399
371.152	3339.96171
371.37	3358.25793
371.588	3361.13563
371.805	3511.02663
372.022	3489.21118
372.24	3623.12373
372.457	3431.61487
372.675	3552.41207
372.892	3601.6076
373.11	3605.62757
373.327	3619.23513
373.544	3590.59842
373.762	3582.38363
373.979	3643.30593
374.196	3605.53197
374.414	3646.34027
374.631	3552.22344
374.848	3639.65803
375.066	3579.56643
375.283	3461.2429
375.5	3444.5046
375.717	3538.02609
375.935	3617.28401
376.152	3645.88014
376.369	3638.98369
376.586	3664.27193
376.803	3463.73846
377.02	3629.20464
377.238	3627.29104
377.455	3545.56154
377.672	3770.01985
377.889	3697.43696
378.106	3613.49603
378.323	3789.70299
378.54	3777.12879
378.757	3652.05538
378.974	3642.99531
379.191	3808.97163
379.408	3820.79062
379.625	3844.55404
379.842	3744.23434
380.059	3933.92245
380.276	3937.59239
380.493	3779.33868
380.71	3961.0791
380.927	3906.52521
381.143	3911.12134
381.36	4024.46065
381.577	4037.12552
381.794	4048.508
382.011	3958.82174
382.228	4059.50174
382.444	4117.98388
382.661	4112.2356
382.878	4220.06852
383.095	4130.38208
383.311	4172.65489
383.528	4038.64901
383.745	4053.73629
383.962	4127.81564
384.178	4143.5963
384.395	4132.63953
384.612	4093.77981
384.828	4085.99104
385.045	4098.07166
385.261	4053.95424
385.478	4141.48963
385.695	4096.73818
385.911	4124.32581
386.128	4114.27726
386.344	4076.13763
386.561	4125.49121
386.777	4027.06224
386.994	4064.03494
387.21	3889.58941
387.427	3910.82177
387.643	3962.37676
387.86	3965.7363
388.076	3871.62788
388.292	3879.02976
388.509	3633.24134
388.725	4057.94259
388.942	3985.51479
389.158	3950.44148
389.374	4005.38138
389.591	3843.78138
389.807	3950.82198
390.023	4045.7696
390.239	3957.99777
390.456	4145.76282
390.672	4036.91061
390.888	3966.42034
391.104	4166.77234
391.321	4255.86378
391.537	4440.5791
391.753	4305.18863
391.969	4545.05923
392.185	4595.97252
392.401	4584.69466
392.618	4599.17977
392.834	4504.31044
393.05	4869.5891
393.266	4711.01987
393.482	4709.47309
393.698	4657.67925
393.914	4624.21835
394.13	4767.80932
394.346	4497.47938
394.562	4583.30675
394.778	4630.88161
394.994	4732.4906
395.21	4854.16299
395.426	4866.77007
395.642	4944.87661
395.858	5075.91626
396.073	4906.96805
396.289	4912.95083
396.505	5122.05105
396.721	5021.45009
396.937	5152.19873
397.153	4773.65971
397.369	4913.50458
397.584	5150.60643
397.8	5061.09841
398.016	4986.1603
398.232	5209.98136
398.447	5028.74875
398.663	5142.29736
398.879	5058.39814
399.094	5285.007
399.31	5225.4303
399.526	5049.9441
399.741	5328.97961
399.957	5329.83156
400.173	5206.42396
400.388	5287.57606
400.604	5430.97879
400.82	5474.13266
401.035	5711.12475
401.251	5691.73866
401.466	5738.01926
401.682	6038.36788
401.897	6149.4019
402.113	6120.19802
402.328	6351.40317
402.544	6386.51606
402.759	6410.44913
402.974	6648.34904
403.19	6635.78283
403.405	7172.54435
403.621	7396.40745
403.836	7349.19415
404.051	7546.71296
404.267	7627.10744
404.482	7571.429
404.697	7469.04174
404.913	7619.13316
405.128	8161.05919
405.343	7935.25848
405.559	8014.0424
405.774	8084.7668
405.989	8577.3622
406.204	8584.34213
406.42	8511.83367
406.635	8710.0505
406.85	8668.12541
407.065	8791.34007
407.28	9009.07314
407.495	9038.67204
407.71	8701.15516
407.926	8790.9254
408.141	9481.26797
408.356	9087.86721
408.571	9209.04589
408.786	8995.48285
409.001	9191.38033
409.216	9405.62866
409.431	9440.16977
409.646	9267.45381
409.861	9304.0645
410.076	9233.83993
410.291	9291.27525
410.506	9555.44844
410.721	9208.3465
410.936	9443.21721
411.15	9203.25287
411.365	9519.70276
411.58	9590.52032
411.795	9388.53271
412.01	9863.98919
412.225	9495.52354
412.439	9222.96492
412.654	9454.38935
412.869	9410.14058
413.084	9622.13349
413.299	9699.58716
413.513	9264.73822
413.728	9251.57241
413.943	9583.78926
414.157	9745.70039
414.372	9660.94676
414.587	9856.15769
414.801	10119.79709
415.016	10014.72879
415.231	10028.58728
415.445	9948.82354
415.66	9972.75626
415.874	10245.78994
416.089	10000.49345
416.304	10480.75588
416.518	10078.33633
416.733	10365.56696
416.947	9990.74634
417.162	10079.4646
417.376	10483.80977
417.59	10668.66285
417.805	10658.1327
418.019	10480.59961
418.234	10320.14969
418.448	10009.66673
418.663	10498.99935
418.877	10287.80132
419.091	10519.64545
419.306	10525.42405
419.52	10615.15106
419.734	10432.45078
419.949	10797.77259
420.163	11006.19064
420.377	10448.55621
420.591	10577.77949
420.806	10738.65768
421.02	10561.00589
421.234	10759.03665
421.448	10767.25942
421.663	10848.11478
421.877	10604.45387
422.091	10576.40821
422.305	10419.89882
422.519	10573.23479
422.733	11192.53394
422.947	10497.80959
423.161	10577.64333
423.376	10733.19033
423.59	10764.96304
423.804	10818.77449
424.018	10874.33758
424.232	10798.81375
424.446	11104.05943
424.66	10829.20383
424.874	10818.50027
425.088	10515.2787
425.302	10686.44147
425.515	11112.87639
425.729	11146.60527
425.943	11162.92229
426.157	11216.28308
426.371	10979.24894
426.585	10974.05899
426.799	11112.48189
427.013	11734.2939
427.226	11651.90775
427.44	11079.26012
427.654	11027.62901
427.868	11010.47801
428.081	11181.64351
428.295	11063.46466
428.509	11155.73144
428.723	10988.81871
428.936	10924.3087
429.15	10654.44059
429.364	11035.11758
429.577	10498.00771
429.791	10652.59144
430.005	11266.92795
430.218	11013.13205
430.432	10550.52279
430.645	10543.61749
430.859	10684.90642
431.073	10693.21627
431.286	11120.03204
431.5	11152.16658
431.713	10484.46956
431.927	10518.10775
432.14	10718.21015
432.354	10603.21581
432.567	10678.78876
432.781	10899.23253
432.994	11038.2772
433.207	11184.73791
433.421	11245.81598
433.634	11038.82908
433.848	11298.42806
434.061	10938.42581
434.274	10479.29732
434.488	10641.30782
434.701	10604.28109
434.914	10637.85757
435.127	11130.52729
435.341	11130.08622
435.554	11061.58501
435.767	11524.29336
435.98	11473.07099
436.194	10902.52624
436.407	10885.84325
436.62	12076.04961
436.833	11629.39663
437.046	11370.37643
437.259	11218.81498
437.473	11694.48216
437.686	11832.12044
437.899	11556.85729
438.112	11996.4286
438.325	11657.51027
438.538	11760.39264
438.751	12422.8185
438.964	11831.09353
439.177	12031.69372
439.39	12062.40751
439.603	12857.20358
439.816	12589.0992
440.029	13178.22096
440.242	13619.92939
440.455	13667.35227
440.668	13404.34997
440.881	12690.30424
441.094	12476.87951
441.306	13307.2056
441.519	14038.15641
441.732	13861.88072
441.945	13762.09471
442.158	13248.41652
442.37	13160.12882
442.583	14146.50915
442.796	14479.74129
443.009	14326.3835
443.222	13776.32202
443.434	13212.39289
443.647	14428.73015
443.86	15040.09889
444.072	15268.83263
444.285	14628.20643
444.498	14903.57249
444.71	14408.22287
444.923	14681.27797
445.136	14485.685
445.348	14234.18316
445.561	14202.40221
445.773	14459.16575
445.986	13563.83258
446.198	14777.39644
446.411	14905.10262
446.623	14996.43928
446.836	14914.17857
447.048	15241.95509
447.261	15678.27756
447.473	15702.66093
447.686	14900.18039
447.898	15211.89199
448.11	16093.36528
448.323	16447.88546
448.535	15992.61365
448.748	15091.25776
448.96	15421.22068
449.172	15487.62577
449.385	14778.85507
449.597	15672.10564
449.809	15804.84076
450.021	16186.44348
450.234	16253.07809
450.446	15251.71073
450.658	15400.17903
450.87	15591.56792
451.083	15941.52298
451.295	15865.68864
451.507	15867.07993
451.719	15733.72336
451.931	16141.06352
452.143	16092.63806
452.356	15836.05469
452.568	16021.09229
452.78	15930.26012
452.992	16441.99979
453.204	16623.73491
453.416	16207.57953
453.628	15449.38708
453.84	15819.5451
454.052	15753.17666
454.264	16541.63719
454.476	16301.02144
454.688	17136.78316
454.9	17452.25022
455.112	16255.90708
455.324	15879.02234
455.536	16448.24062
455.747	16855.09182
455.959	16858.55247
456.171	17130.97501
456.383	16580.43487
456.595	15971.54098
456.807	16171.37785
457.018	15867.66802
457.23	16703.16561
457.442	16394.69599
457.654	16756.54354
457.865	16540.77181
458.077	15973.34512
458.289	15914.24215
458.501	16325.9174
458.712	17127.38234
458.924	17739.52903
459.136	16754.27078
459.347	16271.81516
459.559	16384.72774
459.77	17234.29823
459.982	17419.39535
460.194	17290.78154
460.405	16432.03064
460.617	16577.294
460.828	17301.75782
461.04	17351.60795
461.251	16647.25968
461.463	18043.82878
461.674	17741.52561
461.886	17265.49028
462.097	16849.63214
462.309	17724.92584
462.52	16641.21111
462.731	18239.62251
462.943	17131.08945
463.154	16835.59168
463.366	16942.5577
463.577	17749.03021
463.788	18112.35262
464	18222.179
464.211	18377.33483
464.422	19326.36166
464.634	18913.74574
464.845	18644.01136
465.056	18981.92777
465.267	18711.51775
465.478	17908.72966
465.69	18864.0138
465.901	18524.66725
466.112	18716.71053
466.323	18949.46374
466.534	19348.42935
466.745	19293.21766
466.957	19411.15582
467.168	19245.70739
467.379	19154.54616
467.59	18585.87078
467.801	18278.17937
468.012	18927.25168
468.223	19297.01616
468.434	18796.35257
468.645	20089.97844
468.856	20194.84044
469.067	19627.29247
469.278	19745.14268
469.489	20037.63903
469.7	19031.11966
469.911	19186.24238
470.122	20609.94836
470.333	21124.38043
470.543	19783.95488
470.754	20408.23694
470.965	20515.98779
471.176	20689.45501
471.387	21434.58906
471.598	20606.98068
471.808	20217.31781
472.019	20665.16899
472.23	20989.16689
472.441	20130.1057
472.651	21014.7885
472.862	20664.6617
473.073	21611.60872
473.283	21183.13928
473.494	20665.7686
473.705	21042.58628
473.915	21342.3124
474.126	21987.76196
474.337	21777.34889
474.547	22252.05493
474.758	22622.30068
474.968	22412.16813
475.179	22450.38187
475.389	22137.21917
475.6	22608.38409
475.81	22839.31718
476.021	23255.13773
476.231	23297.61525
476.442	23196.7673
476.652	22620.96007
476.863	23016.77449
477.073	22807.87465
477.284	23532.08097
477.494	23583.43931
477.704	24663.24379
477.915	25184.63495
478.125	23760.74438
478.335	24486.17868
478.546	25216.3339
478.756	24910.13842
478.966	25394.20305
479.177	25220.48065
479.387	25549.76812
479.597	25626.48696
479.807	25779.80836
480.018	25564.82015
480.228	26030.80491
480.438	26042.08969
480.648	26626.05744
480.858	26707.87416
481.068	26085.34405
481.279	26747.1846
481.489	27845.78377
481.699	27402.16938
481.909	27157.69146
482.119	28931.60591
482.329	28523.18829
482.539	28361.40144
482.749	27950.54508
482.959	28626.87434
483.169	29372.02635
483.379	29234.20212
483.589	29656.75429
483.799	29440.999
484.009	29079.73912
484.219	29479.55966
484.429	29910.83425
484.639	29563.40616
484.849	29914.09677
485.059	30594.08184
485.268	30445.26537
485.478	31069.63832
485.688	30116.37613
485.898	30166.7194
486.108	30857.00877
486.317	31124.64971
486.527	31122.25936
486.737	31584.97385
486.947	31448.74319
487.156	32041.84095
487.366	31443.20792
487.576	30979.28385
487.785	31159.63323
487.995	31050.6032
488.205	31801.24956
488.414	31926.74683
488.624	31739.34444
488.834	31503.36869
489.043	31288.7323
489.253	31425.09755
489.462	31579.15024
489.672	32149.13548
489.882	32219.39546
490.091	32527.53764
490.301	32193.48981
490.51	32373.86284
490.72	32406.32052
490.929	32507.71777
491.138	32919.93063
491.348	32556.10383
491.557	32701.48398
491.767	33010.13604
491.976	32688.53245
492.185	32817.96641
492.395	32495.06019
492.604	32774.61292
492.813	32857.50126
493.023	33185.09127
493.232	33057.01719
493.441	32948.27482
493.651	33368.43032
493.86	32826.40213
494.069	33324.72019
494.278	33574.55345
494.488	33456.0992
494.697	33435.9038
494.906	33340.466
495.115	33737.03815
495.324	33613.32287
495.533	33883.87008
495.743	33937.67859
495.952	34215.54045
496.161	34130.77111
496.37	34301.68802
496.579	34401.73824
496.788	34456.25157
496.997	34684.75033
497.206	34483.15125
497.415	34502.69211
497.624	34589.81787
497.833	34686.46499
498.042	34777.00227
498.251	34824.26205
498.46	34879.9122
498.669	34864.88454
498.878	34870.37852
499.087	34814.37366
499.296	35025.21804
499.504	34992.74236
499.713	35040.74574
499.922	35096.83368
500.131	35049.56078
500.34	35133.94807
500.549	35136.32175
500.757	35093.26724
500.966	35223.51505
501.175	35138.50725
501.384	35249.23898
501.592	35123.22263
501.801	35262.09947
502.01	35183.50346
502.218	35176.54776
502.427	35272.62517
502.636	35183.30789
502.844	35231.72509
503.053	35217.86529
503.262	35221.56875
503.47	35240.58571
503.679	35182.22328
503.887	35144.50663
504.096	35137.02799
504.304	35150.45075
504.513	35197.83433
504.721	35162.57741
504.93	35149.64833
505.138	35137.38173
505.347	35165.6126
505.555	35149.67996
505.764	35184.27708
505.972	35169.86095
506.18	35043.61495
506.389	35173.21783
506.597	34919.14053
506.806	35180.59172
507.014	35123.23391
507.222	35035.85128
507.431	35018.49998
507.639	34989.49367
507.847	35101.35102
508.055	35114.86473
508.264	35086.1356
508.472	35117.17065
508.68	35096.00341
508.888	35193.03435
509.096	35163.59141
509.305	35175.97079
509.513	35136.62773
509.721	35089.13152
509.929	35110.33305
510.137	35165.02167
510.345	35140.29549
510.553	35140.17758
510.762	35140.4645
510.97	35108.02603
511.178	35075.79362
511.386	35221.05481
511.594	35160.3231
511.802	35257.41498
512.01	35221.85413
512.218	35273.22397
512.426	35230.07795
512.634	35289.80203
512.842	35261.79955
513.049	35248.96661
513.257	35231.47837
513.465	35284.96786
513.673	35220.27814
513.881	35310.91894
514.089	35295.93943
514.297	35264.83175
514.504	35297.77374
514.712	35286.37486
514.92	35261.45803
515.128	35386.84252
515.336	35236.18941
515.543	35303.08921
515.751	35243.83459
515.959	35272.37042
516.166	35220.54205
516.374	35239.22159
516.582	35200.69723
516.789	35177.47778
516.997	35180.35267
517.205	35131.88235
517.412	35146.11174
517.62	35143.73501
517.827	35084.64934
518.035	35014.2397
518.243	34998.71192
518.45	34919.67198
518.658	34818.65485
518.865	34771.38482
519.073	34741.06419
519.28	34694.60604
519.488	34722.4082
519.695	34571.64271
519.902	34571.7611
520.11	34590.43081
520.317	34681.41564
520.525	34507.38175
520.732	34372.15938
520.939	34482.79068
521.147	34216.00574
521.354	34442.1099
521.561	34279.29649
521.769	34433.27181
521.976	34106.83422
522.183	34362.1219
522.391	34005.72538
522.598	34201.19512
522.805	34084.30588
523.012	34166.74034
523.219	34172.4906
523.427	34253.34843
523.634	34231.61776
523.841	34205.51904
524.048	34183.17892
524.255	34283.16106
524.462	34074.90127
524.669	33993.05227
524.877	34255.9334
525.084	33952.35048
525.291	33902.18984
525.498	34139.8044
525.705	34146.31816
525.912	34343.35817
526.119	34185.67527
526.326	34253.76269
526.533	34337.30721
526.74	34491.04556
526.947	34284.82011
527.153	34430.94789
527.36	34471.32995
527.567	34433.32109
527.774	34368.37653
527.981	34235.9155
528.188	34269.25914
528.395	34410.57676
528.602	34305.00107
528.808	34347.33735
529.015	34314.4949
529.222	34358.32202
529.429	34165.5056
529.635	34466.04377
529.842	34364.55639
530.049	34235.65847
530.256	34365.75775
530.462	34457.08999
530.669	34470.98388
530.876	34372.10527
531.082	34413.30391
531.289	34339.44605
531.495	34401.96692
531.702	34475.96475
531.909	34426.01957
532.115	34515.39568
532.322	34398.40539
532.528	34354.52344
532.735	34430.23324
532.941	34467.95521
533.148	34308.62343
533.354	34467.61819
533.561	34406.28069
533.767	34332.78956
533.974	34178.8406
534.18	34361.41354
534.387	34217.0291
534.593	34225.92421
534.799	34096.68672
535.006	34314.98151
535.212	34121.79376
535.418	34169.70155
535.625	34256.01039
535.831	34228.73075
536.037	34158.18152
536.244	34073.59367
536.45	33824.9347
536.656	34054.56364
536.862	34119.02189
537.068	34129.95404
537.275	34241.65123
537.481	34257.85948
537.687	34279.23337
537.893	34377.77659
538.099	34193.62224
538.305	34128.38245
538.512	34184.54515
538.718	34142.21584
538.924	34119.53843
539.13	33895.55085
539.336	34236.68444
539.542	34067.6627
539.748	34155.98646
539.954	33953.41125
540.16	34054.66476
540.366	33976.37727
540.572	34047.96024
540.778	33909.38023
540.984	33751.41134
541.19	33936.35911
541.396	33759.84909
541.602	33827.24485
541.807	33815.59176
542.013	33922.55302
542.219	33655.30707
542.425	33718.25675
542.631	33501.08147
542.837	33538.2701
543.042	33465.55163
543.248	33491.27858
543.454	33384.29504
543.66	33562.09075
543.865	33295.41167
544.071	33426.98196
544.277	33128.52931
544.483	33297.50239
544.688	33120.38867
544.894	33400.76941
545.1	33410.60935
545.305	33151.02594
545.511	33273.43009
545.716	33148.64651
545.922	32950.81833
546.128	33047.26077
546.333	32865.90873
546.539	33221.21535
546.744	33019.04435
546.95	32866.73241
547.155	32980.55899
547.361	33025.13109
547.566	32504.72777
547.772	32786.29344
547.977	32748.61439
548.182	32712.66892
548.388	32815.9944
548.593	32859.71421
548.799	32640.54289
549.004	32724.72066
549.209	32606.58161
549.415	32950.20821
549.62	32639.12571
549.825	32757.23668
550.031	32462.38827
550.236	32727.14288
550.441	32580.63037
550.646	32607.6561
550.852	32744.62499
551.057	32414.01203
551.262	32707.43805
551.467	32665.0923
551.672	32448.98218
551.878	32777.89271
552.083	32280.66251
552.288	32667.42236
552.493	32449.65956
552.698	32284.14817
552.903	32433.4289
553.108	32576.0044
553.313	32398.10813
553.518	32311.23674
553.723	32369.79199
553.928	32382.18669
554.133	32299.09359
554.338	32492.35996
554.543	32179.0328
554.748	32337.0698
554.953	32489.30093
555.158	32365.12324
555.363	32296.80333
555.568	32083.91056
555.773	32436.04589
555.978	32379.00257
556.182	32083.06069
556.387	32131.92634
556.592	32132.47144
556.797	32308.33837
557.002	32304.93406
557.206	32190.78611
557.411	32099.68301
557.616	31934.63588
557.821	32287.61921
558.025	32003.93307
558.23	32088.78948
558.435	32245.57366
558.64	31872.55548
558.844	32003.83269
559.049	31876.97917
559.253	31941.37242
559.458	31872.15661
559.663	31809.54635
559.867	31854.64839
560.072	31534.8268
560.276	31458.68229
560.481	31557.25803
560.685	31508.85058
560.89	31373.31701
561.094	31555.70492
561.299	31465.42625
561.503	30956.2744
561.708	31429.69078
561.912	31340.74082
562.117	31138.71766
562.321	30891.61257
562.525	31178.96508
562.73	31366.93193
562.934	30941.43424
563.139	30950.90252
563.343	31069.04024
563.547	30893.58066
563.752	30961.00345
563.956	31059.66404
564.16	30881.14332
564.364	30648.82628
564.569	30845.35416
564.773	30642.41275
564.977	30732.18012
565.181	30687.6079
565.385	30581.6475
565.59	30672.11606
565.794	30562.95853
565.998	30713.57104
566.202	30436.86226
566.406	30488.43971
566.61	30463.38731
566.814	30226.30019
567.018	30412.10192
567.222	30397.92144
567.426	30130.59074
567.63	30202.02122
567.834	30132.51973
568.038	30090.06602
568.242	29745.1903
568.446	29912.73594
568.65	30054.06449
568.854	29769.22562
569.058	30026.03076
569.262	29830.95417
569.466	29947.98216
569.67	29924.71229
569.874	29718.94247
570.078	29910.43854
570.281	29871.90609
570.485	29679.83101
570.689	29608.0506
570.893	29436.72054
571.097	29608.52779
571.3	29382.34936
571.504	29529.14544
571.708	29472.37872
571.912	29617.66373
572.115	29197.0143
572.319	29067.43963
572.523	29288.16408
572.726	29039.74691
572.93	29043.59895
573.133	28883.44236
573.337	29046.03851
573.541	28823.03639
573.744	28809.34209
573.948	28800.42885
574.151	28679.95584
574.355	28735.15147
574.558	28597.08861
574.762	28946.82204
574.965	28701.65189
575.169	28650.64418
575.372	28420.89809
575.576	28553.40743
575.779	28380.35335
575.983	28424.6544
576.186	28416.36396
576.389	28384.60312
576.593	28301.65234
576.796	28478.10833
577	27985.59247
577.203	28388.63381
577.406	28182.68389
577.609	28145.04013
577.813	28026.97267
578.016	28012.43412
578.219	28165.61517
578.423	27961.46185
578.626	28057.07482
578.829	27944.39733
579.032	27875.91667
579.235	27734.86523
579.438	27807.95745
579.642	27613.67192
579.845	27555.08508
580.048	27864.46958
580.251	27345.99907
580.454	27600.80584
580.657	27528.74153
580.86	27528.86576
581.063	27184.04607
581.266	27467.90078
581.469	27553.70502
581.672	27185.29247
581.875	27471.28979
582.078	27396.26927
582.281	27103.50299
582.484	27000.06191
582.687	27437.42546
582.89	27239.46937
583.093	27024.49343
583.296	27292.91334
583.499	27456.73649
583.702	27141.38132
583.904	26866.08469
584.107	27154.68113
584.31	26923.40867
584.513	26877.89685
584.716	27138.9986
584.918	26975.44219
585.121	26838.24044
585.324	26765.62253
585.527	26754.33224
585.729	27001.40881
585.932	26705.17182
586.135	26892.45259
586.337	26576.38013
586.54	26659.64939
586.743	26661.53534
586.945	26685.89166
587.148	26591.17673
587.35	26638.85708
587.553	26348.90972
587.755	26634.5802
587.958	26548.54019
588.161	26564.84978
588.363	26289.72253
588.566	26402.72651
588.768	26470.05442
588.971	26433.82427
589.173	26225.65003
589.375	26208.72159
589.578	26269.03421
589.78	26224.26983
589.983	26002.85667
590.185	25931.63205
590.387	25793.61626
590.59	25793.47522
590.792	25664.9725
590.994	25379.57415
591.197	25252.43262
591.399	25247.79613
591.601	25222.97884
591.803	24922.95921
592.006	24966.16093
592.208	25094.88178
592.41	24760.06273
592.612	24924.1814
592.815	24676.92928
593.017	24866.41785
593.219	24521.9187
593.421	24495.80311
593.623	24225.78845
593.825	24146.85706
594.027	24061.89523
594.229	24433.57684
594.432	24031.86709
594.634	24176.93035
594.836	23893.56747
595.038	24086.7051
595.24	23708.09227
595.442	23957.4093
595.644	23777.11693
595.846	23636.05964
596.048	23569.53559
596.249	23501.56289
596.451	23457.83541
596.653	23471.61073
596.855	23336.16528
597.057	23246.49901
597.259	23323.02446
597.461	23216.16722
597.663	23102.5796
597.864	23062.49255
598.066	23192.02145
598.268	23183.86755
598.47	23053.73619
598.671	22961.67483
598.873	23076.55324
599.075	23166.95133
599.277	23164.703
599.478	23047.14965
599.68	22915.07639
599.882	23079.23333
600.083	22938.00788
600.285	22894.78527
600.487	22978.74498
600.688	22971.82036
600.89	23024.55308
601.091	23038.0848
601.293	22873.13756
601.494	22806.93135
601.696	22859.15535
601.898	23037.07272
602.099	23017.52125
602.301	23027.54425
602.502	22693.05898
602.703	23034.44607
602.905	22859.98661
603.106	22935.73948
603.308	22754.93068
603.509	22854.36763
603.711	22747.38633
603.912	22826.31545
604.113	22668.37411
604.315	22712.94562
604.516	22632.33013
604.717	22489.93458
604.919	22646.46079
605.12	22739.12486
605.321	22847.24269
605.522	22561.6019
605.724	22637.35352
605.925	22401.42603
606.126	22787.59959
606.327	22767.60469
606.528	22612.03
606.729	22717.73641
606.931	22743.1786
607.132	22703.87146
607.333	22564.57825
607.534	22778.36989
607.735	22549.18427
607.936	22629.32481
608.137	22589.76205
608.338	22768.81754
608.539	22344.43745
608.74	22479.15559
608.941	22518.80202
609.142	22401.90418
609.343	22455.93017
609.544	22520.05951
609.745	22400.17088
609.946	22571.22263
610.147	22378.52896
610.348	22254.87762
610.549	22236.89293
610.75	22264.40486
610.95	22202.99137
611.151	22174.91199
611.352	22233.91335
611.553	22268.11199
611.754	22125.47607
611.954	22385.41341
612.155	22200.21348
612.356	22135.36485
612.557	22058.02233
612.757	22298.62408
612.958	21771.68033
613.159	22145.11031
613.359	21869.00151
613.56	22007.66508
613.761	21925.15579
613.961	21857.18276
614.162	21857.06722
614.362	22044.36657
614.563	22013.81349
614.764	21877.09568
614.964	21736.56466
615.165	21706.36572
615.365	21796.79396
615.566	21668.56893
615.766	21684.8439
615.967	21737.90213
616.167	21417.41859
616.368	21433.0203
616.568	21464.53192
616.768	21440.02866
616.969	21296.13338
617.169	21518.52059
617.37	21274.09203
617.57	21271.47022
617.77	21353.65203
617.971	21062.52817
618.171	21037.16752
618.371	21157.30954
618.571	20931.836
618.772	21317.3043
618.972	21069.38762
619.172	21077.65034
619.372	20871.31471
619.573	20841.92569
619.773	20785.83517
619.973	20733.07393
620.173	20865.01377
620.373	20778.53317
620.573	20697.59896
620.774	20863.92725
620.974	20567.93718
621.174	20462.14099
621.374	20514.30077
621.574	20740.09796
621.774	20604.27626
621.974	20514.53056
622.174	20579.05637
622.374	20461.37002
622.574	20466.50705
622.774	20443.25719
622.974	20211.10143
623.174	20438.89264
623.374	20376.70961
623.574	20511.08722
623.774	20268.14464
623.973	20309.54691
624.173	20320.26451
624.373	20488.32943
624.573	20400.79207
624.773	20412.72972
624.973	20314.65903
625.172	20437.03593
625.372	20073.62214
625.572	19973.59314
625.772	19991.23442
625.971	20245.07312
626.171	20138.62018
626.371	20230.83759
626.57	19864.08403
626.77	20238.30104
626.97	19886.08795
627.169	19957.07234
627.369	20019.99096
627.569	20111.43529
627.768	19649.77863
627.968	19833.28189
628.167	19792.46013
628.367	19744.10054
628.566	19816.97885
628.766	19679.39454
628.965	19826.43524
629.165	19828.14321
629.364	19629.26514
629.564	19774.94312
629.763	19560.90869
629.963	19424.50504
630.162	19454.99453
630.362	19372.99735
630.561	19339.6469
630.76	19369.03366
630.96	19461.81916
631.159	19396.11075
631.358	19394.0689
631.558	19264.37336
631.757	19348.07962
631.956	19245.83609
632.155	19068.75039
632.355	19132.07336
632.554	19001.0059
632.753	18833.33109
632.952	18989.22343
633.152	18914.31391
633.351	19018.64527
633.55	18998.69668
633.749	18664.45251
633.948	18922.30825
634.147	18724.30499
634.346	18638.90422
634.545	18351.03139
634.744	18668.96827
634.944	18519.37836
635.143	18589.09098
635.342	18262.48541
635.541	18521.0874
635.74	18328.12375
635.939	18369.78686
636.138	18506.68426
636.336	18403.75095
636.535	18412.29768
636.734	18360.11861
636.933	18420.3811
637.132	18346.80064
637.331	18177.17049
637.53	18424.32574
637.729	18240.14277
637.928	18401.87086
638.126	18232.23264
638.325	18132.32425
638.524	18031.20505
638.723	17833.39429
638.921	18161.97996
639.12	18054.64591
639.319	18201.40922
639.518	18220.99531
639.716	18037.54791
639.915	18192.31127
640.114	18030.38218
640.312	18215.8714
640.511	18000.98826
640.71	18097.37409
640.908	18133.53871
641.107	18203.11143
641.305	17933.21708
641.504	18022.21469
641.702	17918.36899
641.901	17853.10582
642.099	17930.22157
642.298	17962.32486
642.496	17731.40011
642.695	17894.92508
642.893	17874.34758
643.092	17840.49179
643.29	17670.29651
643.489	17658.49651
643.687	17588.19763
643.885	17833.98079
644.084	17695.94535
644.282	17583.76112
644.48	17543.48641
644.679	17802.77134
644.877	17632.50589
645.075	17737.40161
645.274	17578.9
645.472	17497.23845
645.67	17549.6224
645.868	17493.50452
646.067	17257.9504
646.265	17399.07996
646.463	17396.55839
646.661	17159.24781
646.859	17482.56205
647.057	17423.38298
647.256	17458.05374
647.454	17392.69441
647.652	17345.49832
647.85	17190.3672
648.048	17360.64959
648.246	17154.79163
648.444	16933.25828
648.642	16783.80966
648.84	16869.3979
649.038	16792.28794
649.236	16773.81777
649.434	16713.60943
649.632	16709.39473
649.83	16673.23315
650.028	16715.85704
650.226	16611.58713
650.423	16519.17742
650.621	16579.15735
650.819	16314.14707
651.017	16578.1324
651.215	16413.62148
651.413	16216.98649
651.61	16266.96498
651.808	16168.31338
652.006	16075.55442
652.204	16376.00739
652.401	16130.56766
652.599	16168.90007
652.797	15969.75553
652.995	15947.51479
653.192	15741.89031
653.39	15778.34867
653.588	16037.97824
653.785	15754.97157
653.983	15932.02767
654.18	15707.71718
654.378	15831.91534
654.576	15830.01059
654.773	15755.03602
654.971	15638.31616
655.168	15635.52044
655.366	15909.18493
655.563	15828.15012
655.761	15866.87134
655.958	15648.74495
656.156	15639.31334
656.353	15381.06463
656.55	15503.2032
656.748	15592.56381
656.945	15605.84201
657.143	15404.23915
657.34	15412.25966
657.537	15271.82421
657.735	15351.46082
657.932	15191.51808
658.129	15018.73161
658.326	14961.69213
658.524	15026.76019
658.721	14970.36695
658.918	14908.80379
659.115	14803.04979
659.313	14788.63611
659.51	14654.96874
659.707	14807.92063
659.904	14752.60847
660.101	14877.13115
660.298	14710.67699
660.496	14701.95136
660.693	14844.12478
660.89	14496.24499
661.087	14459.34482
661.284	14571.54411
661.481	14493.16668
661.678	14586.65769
661.875	14576.31522
662.072	14613.42063
662.269	14547.93271
662.466	14522.69528
662.663	14379.97474
662.86	14452.98496
663.057	14494.96199
663.254	14431.73675
663.45	14566.35094
663.647	14414.63706
663.844	14457.78182
664.041	14344.53429
664.238	14300.69947
664.435	14332.25129
664.631	14319.1841
664.828	14313.13484
665.025	14356.78504
665.222	14288.8679
665.419	14334.00296
665.615	14309.26716
665.812	14159.91876
666.009	14222.33564
666.205	14207.82745
666.402	14449.67027
666.599	14199.60401
666.795	14206.85645
666.992	14318.32469
667.188	14458.50806
667.385	14400.58767
667.582	14365.23405
667.778	14387.55611
667.975	14401.93734
668.171	14247.00748
668.368	14292.89961
668.564	14401.87962
668.761	14417.6002
668.957	14418.05867
669.154	14519.33599
669.35	14265.05926
669.547	14306.98262
669.743	14315.58008
669.939	14290.93232
670.136	14421.92669
670.332	14113.78696
670.528	14206.58849
670.725	14208.97893
670.921	14057.71798
671.117	14204.70989
671.314	14128.6552
671.51	14078.72774
671.706	14234.08195
671.902	14178.5612
672.099	14077.2156
672.295	13878.47958
672.491	13930.72567
672.687	13806.41493
672.883	14020.09824
673.08	14051.48361
673.276	13950.01408
673.472	14027.89561
673.668	13855.24472
673.864	13941.11988
674.06	13762.05152
674.256	13857.628
674.452	13676.3775
674.648	13764.49284
674.844	13635.82634
675.04	13754.87587
675.236	13683.95898
675.432	13473.84266
675.628	13602.55554
675.824	13389.76581
676.02	13332.42864
676.216	13507.11566
676.412	13376.53829
676.608	13390.3403
676.804	13265.3506
676.999	13481.78675
677.195	13124.91893
677.391	13202.01277
677.587	13242.69411
677.783	13359.25215
677.978	13118.54721
678.174	13301.18946
678.37	13129.21172
678.566	13228.77722
678.761	13093.9934
678.957	13166.30756
679.153	12998.12962
679.348	13042.49544
679.544	13010.32259
679.74	12949.119
679.935	13048.49745
680.131	12925.6085
680.327	13011.83473
680.522	12960.22163
680.718	12802.12109
680.913	12919.61107
681.109	12771.55905
681.304	12944.73379
681.5	12783.6463
681.695	12712.17119
681.891	12813.55952
682.086	12905.46673
682.282	12802.32267
682.477	12588.37342
682.672	12686.84022
682.868	12639.81582
683.063	12544.8349
683.259	12714.92369
683.454	12685.1003
683.649	12628.35231
683.845	12525.70724
684.04	12668.15343
684.235	12572.3253
684.43	12643.96039
684.626	12548.57479
684.821	12619.01078
685.016	12385.61752
685.211	12578.9562
685.407	12269.00145
685.602	12339.28058
685.797	12346.71692
685.992	12356.33195
686.187	12300.04412
686.382	12427.12403
686.577	12100.50841
686.773	12389.76488
686.968	12217.99965
687.163	12275.4901
687.358	12080.98559
687.553	12198.28226
687.748	12172.4952
687.943	12194.49875
688.138	11990.32151
688.333	12070.48035
688.528	11840.56575
688.723	11828.96548
688.918	11864.0996
689.112	11648.66151
689.307	11552.22654
689.502	11529.08719
689.697	11395.58197
689.892	11582.20086
690.087	11378.37379
690.282	11392.36975
690.476	11158.29355
690.671	11180.65185
690.866	10995.31546
691.061	11131.49126
691.255	11014.8745
691.45	11005.84891
691.645	10908.2111
691.84	10883.06156
692.034	10662.56665
692.229	10806.22405
692.424	10498.68442
692.618	10728.4285
692.813	10448.52021
693.007	10613.88672
693.202	10484.97868
693.397	10487.26641
693.591	10354.10856
693.786	10343.29014
693.98	10252.9873
694.175	10484.90199
694.369	10154.95953
694.564	10238.49053
694.758	10001.55704
694.953	10139.76817
695.147	10075.43857
695.342	10150.50152
695.536	9990.62069
695.73	9948.44388
695.925	9892.72533
696.119	9714.06842
696.313	9728.50177
696.508	9725.10718
696.702	9740.70614
696.896	9747.03894
697.091	9635.61447
697.285	9848.63117
697.479	9772.46338
697.673	9896.34518
697.868	9616.35717
698.062	9802.28892
698.256	9643.26836
698.45	9741.22295
698.644	9633.49513
698.839	9781.45633
699.033	9592.62526
699.227	9813.72663
699.421	9779.95096
699.615	9671.72422
699.809	9761.1028
700.003	9936.73992
700.197	9657.56393
700.391	9955.27821
700.585	9676.05082
700.779	9743.19598
700.973	9767.36758
701.167	9671.77799
701.361	9733.59247
701.555	9695.4141
701.749	9640.98433
701.943	9699.58716
702.137	9649.5432
702.331	9655.45711
702.525	9528.44766
702.718	9744.61271
702.912	9657.00312
703.106	9588.07126
703.3	9722.78697
703.494	9640.41186
703.687	9546.41656
703.881	9529.99467
704.075	9527.29073
704.269	9549.8441
704.462	9654.19309
704.656	9541.52402
704.85	9571.76902
705.043	9544.12317
705.237	9533.61882
705.431	9505.66454
705.624	9492.73541
705.818	9600.8889
706.012	9425.72853
706.205	9426.93018
706.399	9437.61349
706.592	9576.69633
706.786	9380.81883
706.979	9556.40791
707.173	9315.22777
707.366	9416.18938
707.56	9368.88645
707.753	9392.64397
707.947	9414.12843
708.14	9267.9924
708.333	9164.99357
708.527	9323.57299
708.72	9228.74227
708.914	9200.44957
709.107	9340.61773
709.3	9298.93078
709.494	9115.8623
709.687	9103.75275
709.88	9264.34021
710.073	9078.49161
710.267	9171.1506
710.46	9148.42867
710.653	9137.23383
710.846	9114.94589
711.04	9168.24447
711.233	9215.03831
711.426	9120.3468
711.619	9171.08674
711.812	9186.4653
712.005	9166.76376
712.198	9170.36635
712.391	9147.25006
712.585	9074.68822
712.778	9055.46003
712.971	9132.85745
713.164	9020.66838
713.357	9080.73633
713.55	9008.47656
713.743	8995.70324
713.936	9085.88149
714.129	9035.92327
714.322	9097.21096
714.514	8973.54182
714.707	8965.96343
714.9	8906.73245
715.093	9007.39369
715.286	8849.12578
715.479	8968.57656
715.672	9026.07884
715.864	9041.24389
716.057	8816.73552
716.25	8834.40825
716.443	8839.74252
716.636	8877.16427
716.828	8878.0768
717.021	8750.79795
717.214	8834.6328
717.406	8686.97571
717.599	8687.1206
717.792	8569.4997
717.984	8661.22685
718.177	8597.27602
718.37	8602.4136
718.562	8476.94454
718.755	8521.54242
718.947	8325.21099
719.14	8344.38185
719.333	8344.90236
719.525	8037.78738
719.718	8137.12325
719.91	8034.07744
720.103	7963.00456
720.295	7874.28344
720.487	7781.42858
720.68	7762.7684
720.872	7761.90292
721.065	7608.31557
721.257	7534.38594
721.449	7480.35208
721.642	7453.47798
721.834	7314.34767
722.026	7370.20181
722.219	7105.79345
722.411	7200.1127
722.603	7139.38795
722.796	7305.54456
722.988	7057.48027
723.18	7032.02155
723.372	6986.82125
723.565	7040.92584
723.757	6656.04442
723.949	6758.1455
724.141	6652.83054
724.333	6825.32144
724.525	6643.08678
724.717	6838.88387
724.91	6703.529
725.102	6620.91049
725.294	6452.059
725.486	6475.02452
725.678	6346.12265
725.87	6333.96983
726.062	6260.55961
726.254	6236.61144
726.446	6137.43221
726.638	6353.02145
726.83	6200.58832
727.022	6104.56252
727.213	6122.05779
727.405	6249.89062
727.597	6081.4269
727.789	6179.30676
727.981	6073.46833
728.173	6070.04852
728.365	6017.09029
728.556	6024.10347
728.748	5886.97633
728.94	6038.96447
729.132	5968.1659
729.324	5942.14412
729.515	5968.02753
729.707	5916.17346
729.899	5781.7527
730.09	5914.36851
730.282	5890.39267
730.474	5991.34014
730.665	5853.02084
730.857	5992.12127
731.049	5811.24887
731.24	5881.37099
731.432	5904.57816
731.623	6000.06725
731.815	5841.4952
732.006	5879.92933
732.198	5755.76031
732.389	5906.56113
732.581	5815.96797
732.772	5827.56796
732.964	5701.28413
733.155	5743.54292
733.347	5742.37583
733.538	5849.35818
733.729	5772.14927
733.921	5688.59424
734.112	5741.8089
734.304	5863.98178
734.495	5778.73018
734.686	5906.78724
734.877	5797.55788
735.069	5810.48135
735.26	5753.90251
735.451	5839.44097
735.643	5612.06913
735.834	5862.02077
736.025	5735.5266
736.216	5898.87472
736.407	5732.73151
736.599	5946.71949
736.79	5832.84711
736.981	5932.5696
737.172	5840.6481
737.363	5954.2808
737.554	5854.14941
737.745	5936.2612
737.936	5994.60682
738.127	5964.00366
738.318	5969.04841
738.509	6091.76864
738.7	5961.40493
738.891	6084.17463
739.082	5836.25831
739.273	6002.46421
739.464	6036.16908
739.655	6159.87887
739.846	6002.6545
740.037	6157.91116
740.228	6013.04238
740.419	6114.39056
740.609	6045.15961
740.8	6081.69558
740.991	6006.2482
741.182	5964.59055
741.373	6032.56539
741.563	6119.05381
741.754	5996.61879
741.945	6153.11964
742.136	6194.2758
742.326	6228.9244
742.517	6068.53325
742.708	6215.38132
742.898	6050.75832
743.089	6128.85498
743.28	6053.92087
743.47	6079.9556
743.661	6097.71511
743.851	6165.14238
744.042	6066.47346
744.233	6093.83588
744.423	6084.66715
744.614	6134.48412
744.804	6102.67564
744.995	6188.62152
745.185	5897.71374
745.376	6119.81066
745.566	6057.65027
745.756	6096.71005
745.947	6013.82918
746.137	6070.79201
746.328	6051.86447
746.518	6103.86894
746.708	5971.31774
746.899	6018.56112
747.089	5983.15198
747.279	6087.70273
747.47	5989.37171
747.66	6128.88371
747.85	5988.04986
748.04	5911.0122
748.231	5956.41889
748.421	6041.13732
748.611	5873.00398
748.801	5901.55838
748.991	5805.20281
749.182	5891.18775
749.372	5980.19576
749.562	5865.2585
749.752	5954.2598
749.942	5952.35755
750.132	5771.72502
750.322	5936.41697
750.512	5810.15703
750.702	5919.28256
750.892	5861.2584
751.082	5853.96473
751.272	5768.89672
751.462	5738.90622
751.652	5720.23824
751.842	5769.01784
752.032	5690.03625
752.222	5830.34612
752.412	5728.7487
752.602	5737.90946
752.792	5674.43072
752.981	5675.24789
753.171	5569.57333
753.361	5741.92983
753.551	5538.17905
753.741	5521.00249
753.93	5460.93664
754.12	5602.33197
754.31	5510.01347
754.5	5609.20333
754.689	5570.2864
754.879	5507.52257
755.069	5427.30659
755.258	5542.26236
755.448	5416.40977
755.638	5483.39888
755.827	5352.894
756.017	5470.32875
756.206	5367.48258
756.396	5344.81101
756.586	5438.59032
756.775	5495.10532
756.965	5410.21811
757.154	5495.64205
757.344	5305.75434
757.533	5318.01353
757.723	5327.19105
757.912	5351.11384
758.101	5414.55912
758.291	5388.92302
758.48	5291.63131
758.67	5383.89399
758.859	5278.19625
759.048	5426.22811
759.238	5315.08697
759.427	5245.84928
759.616	5061.56753
759.806	5167.44103
759.995	5080.23647
760.184	5343.94444
760.373	5152.58994
760.563	5238.44793
760.752	5083.76104
760.941	5199.01781
761.13	5043.76839
761.319	5053.69829
761.509	4916.21997
761.698	4856.83156
761.887	4615.34289
762.076	4767.22043
762.265	4562.98238
762.454	4687.95481
762.643	4452.08224
762.832	4490.453
763.021	4351.87805
763.21	4337.77579
763.399	4080.01338
763.588	4193.18459
763.777	4013.57539
763.966	3992.81718
764.155	3810.2482
764.344	3977.52398
764.533	3671.35905
764.722	3663.54923
764.911	3641.43525
765.1	3472.83405
765.288	3429.24249
765.477	3362.71718
765.666	3336.88312
765.855	3292.00783
766.044	3125.33567
766.232	3247.8988
766.421	2950.33329
766.61	3057.8258
766.799	2848.45797
766.987	2864.63619
767.176	2691.83604
767.365	2727.22188
767.553	2731.41901
767.742	2627.95098
767.931	2499.21123
768.119	2524.30228
768.308	2488.1447
768.497	2424.0258
768.685	2342.80337
768.874	2452.96253
769.062	2438.00779
769.251	2431.52583
769.439	2239.14402
769.628	2401.47129
769.816	2343.79623
770.005	2398.01421
770.193	2252.99695
770.382	2524.28912
770.57	2357.9928
770.758	2527.90267
770.947	2393.71114
771.135	2627.15725
771.323	2486.12775
771.512	2737.79332
771.7	2633.38941
771.888	2723.39042
772.077	2682.64758
772.265	2652.77904
772.453	2744.16715
772.642	2847.59053
772.83	2775.38152
773.018	2995.01852
773.206	2739.97088
773.394	2960.86502
773.583	2968.34537
773.771	3068.97918
773.959	3139.66476
774.147	3097.92672
774.335	3131.7614
774.523	3272.45045
774.711	3248.99512
774.899	3364.4159
775.087	3348.26701
775.275	3369.52237
775.463	3345.49689
775.651	3505.94521
775.839	3430.53325
776.027	3543.94956
776.215	3586.62648
776.403	3646.60092
776.591	3502.29239
776.779	3702.77652
776.967	3462.00026
777.155	3697.61687
777.343	3514.97933
777.531	3761.95953
777.718	3633.85276
777.906	3791.2628
778.094	3681.9847
778.282	3710.77651
778.47	3633.87025
778.657	3630.54023
778.845	3701.45404
779.033	3748.26163
779.22	3632.90076
779.408	3829.33924
779.596	3706.16315
779.783	3884.21062
779.971	3699.93849
780.159	3673.75376
780.346	3704.54954
780.534	3809.76516
780.722	3658.19775
780.909	3757.40093
781.097	3661.91978
781.284	3728.25688
781.472	3673.39321
781.659	3695.81119
781.847	3642.22823
782.034	3717.9021
782.222	3491.49507
782.409	3758.47497
782.597	3572.80882
782.784	3734.75731
782.971	3530.32359
783.159	3704.62298
783.346	3558.61536
783.533	3677.64417
783.721	3617.55114
783.908	3657.9352
784.095	3482.80254
784.283	3663.6492
784.47	3506.13301
784.657	3629.75834
784.844	3484.40769
785.032	3523.63547
785.219	3531.16728
785.406	3609.55364
785.593	3396.8421
785.78	3520.16072
785.968	3577.84037
786.155	3636.8766
786.342	3408.21548
786.529	3523.54156
786.716	3409.09623
786.903	3459.96632
787.09	3455.25056
787.277	3510.75014
787.464	3335.47419
787.651	3432.46702
787.838	3396.92386
788.025	3431.47715
788.212	3345.98951
788.399	3465.0829
788.586	3269.09258
788.773	3420.46891
788.96	3240.44914
789.147	3409.1353
789.334	3251.04383
789.521	3275.33552
789.707	3247.52316
789.894	3221.93867
790.081	3305.92277
790.268	3304.9654
790.455	3234.88564
790.641	3269.5372
790.828	3187.47446
791.015	3232.09423
791.202	3113.18876
791.388	3265.98288
791.575	3136.10232
791.762	3132.45219
791.948	3102.06412
792.135	3173.56605
792.322	2942.36859
792.508	3139.05905
792.695	3026.75712
792.881	3119.00111
793.068	3037.1989
793.254	3063.48263
793.441	2993.46537
793.627	2965.41838
793.814	3024.7505
794	2948.70448
794.187	2878.24909
794.373	2987.39823
794.56	2778.95196
794.746	2934.32483
794.933	2921.39122
795.119	2875.97645
795.305	2855.2611
795.492	2935.02991
795.678	2786.91834
795.864	2729.63703
796.051	2706.37092
796.237	2720.66547
796.423	2837.2835
796.61	2767.09263
796.796	2732.29083
796.982	2916.20631
797.168	2793.76962
797.355	2702.39875
797.541	2708.96054
797.727	2824.08341
797.913	2601.86529
798.099	2798.13631
798.285	2623.64511
798.471	2743.84958
798.658	2531.37603
798.844	2744.78147
799.03	2688.22565
799.216	2780.05842
799.402	2596.61932
799.588	2737.68304
799.774	2755.4662
799.96	2704.66314
800.146	2622.74988
800.332	2595.79563
800.518	2584.68048
800.704	2679.16435
800.89	2702.39875
801.075	2717.9603
801.261	2638.48422
801.447	2672.55902
801.633	2563.63427
801.819	2713.3178
802.005	2564.46049
802.19	2707.53062
802.376	2625.47107
802.562	2750.79441
802.748	2619.6939
802.934	2793.12575
803.119	2632.49247
803.305	2675.31983
803.491	2644.91252
803.676	2813.05439
803.862	2597.18648
804.048	2722.9702
804.233	2593.0204
804.419	2645.76946
804.605	2532.8023
804.79	2773.52201
804.976	2608.87258
805.161	2650.13273
805.347	2653.36613
805.532	2663.87322
805.718	2611.9955
805.903	2580.34449
806.089	2596.13402
806.274	2643.23956
806.46	2593.05311
806.645	2694.08848
806.831	2483.01944
807.016	2662.62944
807.201	2621.283
807.387	2724.68751
807.572	2476.66233
807.757	2688.6138
807.943	2446.85006
808.128	2733.40432
808.313	2527.45451
808.499	2541.7554
808.684	2569.52398
808.869	2647.76571
809.054	2496.04837
809.24	2642.46476
809.425	2509.55446
809.61	2616.25527
809.795	2396.69032
809.98	2602.67887
810.165	2476.07565
810.35	2600.67571
810.536	2465.7239
810.721	2607.22793
810.906	2437.13075
811.091	2576.64191
811.276	2373.87909
811.461	2485.51696
811.646	2414.7401
811.831	2465.40349
812.016	2451.0447
812.201	2426.02689
812.386	2450.6861
812.571	2559.59913
812.756	2247.10702
812.941	2394.865
813.125	2360.36377
813.31	2417.69078
813.495	2314.59613
813.68	2341.88728
813.865	2301.24783
814.05	2319.03304
814.234	2338.01589
814.419	2317.43082
814.604	2241.84434
814.789	2288.38844
814.973	2290.15756
815.158	2255.832
815.343	2282.02047
815.528	2197.6635
815.712	2181.9632
815.897	2240.82377
816.081	2113.36398
816.266	2192.42743
816.451	2132.70528
816.635	2157.07956
816.82	2102.41539
817.004	2118.61611
817.189	2011.49391
817.374	1975.31721
817.558	1965.59567
817.743	2061.28242
817.927	1840.99826
818.111	2015.58555
818.296	1812.08826
818.48	1903.6797
818.665	1707.50543
818.849	1914.55438
819.034	1798.39923
819.218	1812.20426
819.402	1701.56208
819.587	1739.40226
819.771	1664.83392
819.955	1691.48518
820.14	1510.11172
820.324	1648.50263
820.508	1614.1017
820.692	1666.18946
820.877	1546.17707
821.061	1569.93603
821.245	1501.97568
821.429	1549.83507
821.613	1443.8541
821.798	1511.49909
821.982	1360.35934
822.166	1507.40222
822.35	1313.81015
822.534	1541.19441
822.718	1248.49285
822.902	1433.30811
823.086	1370.02758
823.27	1424.50016
823.454	1361.98922
823.638	1475.80408
823.822	1333.19247
824.006	1446.49516
824.19	1365.21052
824.374	1449.57415
824.558	1242.52665
824.742	1348.81906
824.926	1197.11374
825.11	1406.12737
825.294	1168.27752
825.477	1268.28364
825.661	1166.73472
825.845	1279.04398
826.029	1187.66207
826.213	1244.58671
826.396	1195.60643
826.58	1232.37384
826.764	1195.976
826.948	1309.07316
827.131	1222.05124
827.315	1187.17456
827.499	1210.63137
827.682	1249.48862
827.866	1089.32674
828.05	1193.53794
828.233	1227.69801
828.417	1124.96142
828.6	1193.97499
828.784	1262.58527
828.967	1154.82418
829.151	1294.09937
829.335	1200.18505
829.518	1203.03731
829.701	1187.58071
829.885	1203.65239
830.068	1090.34231
830.252	1227.57175
830.435	1234.55117
830.619	1209.72311
830.802	1189.48515
830.985	1177.30241
831.169	1109.03481
831.352	1163.0357
831.535	1109.45641
831.719	1192.49111
831.902	1207.61645
832.085	1126.83107
832.269	1099.59028
832.452	1171.93963
832.635	1128.97192
832.818	1103.98814
833.002	1118.64614
833.185	1148.21657
833.368	1085.71623
833.551	1110.50876
833.734	1092.67493
833.917	1137.37424
834.1	1084.92519
834.284	1176.05934
834.467	1112.38264
834.65	1194.16876
834.833	1095.1218
835.016	1093.65246
835.199	1123.90567
835.382	1160.40688
835.565	1015.17123
835.748	1153.59494
835.931	1086.88237
836.114	1096.81106
836.297	1039.65948
836.479	1075.93537
836.662	999.72166
836.845	1070.81299
837.028	932.91094
837.211	1129.16296
837.394	1023.07336
837.577	1102.37759
837.759	1013.23199
837.942	1068.37091
838.125	1003.21255
838.308	1013.16193
838.49	1003.52649
838.673	938.77083
838.856	970.92914
839.039	1077.43625
839.221	986.19149
839.404	1036.77888
839.587	1013.54865
839.769	1065.42872
839.952	948.01535
840.134	1024.56031
840.317	955.98081
840.499	1047.66504
840.682	966.509
840.865	1021.42215
841.047	1001.4803
841.23	1043.2207
841.412	978.79886
841.595	998.81818
841.777	913.34283
841.959	1020.11395
842.142	917.14832
842.324	872.70529
842.507	904.37814
842.689	1019.37717
842.871	936.02528
843.054	969.5611
843.236	933.28723
843.418	1038.63945
843.601	951.80061
843.783	947.81639
843.965	882.59483
844.147	1026.63991
844.33	974.01393
844.512	977.39767
844.694	929.36256
844.876	998.16229
845.059	855.88148
845.241	944.16906
845.423	890.49666
845.605	963.07309
845.787	836.2087
845.969	879.20899
846.151	873.50513
846.333	980.1393
846.515	872.05084
846.697	919.02427
846.879	905.60234
847.061	976.68042
847.243	761.75289
847.425	901.08815
847.607	843.66259
847.789	861.5228
847.971	867.02145
848.153	872.93239
848.335	812.16772
848.517	944.79634
848.699	828.03009
848.881	846.44875
849.062	779.052
849.244	889.14771
849.426	831.00357
849.608	851.814
849.789	820.41926
849.971	832.34661
850.153	712.21449
850.335	827.76473
850.516	743.49706
850.698	848.06019
850.88	810.48846
851.061	764.71455
851.243	741.69224
851.425	828.17779
851.606	677.72133
851.788	794.42784
851.969	720.74983
852.151	761.10118
852.333	659.99416
852.514	740.04654
852.696	616.76539
852.877	697.56249
853.059	750.26687
853.24	738.7492
853.422	649.81256
853.603	748.51748
853.784	550.05121
853.966	688.31403
854.147	568.7694
854.329	655.37329
854.51	707.03412
854.691	659.67155
854.873	639.61548
855.054	695.7823
855.235	582.06729
855.416	613.55919
855.598	593.3423
855.779	591.53805
855.96	673.10307
856.141	622.6551
856.323	520.3069
856.504	521.43477
856.685	532.81343
856.866	565.51088
857.047	530.96578
857.228	588.00286
857.409	535.07062
857.591	523.80563
857.772	552.76965
857.953	530.03357
858.134	537.60429
858.315	506.79433
858.496	499.04954
858.677	522.754
858.858	443.86945
859.039	558.8227
859.22	451.78523
859.401	509.87201
859.582	457.88758
859.762	518.2029
859.943	416.02909
860.124	452.01954
860.305	371.56865
860.486	481.45658
860.667	412.65997
860.848	526.1972
861.028	451.78523
861.209	452.81348
861.39	449.99512
861.571	404.88417
861.751	428.1409
861.932	407.74161
862.113	390.72963
862.293	450.60665
862.474	358.91832
862.655	459.84003
862.835	397.04699
863.016	482.36387
863.197	481.28749
863.377	437.00381
863.558	471.96796
863.738	449.99512
863.919	346.9985
864.099	442.823
864.28	372.05544
864.46	377.9468
864.641	424.16367
864.821	386.28558
865.002	368.14235
865.182	400.50554
865.363	428.47369
865.543	389.54243
865.723	433.26291
865.904	405.17
866.084	396.78275
866.264	327.70127
866.445	307.64809
866.625	319.11341
866.805	351.64359
866.986	402.88214
867.166	332.45791
867.346	273.9623
867.526	305.54182
867.707	362.88083
867.887	321.5874
868.067	381.78354
868.247	295.5598
868.427	365.83162
868.607	258.65044
868.788	364.98915
868.968	214.96344
869.148	353.92807
869.328	300.06083
869.508	315.89423
869.688	278.9273
869.868	269.80947
870.048	267.67463
870.228	308.01645
870.408	277.8511
870.588	304.72228
870.768	287.92421
870.948	331.42883
871.128	307.86641
871.307	295.74842
871.487	279.95058
871.667	231.74239
871.847	274.4446
872.027	311.34412
872.207	255.28626
872.387	295.84863
872.566	309.24968
872.746	281.22674
872.926	233.09854
873.106	229.69519
873.285	333.97408
873.465	258.77699
873.645	207.1104
873.824	285.86079
874.004	287.96757
874.184	287.79439
874.363	225.22411
874.543	270.07353
874.723	263.45018
874.902	244.20324
875.082	195.05731
875.261	234.09456
875.441	155.41372
875.62	257.64859
875.8	147.70277
875.979	249.9964
876.159	215.02832
876.338	202.66954
876.518	230.94617
876.697	249.89239
876.876	204.90185
877.056	193.66379
877.235	137.51575
877.415	233.15151
877.594	176.99102
877.773	264.67978
877.953	188.00577
878.132	200.55833
878.311	235.32935
878.49	227.55026
878.67	207.21993
878.849	206.09184
879.028	212.87715
879.207	189.23293
879.387	182.61933
879.566	220.73532
879.745	178.18714
879.924	181.31225
880.103	205.01034
880.282	242.37832
880.461	224.53109
880.64	159.16138
880.819	192.78457
880.998	190.62125
881.178	112.90074
881.357	179.21373
881.536	210.74826
881.715	206.34237
881.893	164.74497
882.072	125.24297
882.251	142.15237
882.43	152.28817
882.609	117.45103
882.788	153.37555
882.967	196.0597
883.146	138.84809
883.325	160.17442
883.503	173.77162
883.682	192.86538
883.861	126.54888
884.04	161.40136
884.219	141.02982
884.397	179.35015
884.576	110.63758
884.755	142.21738
884.933	152.23607
885.112	163.76011
885.291	182.68185
885.469	177.11911
885.648	179.40492
885.827	126.47627
886.005	158.0322
886.184	161.35206
886.363	167.09248
886.541	167.13092
886.72	147.92242
886.898	-8.61582
887.077	214.27425
887.255	136.61212
887.434	227.94975
887.612	171.53278
887.791	169.2742
887.969	93.87336
888.147	119.72994
888.326	132.09324
888.504	66.7994
888.682	105.13422
888.861	140.07299
889.039	120.78451
889.218	104.00578
889.396	51.04746
889.574	82.54852
889.752	78.13853
889.931	146.61985
890.109	117.5139
890.287	124.37215
890.465	99.42407
890.643	135.6499
890.822	177.16647
891	119.68425
891.178	126.39435
891.356	108.49486
891.534	93.95996
891.712	69.03527
891.89	101.72568
892.068	133.23176
892.247	132.09828
892.425	185.08799
892.603	83.68536
892.781	120.97411
892.959	108.46583
893.137	134.44254
893.314	101.80759
893.492	124.41526
893.67	112.92224
893.848	100.59378
894.026	90.41957
894.204	125.31449
894.382	83.74943
894.56	64.57982
894.738	118.68344
894.915	94.9182
895.093	156.92707
895.271	112.99556
895.449	63.45221
895.626	82.55797
895.804	123.09618
895.982	108.56978
896.16	89.4017
896.337	101.81542
896.515	162.75533
896.693	106.2627
896.87	68.00205
897.048	102.77923
897.225	116.37642
897.403	31.93094
897.581	129.92607
897.758	67.9551
897.936	4.88506
898.113	124.31959
898.291	91.61337
898.468	48.78977
898.646	114.19835
898.823	25.15462
899.001	79.23664
899.178	70.3213
899.356	107.50687
899.533	79.2762
899.71	31.92971
899.888	104.12577
900.065	-9.76243
900.242	84.92668
900.42	86.0789
900.597	91.75093
900.774	65.77314
900.952	91.83988
901.129	86.08222
901.306	78.14754
901.483	62.39412
901.661	57.85473
901.838	59.00561
902.015	22.92307
902.192	71.39573
902.369	60.14586
902.546	27.43993
902.723	38.69428
902.901	65.76301
903.078	12.79832
903.255	79.36495
903.432	81.52737
903.609	25.18848
903.786	57.87031
903.963	38.71364
904.14	61.28188
904.317	38.7226
904.494	47.75089
904.671	-0.75226
904.848	45.51783
905.024	107.55255
905.201	70.32402
905.378	6.01411
905.555	39.82206
905.732	31.96295
905.909	34.19936
906.086	-25.54622
906.262	69.22665
906.439	17.29993
906.616	56.73314
906.793	64.58724
906.969	68.04659
907.146	26.30163
907.323	22.91514
907.5	36.48807
907.676	60.16444
907.853	74.8397
908.03	26.3209
908.206	26.30568
908.383	56.76374
908.559	60.11344
908.736	-5.26724
908.912	16.15516
909.089	51.1655
909.266	20.66199
909.442	55.6478
909.619	25.19822
909.795	34.22578
909.972	48.87415
910.148	6.01319
910.324	79.36495
910.501	25.19724
910.677	62.43269
910.854	114.27751
911.03	60.11575
911.206	42.11997
911.383	-41.34547
911.559	45.5143
911.735	-8.64379
911.912	35.32613
912.088	39.85583
912.264	-15.41444
912.44	18.42071
912.617	44.36268
912.793	13.91167
912.969	68.07553
913.145	72.55799
913.321	73.70434
913.498	6.01388
913.674	4.88883
913.85	63.55976
914.026	-5.26337
914.202	17.29192
914.378	3.75984
914.554	44.39531
914.73	-51.51081
914.906	11.65707
915.082	28.57146
915.258	26.34334
915.434	0.37593
915.61	34.23373
915.786	28.60134
915.962	65.82652
916.138	-14.299
916.314	11.65302
916.49	-3.00833
916.665	35.32613
916.841	1.50557
917.017	37.59694
917.193	8.27324
917.369	81.61863
917.545	-14.28849
917.72	26.34744
917.896	34.20068
918.072	21.83923
918.247	56.78787
918.423	43.29098
918.599	8.27709
918.775	-9.7752
918.95	19.54211
919.126	-31.20124
919.301	54.54195
919.477	35.33021
919.653	41.02116
919.828	6.01667
920.004	19.56175
920.179	-33.47875
920.355	-87.49161
920.53	-10.90711
920.706	13.92028
920.881	2.63377
921.057	-4.13335
921.232	13.91705
921.408	13.90791
921.583	29.70215
921.759	13.91705
921.934	13.9192
922.109	29.71939
922.285	66.95368
922.46	0.37596
922.635	-21.06487
922.811	10.53284
922.986	42.11346
923.161	-8.64746
923.336	-1.88068
923.512	28.57808
923.687	20.6835
923.862	-10.90965
924.037	27.42093
924.212	8.27164
924.388	57.93293
924.563	43.26745
924.738	15.03355
924.913	62.47628
925.088	-41.37423
925.263	47.73247
925.438	10.52146
925.613	-3.0081
925.788	26.3321
925.963	42.09721
926.138	13.92406
926.313	15.05041
926.488	66.98744
926.663	79.27315
926.838	-0.75182
927.013	21.81634
927.188	57.90827
927.363	-19.93832
927.538	10.52389
927.713	25.20505
927.888	6.01644
928.062	12.78493
928.237	11.65933
928.412	1.50481
928.587	1.50428
928.761	-18.80428
928.936	8.27388
929.111	-9.78011
929.286	-36.84927
929.46	18.42712
929.635	72.54399
929.81	-6.39283
929.984	35.37535
930.159	16.16449
930.334	9.39145
930.508	25.20407
930.683	34.23108
930.857	43.24066
931.032	-27.83141
931.206	35.37123
931.381	39.88052
931.556	-0.75223
931.73	51.19133
931.904	12.78839
932.079	-22.19893
932.253	-27.811
932.428	30.82829
932.602	-40.23417
932.777	-39.12806
932.951	-25.58372
933.125	-0.75197
933.3	28.60023
933.474	17.30261
933.648	29.73901
933.823	15.04284
933.997	52.27896
934.171	31.97284
934.345	-24.42717
934.52	-15.41921
934.694	-16.56124
934.868	35.37398
935.042	-1.88185
935.217	42.0891
935.391	17.30127
935.565	44.37983
935.739	1.50563
935.913	-59.44229
936.087	15.02776
936.261	43.27081
936.435	-33.47745
936.609	-26.71397
936.783	-7.52667
936.957	6.02157
937.131	-42.46408
937.305	-25.58968
937.479	7.1527
937.653	-36.86924
937.827	-30.09384
938.001	-12.0366
938.175	-4.1367
938.349	-5.26438
938.523	38.7241
938.697	-3.00683
938.87	2.63245
939.044	2.63245
939.218	18.44428
939.392	-17.67636
939.566	70.35944
939.739	46.60403
939.913	-1.8831
940.087	-13.15816
940.261	-22.19893
940.434	-8.65449
940.608	-61.66141
940.782	24.10034
940.955	9.41328
941.129	-36.85924
941.302	-18.80573
941.476	54.58431
941.65	51.16153
941.823	-0.75217
941.997	17.30462
942.17	-10.90838
942.344	-69.62855
942.517	-57.14959
942.691	25.20407
942.864	18.43998
943.038	-12.03893
943.211	-13.1663
943.385	37.61876
943.558	-28.96251
943.731	-55.99032
943.905	-13.1607
944.078	-4.1367
944.251	-45.89134
944.425	1.5058
944.598	-9.77747
944.771	57.96441
944.945	27.48035
945.118	61.3317
945.291	62.42544
945.464	9.40852
945.638	-8.65315
945.811	21.83243
945.984	20.67472
946.157	-28.96588
946.33	33.13281
946.503	33.09297
946.677	41.04351
946.85	34.22313
947.023	4.88468
947.196	11.65707
947.369	9.40815
947.542	34.24303
947.715	-43.63946
947.888	-22.18433
948.061	37.61147
948.234	-18.80209
948.407	-15.42518
948.58	13.91974
948.753	-35.71916
948.926	-7.52638
949.099	35.34385
949.271	15.05041
949.444	29.71478
949.617	10.54308
949.79	34.21651
949.963	83.89812
950.136	-4.13415
950.308	-5.2656
950.481	27.46754
950.654	-24.45266
950.827	25.19919
950.999	10.54266
951.172	-28.96027
951.345	35.35478
951.517	46.64908
951.69	25.21091
951.863	40.96723
952.035	0.3763
952.208	-52.68468
952.381	43.29267
952.553	57.88815
952.726	31.99145
952.898	-32.33087
953.071	-7.51851
953.243	22.94966
953.416	-48.16884
953.588	-40.22795
953.761	57.94416
953.933	8.26845
954.106	44.39531
954.278	-40.23261
954.45	-32.34837
954.623	43.26409
954.795	20.69472
954.967	-7.52521
955.14	39.89446
955.312	28.60579
955.484	-9.78201
955.657	39.88516
955.829	11.66792
956.001	-34.60122
956.173	-39.11745
956.346	33.1045
956.518	-9.77898
956.69	46.63644
956.862	7.1477
957.034	-21.05265
957.207	0.37653
957.379	-18.79991
957.551	43.29941
957.723	-67.34679
957.895	45.50725
958.067	6.01713
958.239	-57.13636
958.411	-42.52322
958.583	-22.18776
958.755	36.49373
958.927	-48.16884
959.099	17.30328
959.271	-39.10233
959.443	35.38085
959.615	24.0611
959.787	-49.28155
959.959	10.53529
960.13	9.39651
960.302	1.50359
960.474	6.02017
960.646	-39.11896
960.818	17.31537
960.99	24.07413
961.161	-7.52579
961.333	-44.74987
961.505	-53.7834
961.677	-12.03613
961.848	-30.11136
962.02	-22.20583
962.192	29.72861
962.363	20.69151
962.535	34.21255
962.707	-13.16325
962.878	25.22071
963.05	-28.96027
963.221	-4.13975
963.393	-5.26093
963.564	6.01481
963.736	-21.06568
963.907	-8.65651
964.079	-23.34175
964.25	-18.80355
964.422	-8.64379
964.593	-16.54392
964.765	22.94877
964.936	-25.57481
965.108	-32.35464
965.279	-42.51332
965.45	-16.55096
965.622	-0.75275
965.793	-13.17448
965.964	33.10835
966.136	-0.75188
966.307	34.25367
966.478	21.82564
966.65	24.0788
966.821	-57.19829
966.992	-19.94838
967.163	16.16138
967.334	6.01713
967.506	31.97532
967.677	57.9509
967.848	2.63143
968.019	-10.91303
968.19	-7.5255
968.361	55.70389
968.532	-27.81529
968.703	-58.28768
968.874	-58.26967
969.045	-9.77784
969.216	-10.90627
969.387	1.50498
969.558	-23.3056
969.729	41.00366
969.9	-43.64453
970.071	20.69472
970.242	-1.88112
970.413	1.50428
970.584	-17.67704
970.755	1.50457
970.926	20.71163
971.097	-30.0985
971.267	-34.59453
971.438	3.76158
971.609	4.89414
971.78	12.78443
971.951	-31.26184
972.121	42.13465
972.292	4.88788
972.463	-26.6964
972.633	51.16153
972.804	-25.57877
972.975	-41.35983
973.145	-13.16835
973.316	-19.93678
973.487	10.53856
973.657	1.50539
973.828	9.39869
973.998	-12.04407
974.169	3.7648
974.339	-9.78201
974.51	-12.03706
974.68	21.81043
974.851	11.6643
975.021	-35.74683
975.192	42.13301
975.362	-12.04127
975.533	-24.43847
975.703	-16.55867
975.874	-48.13153
976.044	1.50463
976.214	38.75859
976.385	-7.52287
976.555	-0.7524
976.725	3.76173
976.896	39.91465
977.066	-7.52462
977.236	16.18705
977.406	4.89262
977.577	24.07413
977.747	11.66566
977.917	-12.04548
978.087	-3.01102
978.257	-12.02452
978.427	21.81718
978.598	66.96665
978.768	2.63255
978.938	-9.77709
979.108	2.63367
979.278	-7.52258
979.448	-3.00892
979.618	-10.91261
979.788	0.37618
979.958	55.63277
980.128	-16.55481
980.298	7.14881
980.468	63.57206
980.638	-36.85212
980.808	-30.10434
980.978	-22.17748
981.148	-34.58384
981.317	-13.16835
981.487	35.35068
981.657	-6.39556
981.827	-0.75243
981.997	34.25234
982.167	33.11735
982.336	39.89446
982.506	27.48035
982.676	9.39687
982.846	-37.959
983.015	-40.2435
983.185	-21.0616
983.355	-36.82795
983.524	-36.83789
983.694	-43.64115
983.864	-4.13526
984.033	-25.56887
984.203	13.91651
984.372	8.26941
984.542	-21.06487
984.712	-28.97937
984.881	-15.42817
985.051	-35.72468
985.22	-3.00915
985.39	-30.09617
985.559	-16.5484
985.728	16.17387
985.898	53.40625
986.067	26.33414
986.237	-5.26053
986.406	28.57919
986.576	-14.30679
986.745	20.69713
986.914	8.28352
987.084	31.97532
987.253	2.63194
987.422	16.17512
987.591	-22.19463
987.761	2.63367
987.93	-22.19893
988.099	-4.13927
988.268	-5.2652
988.438	-24.45266
988.607	18.44284
988.776	-21.07385
988.945	26.35154
989.114	-1.88148
989.283	52.30328
989.452	28.58693
989.621	-16.5484
989.791	33.10579
989.96	-14.28628
990.129	-8.64913
990.298	-7.5255
990.467	-12.05252
990.636	25.21973
990.805	-4.1367
990.974	21.81803
991.142	-26.71604
991.311	-50.40135
991.48	-19.93215
991.649	-24.4555
991.818	0.37586
991.987	-30.07987
992.156	59.07638
992.325	12.78889
992.493	-14.28959
992.662	-213.1995
992.831	-10.91219
993	-6.39185
993.168	25.1914
993.337	18.44356
993.506	26.33619
993.675	51.12002
993.843	-60.57447
994.012	22.95679
994.181	-12.02916
994.349	13.92352
994.518	-15.4204
994.686	42.14445
994.855	-9.77784
995.024	-16.54201
995.192	11.65752
995.361	-48.13153
995.529	29.69756
995.698	-40.23261
995.866	-4.13927
996.035	-14.29512
996.203	6.01574
996.371	25.20212
996.54	3.76173
996.708	-33.48653
996.877	21.82819
997.045	24.07973
997.213	10.53121
997.382	10.53366
997.55	-6.38938
997.718	-34.59586
997.887	-5.26662
998.055	-45.90201
998.223	-18.79991
998.391	-12.0352
998.56	34.24037
998.728	17.30328
998.896	59.11545
999.064	18.43712
999.232	-17.66817
999.401	-65.0591
999.569	21.81887
999.737	48.9044
999.905	-5.26662
1000.073	29.73786
1000.241	13.90952
1000.409	51.19531
1000.577	-58.32608
1000.745	10.53529
1000.913	4.88958
1001.081	-44.74123
1001.249	-22.19893
1001.417	-12.0236
1001.585	4.88958
1001.753	17.30127
1001.921	2.63336
1002.089	-17.68321
1002.256	20.6867
1002.424	18.43926
1002.592	4.88939
1002.76	-19.94606
1002.928	-12.03613
1003.096	61.32457
1003.263	6.019
1003.431	-7.52667
1003.599	27.44417
1003.767	-0.75232
1003.934	11.66611
1004.102	3.76071
1004.27	-19.93832
1004.437	-67.37818
1004.605	55.66502
1004.773	3.76217
1004.94	16.16761
1005.108	-40.2295
1005.275	2.63459
1005.443	16.17387
1005.61	-34.61596
1005.778	-3.00938
1005.945	2.63173
1006.113	30.83782
1006.28	-3.00903
1006.448	-15.42757
1006.615	-8.6508
1006.783	45.54965
1006.95	7.14493
1007.118	2.63418
1007.285	35.36026
1007.452	30.82948
1007.62	37.62022
1007.787	-22.19119
1007.954	7.15214
1008.122	-34.61596
1008.289	6.0204
1008.456	28.60801
1008.623	-4.14152
1008.791	24.07693
1008.958	34.2271
1009.125	10.52795
1009.292	53.40832
1009.459	4.893
1009.627	-43.62425
1009.794	-31.22175
1009.961	-5.26276
1010.128	43.29267
1010.295	12.78641
1010.462	52.34603
1010.629	11.67292
1010.796	-7.52754
1010.963	33.1045
1011.13	-51.53073
1011.297	-5.26764
1011.464	-48.13339
1011.631	-6.39259
1011.798	-52.68672
1011.965	42.13138
1012.132	8.27644
1012.299	-8.65449
1012.466	11.65122
1012.633	-42.51827
1012.799	12.78691
1012.966	6.01713
1013.133	7.15047
1013.3	-3.00962
1013.467	-84.21406
1013.633	28.61135
1013.8	12.78592
1013.967	-1.88083
1014.134	-36.88355
1014.3	4.89224
1014.467	-10.90248
1014.634	10.52633
1014.8	42.12649
1014.967	-4.1375
1015.134	8.27741
1015.3	-22.19205
1015.467	-39.09177
1015.633	12.78394
1015.8	-17.68458
1015.966	-3.01032
1016.133	4.88751
1016.3	-31.20606
1016.466	-24.46595
1016.632	-57.14959
1016.799	-14.30234
1016.965	-14.28407
1017.132	-4.13814
1017.298	24.0732
1017.465	37.62897
1017.631	-0.75208
1017.797	35.39876
1017.964	7.15548
1018.13	-18.78326
1018.296	12.79484
1018.463	21.82226
1018.629	11.66294
1018.795	-44.77414
1018.961	-8.65047
1019.128	-62.82947
1019.294	-48.15389
1019.46	-5.26949
1019.626	-6.39829
1019.792	-1.88054
1019.959	-7.52113
1020.125	41.04511
1020.291	-33.46838
1020.457	-24.44982
1020.623	-61.65903
1020.789	29.724
1020.955	-34.59453
1021.121	19.56706
1021.287	-27.83572
1021.453	6.01923
1021.619	12.79683
1021.785	10.53039
1021.951	10.53243
1022.117	-3.01032
1022.283	-6.39506
1022.449	30.85935
1022.615	21.83243
1022.781	-46.97173
1022.946	22.95411
1023.112	63.58932
1023.278	-58.28317
1023.444	32.02014
1023.61	-39.13717
1023.775	0.37634
1023.941	31.97656
1024.107	-5.26662
1024.273	30.82829
1024.438	-52.64998
1024.604	-28.94015
1024.77	-99.95419
1024.935	-6.39457
1025.101	21.83498
1025.267	-6.39407
1025.432	37.6042
1025.598	35.37673
1025.763	-15.42219
1025.929	9.40268
1026.095	8.27676
1026.26	22.95589
1026.426	-24.46025
1026.591	-35.73574
1026.757	-13.17346
1026.922	-8.6488
1027.087	-13.1607
1027.253	-13.16835
1027.418	9.40523
1027.584	-19.92214
1027.749	30.84379
1027.914	-27.83464
1028.08	25.20994
1028.245	-16.55225
1028.41	-7.52433
1028.576	-8.65248
1028.741	17.28792
1028.906	-67.3155
1029.072	28.56926
1029.237	15.04342
1029.402	17.29458
1029.567	-16.54009
1029.732	48.91199
1029.898	-26.71294
1030.063	37.6436
1030.228	38.7601
1030.393	10.53693
1030.558	55.67364
1030.723	34.26167
1030.888	-14.29512
1031.053	35.38498
1031.218	1.50434
1031.383	-34.60523
1031.548	-13.17295
1031.713	-0.75211
1031.878	-7.52084
1032.043	-23.33993
1032.208	6.01807
1032.373	-14.29014
1032.538	-0.75203
1032.703	26.30872
1032.868	-28.985
1033.033	46.65451
1033.198	43.27416
1033.362	-27.84327
1033.527	3.76246
1033.692	-63.97179
1033.857	-22.19893
1034.021	33.13152
1034.186	1.50492
1034.351	-42.49686
1034.516	-3.01172
1034.68	-6.39779
1034.845	16.17512
1035.01	9.4056
1035.174	9.40961
1035.339	24.06947
1035.504	34.23373
1035.668	-18.78543
1035.833	-48.18194
1035.997	31.95678
1036.162	53.43524
1036.326	50.07087
1036.491	-25.58571
1036.655	-4.13574
1036.82	-21.05022
1036.984	-25.54328
1037.149	-30.04976
1037.313	-63.95443
1037.478	12.78889
1037.642	-45.91627
1037.807	9.40523
1037.971	3.76363
1038.135	36.47537
1038.3	18.43283
1038.464	7.1527
1038.628	9.40852
1038.792	-18.80791
1038.957	-0.75255
1039.121	-12.04501
1039.285	-1.8809
1039.449	-7.52317
1039.614	27.45159
1039.778	39.86508
1039.942	-10.90458
1040.106	46.66537
1040.27	-45.90557
1040.434	-55.99032
1040.599	-4.13798
1040.763	-24.43942
1040.927	1.50411
1041.091	-16.55289
1041.255	25.1846
1041.419	22.95322
1041.583	-32.35087
1041.747	-81.97731
1041.911	-75.23763
1042.075	-18.81667
1042.239	27.47394
1042.403	-34.58518
1042.567	-43.60741
1042.731	19.54437
1042.894	-51.51877
1043.058	9.41108
1043.222	-15.42458
1043.386	-52.63371
1043.55	16.17324
1043.714	-21.06813
1043.877	8.27805
1044.041	-0.75264
1044.205	-31.2278
1044.369	0.3764
1044.532	11.65662
1044.696	-19.92522
1044.86	-38.006
1045.023	-36.83647
1045.187	22.93989
1045.351	-41.36143
1045.514	20.69312
1045.678	-12.02638
1045.841	50.02231
