Data from mildly cloudy_Subt2__14__14-24-24-077.txt Node

Date: Mon Oct 13 14:24:24 EDT 2025
User: brett
Spectrometer: USB4F03499
Trigger mode: 4
Integration Time (sec): 4.400000E-4
Scans to average: 1
Electric dark correction enabled: true
Nonlinearity correction enabled: true
Boxcar width: 0
XAxis mode: Wavelengths
Number of Pixels in Spectrum: 3648
>>>>>Begin Spectral Data<<<<<
345.386	41.02434
345.605	41.02434
345.824	41.02434
346.044	90.72305
346.263	37.62897
346.482	-41.35664
346.701	2.63265
346.92	-26.7119
347.139	34.22445
347.358	-19.93523
347.577	-4.13478
347.796	30.8426
348.015	27.47822
348.234	-6.39308
348.453	-24.44792
348.672	4.89015
348.891	22.95322
349.11	2.63306
349.329	-1.88039
349.548	78.24714
349.767	-7.52521
349.986	33.08402
350.205	-33.45417
350.424	34.24436
350.643	43.28425
350.862	42.151
351.08	-9.78201
351.299	-35.72468
351.518	-3.00892
351.737	13.92677
351.956	10.52876
352.174	-15.4198
352.393	55.66717
352.612	-38.006
352.831	-25.58968
353.049	-5.26826
353.268	-12.04688
353.487	35.34522
353.705	-1.88039
353.924	-34.58918
354.143	4.89072
354.361	7.15103
354.58	-18.81229
354.798	8.2887
355.017	-21.04697
355.236	71.4785
355.454	-0.75246
355.673	34.23373
355.891	21.80201
356.11	-18.79991
356.328	16.17261
356.547	-5.26601
356.765	33.09553
356.984	-18.81375
357.202	69.22128
357.42	35.36574
357.639	52.26885
357.857	2.63224
358.076	-15.42638
358.294	-17.67636
358.512	-36.8621
358.731	-51.51678
358.949	-49.27773
359.167	-26.71294
359.386	-23.32724
359.604	-13.16121
359.822	7.14909
360.04	-16.55674
360.259	-33.47486
360.477	-15.43838
360.695	-27.83249
360.913	-18.79919
361.131	-22.18604
361.35	-8.65382
361.568	15.051
361.786	-33.48783
362.004	19.53835
362.222	35.36986
362.44	9.39506
362.658	-3.01266
362.876	-23.30919
363.094	1.5044
363.312	7.14881
363.53	25.20603
363.749	-40.23417
363.967	-21.06079
364.184	12.79037
364.402	-4.1391
364.62	4.89186
364.838	-44.73087
365.056	-4.14039
365.274	-9.77747
365.492	2.63285
365.71	17.31201
365.928	-24.44225
366.146	22.96393
366.364	-12.0236
366.581	4.88939
366.799	-17.68115
367.017	-34.60389
367.235	-50.4072
367.453	-7.52171
367.67	18.43069
367.888	-3.01043
368.106	52.26481
368.323	2.63143
368.541	19.56402
368.759	-0.75232
368.977	38.73308
369.194	-33.44515
369.412	16.18705
369.629	26.35975
369.847	2.63133
370.065	34.2271
370.282	-1.88141
370.5	22.93989
370.717	-0.75197
370.935	11.65842
371.152	59.0512
371.37	17.29592
371.588	-19.92983
371.805	24.08628
372.022	-13.16325
372.24	39.88826
372.457	-48.15576
372.675	-44.80025
372.892	35.3781
373.11	8.27998
373.327	38.73158
373.544	30.85575
373.762	-12.03009
373.979	-27.81529
374.196	4.89281
374.414	27.48142
374.631	19.55342
374.848	26.34744
375.066	-18.80137
375.283	-18.81448
375.5	-33.48134
375.717	-4.1367
375.935	-4.14136
376.152	-19.93987
376.369	-13.1791
376.586	-41.39669
376.803	-51.52276
377.02	34.23108
377.238	-23.32724
377.455	47.78417
377.672	-14.29125
377.889	57.95541
378.106	-5.26724
378.323	39.89446
378.54	31.96666
378.757	-52.67854
378.974	-7.52667
379.191	-26.70569
379.408	-21.06568
379.625	37.62605
379.842	20.68911
380.059	28.58693
380.276	8.2832
380.493	-1.88083
380.71	21.8138
380.927	62.43752
381.143	26.31887
381.36	52.28503
381.577	12.7795
381.794	19.55116
382.011	11.66023
382.228	15.03297
382.444	-39.07671
382.661	34.23373
382.878	15.04808
383.095	44.36097
383.311	36.50223
383.528	1.50463
383.745	2.63377
383.962	-3.00938
384.178	-40.23572
384.395	20.6867
384.612	44.41772
384.828	-41.34547
385.045	38.71812
385.261	-12.03474
385.478	54.56098
385.695	-10.90922
385.911	-0.75191
386.128	-12.0338
386.344	85.07139
386.561	82.75501
386.777	38.70023
386.994	19.52935
387.21	6.01319
387.427	29.69756
387.643	70.33491
387.86	56.72442
388.076	47.72512
388.292	18.42427
388.509	42.12323
388.725	72.58884
388.942	54.54195
389.158	78.23502
389.374	96.12633
389.591	63.46437
389.807	33.07764
390.023	46.55217
390.239	22.90547
390.456	82.6529
390.672	57.85696
390.888	79.28535
391.104	86.01269
391.321	98.34919
391.537	122.11295
391.753	119.71165
391.969	132.10837
392.185	159.16747
392.401	157.81572
392.618	136.50804
392.834	168.10005
393.05	190.51962
393.266	171.45424
393.482	176.97085
393.698	244.45284
393.914	197.2405
394.13	211.74073
394.346	222.75692
394.562	203.81268
394.778	265.60841
394.994	227.60208
395.21	245.07342
395.426	351.49904
395.642	372.79442
395.858	394.11718
396.073	437.78201
396.289	392.40453
396.505	488.3139
396.721	460.6624
396.937	489.22662
397.153	439.69826
397.369	502.81883
397.584	636.90168
397.8	510.32586
398.016	536.19927
398.232	641.33838
398.447	552.10563
398.663	664.15903
398.879	627.75301
399.094	806.75538
399.31	801.64314
399.526	815.03232
399.741	894.75982
399.957	916.37427
400.173	1002.21934
400.388	1025.88867
400.604	1129.82441
400.82	1129.39693
401.035	1311.95194
401.251	1303.16678
401.466	1324.4754
401.682	1504.5643
401.897	1560.49945
402.113	1574.69555
402.328	1755.99581
402.544	1717.01903
402.759	1758.86525
402.974	1890.70674
403.19	1883.68898
403.405	2207.09203
403.621	2189.68041
403.836	2269.6095
404.051	2350.06439
404.267	2495.14178
404.482	2353.66278
404.697	2395.60817
404.913	2468.7671
405.128	2822.62907
405.343	2732.38909
405.559	2669.59575
405.774	2822.22307
405.989	2986.04623
406.204	3068.69792
406.42	3082.69369
406.635	3114.48755
406.85	3124.47406
407.065	3151.79881
407.28	3466.1189
407.495	3322.57119
407.71	3246.20333
407.926	3335.39066
408.141	3749.82775
408.356	3748.16399
408.571	3764.06989
408.786	3700.35955
409.001	3683.30466
409.216	3974.58205
409.431	4013.05764
409.646	3885.4025
409.861	3957.45334
410.076	4015.88589
410.291	4005.6851
410.506	4096.63863
410.721	4064.82835
410.936	4046.54961
411.15	4065.56737
411.365	4212.25439
411.58	4295.19834
411.795	4322.12595
412.01	4489.6486
412.225	4301.27957
412.439	4321.76452
412.654	4423.33132
412.869	4542.04444
413.084	4477.01498
413.299	4745.7234
413.513	4481.06452
413.728	4516.49474
413.943	4756.97082
414.157	4800.45559
414.372	4746.81998
414.587	4988.0696
414.801	4943.63368
415.016	5087.64801
415.231	5124.96065
415.445	5137.79134
415.66	5166.97925
415.874	5340.95814
416.089	5061.35423
416.304	5490.79236
416.518	5270.80327
416.733	5327.30287
416.947	5170.13374
417.162	5262.82344
417.376	5468.84594
417.59	5595.39503
417.805	5523.9127
418.019	5523.737
418.234	5448.45813
418.448	5307.19096
418.663	5475.73155
418.877	5441.62283
419.091	5474.01446
419.306	5484.82486
419.52	5544.10264
419.734	5375.73604
419.949	5711.21392
420.163	5846.58074
420.377	5468.3738
420.591	5552.59352
420.806	5650.51756
421.02	5671.87699
421.234	5727.6203
421.448	5742.51649
421.663	5889.89578
421.877	5634.78542
422.091	5747.49312
422.305	5663.09839
422.519	5775.26946
422.733	6176.0632
422.947	5757.86791
423.161	5736.01418
423.376	5930.74665
423.59	5939.43468
423.804	6048.82849
424.018	6000.70469
424.232	5975.76737
424.446	6283.92361
424.66	6195.3196
424.874	6038.52731
425.088	5991.21848
425.302	5992.80828
425.515	6484.14331
425.729	6346.14065
425.943	6446.19853
426.157	6497.42704
426.371	6363.31034
426.585	6537.61732
426.799	6481.12615
427.013	6876.25142
427.226	6894.33008
427.44	6420.6151
427.654	6496.29131
427.868	6586.45163
428.081	6702.00143
428.295	6668.72462
428.509	6817.67309
428.723	6683.48876
428.936	6639.01991
429.15	6450.68737
429.364	6743.18572
429.577	6572.1074
429.791	6537.61812
430.005	6972.08083
430.218	6958.01811
430.432	6563.3055
430.645	6550.39906
430.859	6615.7899
431.073	6751.53723
431.286	6891.70001
431.5	6983.33311
431.713	6543.8797
431.927	6729.90112
432.14	6882.63749
432.354	6681.61352
432.567	6834.78125
432.781	6943.15047
432.994	7064.17101
433.207	7092.28687
433.421	7167.80056
433.634	7021.71715
433.848	7139.77484
434.061	7052.52816
434.274	6576.57308
434.488	6812.10396
434.701	6692.85123
434.914	6813.51414
435.127	6989.30163
435.341	7185.65575
435.554	7136.75968
435.767	7549.27261
435.98	7299.54845
436.194	7074.69154
436.407	7075.42354
436.62	7795.83928
436.833	7673.02405
437.046	7469.43686
437.259	7230.15253
437.473	7562.06181
437.686	7852.68247
437.899	7549.28887
438.112	7741.93475
438.325	7522.91518
438.538	7631.31183
438.751	8187.57763
438.964	7722.71126
439.177	8001.35867
439.39	8052.05096
439.603	8543.1457
439.816	8243.81941
440.029	8659.77978
440.242	8903.84622
440.455	9130.96021
440.668	8831.33755
440.881	8563.88328
441.094	8369.0242
441.306	9043.07077
441.519	9455.67165
441.732	9398.73454
441.945	9591.85383
442.158	8940.59184
442.37	8895.99437
442.583	9650.15128
442.796	10061.95478
443.009	9904.99895
443.222	9459.1956
443.434	8921.45057
443.647	9866.21343
443.86	10361.66374
444.072	10519.16744
444.285	10328.01947
444.498	10560.81619
444.71	10274.30076
444.923	10289.72753
445.136	10161.06358
445.348	10039.17527
445.561	9998.48459
445.773	10243.87829
445.986	9603.21189
446.198	10493.49062
446.411	10645.65325
446.623	10732.60833
446.836	10714.14055
447.048	10923.74871
447.261	11227.43503
447.473	11154.36194
447.686	10584.08146
447.898	10918.48761
448.11	11746.8164
448.323	11856.10342
448.535	11490.65038
448.748	10942.0555
448.96	11041.78538
449.172	11263.77132
449.385	10618.88333
449.597	11529.74345
449.809	11559.69564
450.021	11766.99188
450.234	11907.78374
450.446	11150.53128
450.658	11350.05863
450.87	11147.92695
451.083	11827.67046
451.295	11755.06341
451.507	11415.27659
451.719	11446.29799
451.931	11890.50807
452.143	11733.13061
452.356	11567.93734
452.568	11792.88618
452.78	11793.51877
452.992	11979.47246
453.204	12215.02304
453.416	11950.91283
453.628	11489.4676
453.84	11672.37102
454.052	11653.06364
454.264	12314.92816
454.476	12082.29082
454.688	12755.30798
454.9	12690.09181
455.112	12022.49363
455.324	11697.08541
455.536	12278.66037
455.747	12450.19686
455.959	12375.08999
456.171	12616.30744
456.383	12316.94565
456.595	11874.49936
456.807	11976.0975
457.018	11898.9552
457.23	12384.38937
457.442	12080.36271
457.654	12559.59706
457.865	12325.97957
458.077	11879.15298
458.289	12001.79582
458.501	12187.5141
458.712	12907.8338
458.924	13485.21706
459.136	12473.7078
459.347	12284.61373
459.559	12361.15734
459.77	13075.71337
459.982	13173.62245
460.194	13102.11771
460.405	12636.37695
460.617	12757.24592
460.828	13111.05471
461.04	13055.35974
461.251	12840.73206
461.463	13968.64357
461.674	13547.80166
461.886	13272.48939
462.097	12930.16517
462.309	13531.00325
462.52	12981.79301
462.731	13929.14236
462.943	13128.04205
463.154	12945.01583
463.366	13010.5627
463.577	13621.73083
463.788	13781.39659
464	14022.00741
464.211	14081.08467
464.422	15051.51939
464.634	14662.78277
464.845	14384.17184
465.056	14700.89369
465.267	14590.50399
465.478	13784.72384
465.69	14476.868
465.901	14402.68346
466.112	14620.78702
466.323	14642.61877
466.534	15022.81452
466.745	15029.22781
466.957	15129.03423
467.168	15062.72272
467.379	14994.92818
467.59	14658.56171
467.801	14321.24773
468.012	14733.622
468.223	15114.88887
468.434	14924.86973
468.645	15826.83052
468.856	15941.95383
469.067	15495.43489
469.278	15528.0981
469.489	15825.42736
469.7	15080.9012
469.911	15284.22795
470.122	16434.35276
470.333	16700.55249
470.543	15577.91556
470.754	16063.88562
470.965	16064.6684
471.176	16299.32782
471.387	16899.87401
471.598	16311.64473
471.808	16114.95766
472.019	16667.73953
472.23	16431.13168
472.441	16028.01408
472.651	16786.84086
472.862	16485.92265
473.073	17125.97673
473.283	16851.75806
473.494	16775.9925
473.705	16808.57783
473.915	17085.1679
474.126	17810.27859
474.337	17595.56204
474.547	17954.96451
474.758	18121.34233
474.968	17862.86438
475.179	18024.86343
475.389	17826.40528
475.6	18211.20518
475.81	18519.50742
476.021	18784.32524
476.231	19041.59592
476.442	18906.98757
476.652	18565.57818
476.863	18758.40894
477.073	18644.98046
477.284	19246.35665
477.494	19151.6845
477.704	20104.94852
477.915	20548.265
478.125	19494.62396
478.335	20019.34889
478.546	20731.96417
478.756	20327.3433
478.966	20824.38603
479.177	20866.24529
479.387	21287.9666
479.597	20992.16971
479.807	21299.35915
480.018	21183.92827
480.228	21782.24476
480.438	21833.57
480.648	22096.14407
480.858	22302.86289
481.068	21663.45031
481.279	22405.30597
481.489	23344.81742
481.699	23093.30902
481.909	22926.40885
482.119	24144.11574
482.329	24055.12969
482.539	24033.95811
482.749	23472.47296
482.959	24076.42896
483.169	24830.18762
483.379	24752.85011
483.589	25101.39734
483.799	24707.61216
484.009	24621.8031
484.219	25170.20791
484.429	25428.17564
484.639	24869.9646
484.849	25522.69376
485.059	25979.52535
485.268	26236.19946
485.478	26440.00032
485.688	25593.14026
485.898	25691.55507
486.108	26008.11272
486.317	26563.96507
486.527	26507.30161
486.737	27333.05599
486.947	26924.27354
487.156	27323.01127
487.366	27065.16053
487.576	26733.90322
487.785	26783.33562
487.995	26855.19126
488.205	27300.93356
488.414	27456.24313
488.624	27063.61719
488.834	27135.36375
489.043	26874.10324
489.253	26833.37845
489.462	27174.74767
489.672	27944.89644
489.882	27702.74723
490.091	28077.15177
490.301	27807.52422
490.51	28049.55043
490.72	28228.36437
490.929	28292.16969
491.138	28867.84494
491.348	28197.99254
491.557	28356.98995
491.767	28573.12229
491.976	28632.12798
492.185	28463.93618
492.395	28262.52806
492.604	28719.89192
492.813	28777.47369
493.023	29150.18846
493.232	28819.6512
493.441	28942.20228
493.651	29231.42412
493.86	28667.24438
494.069	29227.03381
494.278	29203.78874
494.488	29210.32119
494.697	29476.4221
494.906	29347.11197
495.115	29776.54556
495.324	29665.28742
495.533	30021.25329
495.743	30110.90593
495.952	30736.71327
496.161	30499.43763
496.37	30672.73386
496.579	31026.82349
496.788	30845.80564
496.997	31205.20375
497.206	30838.39604
497.415	31011.73765
497.624	31297.663
497.833	31554.95041
498.042	31361.40945
498.251	31724.2796
498.46	31822.13946
498.669	31587.7178
498.878	31487.4406
499.087	31661.24334
499.296	32207.4672
499.504	32081.36748
499.713	31813.17256
499.922	32106.72999
500.131	32096.71001
500.34	32236.21581
500.549	32230.53821
500.757	32319.65945
500.966	32480.73034
501.175	32438.31091
501.384	32707.59554
501.592	32554.68199
501.801	32512.03227
502.01	32537.45502
502.218	32555.70618
502.427	32886.27763
502.636	32647.92067
502.844	32901.79397
503.053	32719.76987
503.262	32845.29006
503.47	32706.10185
503.679	32659.96477
503.887	32779.6629
504.096	32884.94692
504.304	32781.55548
504.513	32970.79665
504.721	32779.54065
504.93	32717.14357
505.138	33000.17981
505.347	32947.74212
505.555	32841.18285
505.764	33021.78716
505.972	32989.18255
506.18	32697.04084
506.389	33009.7813
506.597	32709.87792
506.806	32967.79494
507.014	33191.66381
507.222	32960.44058
507.431	32943.1058
507.639	32839.65413
507.847	33017.72104
508.055	33088.54416
508.264	33136.5523
508.472	33320.68787
508.68	33144.37282
508.888	33303.5963
509.096	33309.55633
509.305	33224.08294
509.513	33129.38517
509.721	33109.22802
509.929	33288.6711
510.137	33196.05757
510.345	33323.59166
510.553	33445.45845
510.762	33325.8514
510.97	33484.94864
511.178	33388.1974
511.386	33611.81709
511.594	33441.3806
511.802	33516.03783
512.01	33612.67524
512.218	33676.13513
512.426	33751.95155
512.634	33770.2797
512.842	33713.07424
513.049	33706.2007
513.257	33640.46263
513.465	33862.1941
513.673	33725.01154
513.881	33805.42927
514.089	33771.42378
514.297	33826.03891
514.504	33814.58312
514.712	33849.50296
514.92	33779.25287
515.128	33975.05353
515.336	33791.35682
515.543	33790.51939
515.751	33829.2001
515.959	33698.31163
516.166	33687.01643
516.374	33856.92315
516.582	33895.13719
516.789	33761.97362
516.997	33750.69904
517.205	33692.26019
517.412	33917.35302
517.62	33790.90059
517.827	33739.01356
518.035	33751.35494
518.243	33588.6402
518.45	33525.88094
518.658	33521.84761
518.865	33327.41348
519.073	33440.34525
519.28	33222.59424
519.488	33204.04286
519.695	33069.67362
519.902	33203.80348
520.11	33155.9961
520.317	33338.50798
520.525	33183.92225
520.732	33031.78167
520.939	33216.7867
521.147	32831.54727
521.354	32987.72512
521.561	32902.80155
521.769	33027.31151
521.976	32892.80899
522.183	32963.29951
522.391	32742.58357
522.598	33002.20741
522.805	32974.14784
523.012	32860.96899
523.219	32763.92567
523.427	32937.31056
523.634	32831.99433
523.841	32983.3384
524.048	32795.76178
524.255	33142.47823
524.462	32974.76343
524.669	32668.38545
524.877	33077.02195
525.084	32845.37116
525.291	32812.3705
525.498	33182.75549
525.705	33121.7162
525.912	33122.93083
526.119	33045.12423
526.326	33123.17143
526.533	33278.18639
526.74	33377.26258
526.947	33108.79853
527.153	33484.61457
527.36	33301.12958
527.567	33337.75126
527.774	33369.72074
527.981	33130.59
528.188	33254.56318
528.395	33441.06503
528.602	33256.98616
528.808	33409.16285
529.015	33037.58858
529.222	33459.45365
529.429	33108.55164
529.635	33402.70752
529.842	33361.82629
530.049	33383.31148
530.256	33232.0221
530.462	33516.79637
530.669	33269.55971
530.876	33309.91906
531.082	33243.25572
531.289	33354.87172
531.495	33308.47055
531.702	33477.15152
531.909	33211.53899
532.115	33455.01382
532.322	33143.64712
532.528	33210.66695
532.735	33338.71304
532.941	33391.53547
533.148	33175.94244
533.354	33235.98525
533.561	33422.71709
533.767	33222.23416
533.974	33001.9967
534.18	33250.84952
534.387	33172.19118
534.593	33132.68155
534.799	33089.26648
535.006	33280.08161
535.212	33115.32408
535.418	33201.50197
535.625	33168.82315
535.831	33260.48784
536.037	32951.13099
536.244	33117.57926
536.45	32755.38279
536.656	33128.85338
536.862	33171.06204
537.068	33238.43403
537.275	33103.01461
537.481	33235.09819
537.687	33243.35488
537.893	33402.34697
538.099	33262.67421
538.305	33182.39637
538.512	33190.08116
538.718	33167.99964
538.924	33070.76468
539.13	32957.85773
539.336	33049.72452
539.542	32960.51795
539.748	33042.66745
539.954	32896.79627
540.16	33087.61263
540.366	33111.19766
540.572	32939.8409
540.778	32872.97703
540.984	32926.75431
541.19	32808.31001
541.396	32526.20176
541.602	32603.55585
541.807	32381.52776
542.013	32584.98091
542.219	32199.32632
542.425	32122.16658
542.631	32133.88339
542.837	31892.16546
543.042	31853.79631
543.248	31715.38207
543.454	31599.58091
543.66	31545.64887
543.865	30830.90796
544.071	31190.52209
544.277	30767.02093
544.483	30711.34872
544.688	30515.56059
544.894	30462.48902
545.1	30265.21975
545.305	29799.40733
545.511	29946.51596
545.716	29353.96363
545.922	29020.04794
546.128	28587.04752
546.333	28372.30276
546.539	28475.21518
546.744	27708.64417
546.95	27651.19668
547.155	27146.52756
547.361	27015.20255
547.566	26199.94847
547.772	25992.94169
547.977	25545.12882
548.182	24865.64502
548.388	24686.67858
548.593	24627.21512
548.799	23588.95717
549.004	23381.35122
549.209	22826.06424
549.415	22580.52595
549.62	21979.84361
549.825	21528.27831
550.031	20886.83689
550.236	20581.31239
550.441	20257.77665
550.646	19924.80644
550.852	19245.60953
551.057	18614.71611
551.262	18218.56042
551.467	17792.71701
551.672	17196.69495
551.878	16764.56671
552.083	16163.58548
552.288	15785.91461
552.493	15451.9545
552.698	14976.40889
552.903	14302.22177
553.108	14144.25126
553.313	13725.48113
553.518	13152.90503
553.723	12762.76092
553.928	12421.41792
554.133	11926.86754
554.338	11828.42669
554.543	11341.4066
554.748	11051.50218
554.953	10678.13461
555.158	10451.97906
555.363	10050.35925
555.568	9674.75429
555.773	9594.21627
555.978	9234.96749
556.182	8948.26584
556.387	8904.43101
556.592	8436.43157
556.797	8529.22371
557.002	8310.36009
557.206	8052.64761
557.411	7804.60622
557.616	7624.83178
557.821	7725.43932
558.025	7558.96581
558.23	7241.22041
558.435	7232.01889
558.64	7158.39664
558.844	7005.12925
559.049	6852.17401
559.253	6850.20449
559.458	6602.99636
559.663	6707.06438
559.867	6421.22614
560.072	6470.62212
560.276	6334.46239
560.481	6352.51904
560.685	6198.75341
560.89	6247.28229
561.094	6069.75793
561.299	6046.94093
561.503	5863.682
561.708	6029.30487
561.912	5923.26353
562.117	5830.86205
562.321	5796.90251
562.525	5908.35963
562.73	5834.70752
562.934	5811.47904
563.139	5658.72964
563.343	5713.72323
563.547	5741.40602
563.752	5642.68866
563.956	5631.66286
564.16	5584.71959
564.364	5688.49946
564.569	5598.30265
564.773	5480.44242
564.977	5554.26618
565.181	5529.79134
565.385	5437.46175
565.59	5457.60608
565.794	5368.21559
565.998	5348.59759
566.202	5329.2142
566.406	5304.38903
566.61	5369.08097
566.814	5218.5151
567.018	5312.36783
567.222	5239.46031
567.426	5247.72605
567.63	5204.05291
567.834	5339.35889
568.038	5151.86539
568.242	5102.33521
568.446	5027.98194
568.65	5073.27874
568.854	5051.73656
569.058	5101.68406
569.262	5065.06742
569.466	5186.82186
569.67	4964.15938
569.874	4897.25574
570.078	4949.28584
570.281	4952.20678
570.485	4987.31123
570.689	4974.08371
570.893	4824.9737
571.097	4897.25178
571.3	4735.33996
571.504	4931.6746
571.708	4761.33812
571.912	4824.84864
572.115	4786.66207
572.319	4745.83483
572.523	4759.86031
572.726	4886.08911
572.93	4666.89992
573.133	4679.97813
573.337	4660.66568
573.541	4704.02697
573.744	4597.24485
573.948	4730.80567
574.151	4598.81274
574.355	4635.94824
574.558	4528.58478
574.762	4614.75315
574.965	4502.31675
575.169	4644.88612
575.372	4465.19522
575.576	4575.94183
575.779	4472.87704
575.983	4524.00825
576.186	4458.31489
576.389	4582.97065
576.593	4444.66258
576.796	4509.78446
577	4333.05723
577.203	4531.2572
577.406	4349.02534
577.609	4348.60044
577.813	4371.75633
578.016	4367.41968
578.219	4345.78561
578.423	4438.64175
578.626	4313.11987
578.829	4361.99894
579.032	4289.71322
579.235	4374.47988
579.438	4219.89237
579.642	4274.44401
579.845	4219.67203
580.048	4294.63006
580.251	4196.76493
580.454	4282.82432
580.657	4144.84094
580.86	4215.46954
581.063	4086.76111
581.266	4261.10953
581.469	4198.86741
581.672	4218.79933
581.875	4273.16733
582.078	4257.53926
582.281	4178.04547
582.484	4162.34671
582.687	4190.32864
582.89	4054.14529
583.093	4077.148
583.296	4104.24163
583.499	4160.62265
583.702	4230.73021
583.904	4070.06794
584.107	4070.77624
584.31	4092.94877
584.513	4153.33096
584.716	4069.64855
584.918	4181.23784
585.121	4176.90648
585.324	4233.19833
585.527	4061.94877
585.729	4125.14734
585.932	3984.11108
586.135	4023.71455
586.337	3967.36725
586.54	4128.53213
586.743	4074.27394
586.945	3968.3698
587.148	4018.31468
587.35	4161.60376
587.553	4041.73881
587.755	4036.37448
587.958	4013.80066
588.161	3982.59977
588.363	4088.73586
588.566	4115.12598
588.768	4085.66346
588.971	4099.73141
589.173	4019.84988
589.375	4067.39145
589.578	3999.94229
589.78	4077.24473
589.983	3906.57636
590.185	3999.63932
590.387	3980.57848
590.59	3993.24149
590.792	3987.41361
590.994	3988.69069
591.197	3762.80591
591.399	3884.37354
591.601	3787.77873
591.803	3911.24544
592.006	3792.83268
592.208	3909.46388
592.41	3813.57328
592.612	3821.53499
592.815	3691.6524
593.017	3819.53285
593.219	3793.03578
593.421	3846.623
593.623	3676.94631
593.825	3702.18459
594.027	3652.32421
594.229	3771.81551
594.432	3652.79918
594.634	3730.53429
594.836	3671.1333
595.038	3746.50824
595.24	3598.07926
595.442	3709.12716
595.644	3592.06067
595.846	3626.06742
596.048	3554.29421
596.249	3670.26083
596.451	3569.53527
596.653	3669.58377
596.855	3599.29285
597.057	3653.87523
597.259	3521.09691
597.461	3575.99517
597.663	3552.12916
597.864	3435.45849
598.066	3475.45063
598.268	3624.57399
598.47	3519.21503
598.671	3573.36987
598.873	3519.49544
599.075	3625.9721
599.277	3588.31414
599.478	3660.31989
599.68	3517.43818
599.882	3601.14923
600.083	3554.00889
600.285	3545.74548
600.487	3472.14761
600.688	3540.37636
600.89	3541.88089
601.091	3546.39508
601.293	3466.23547
601.494	3566.71761
601.696	3589.56444
601.898	3621.09348
602.099	3548.18615
602.301	3524.86544
602.502	3547.14659
602.703	3545.92394
602.905	3452.67885
603.106	3568.85514
603.308	3497.00756
603.509	3658.48635
603.711	3432.28342
603.912	3448.51872
604.113	3447.61173
604.315	3530.61173
604.516	3442.87499
604.717	3484.79227
604.919	3488.08318
605.12	3509.44188
605.321	3452.27734
605.522	3509.14467
605.724	3497.47565
605.925	3425.92669
606.126	3430.73902
606.327	3529.2814
606.528	3533.0422
606.729	3496.91403
606.931	3534.17242
607.132	3621.60981
607.333	3359.47728
607.534	3495.96737
607.735	3499.83245
607.936	3597.05738
608.137	3516.76744
608.338	3571.68043
608.539	3510.47646
608.74	3450.67305
608.941	3515.262
609.142	3426.16015
609.343	3486.74136
609.544	3527.87284
609.745	3416.41545
609.946	3511.21764
610.147	3400.84079
610.348	3515.63943
610.549	3413.60798
610.75	3531.54619
610.95	3428.64535
611.151	3455.43503
611.352	3478.27764
611.553	3459.43677
611.754	3360.24169
611.954	3441.17314
612.155	3436.67876
612.356	3410.95768
612.557	3387.35979
612.757	3516.58359
612.958	3324.69668
613.159	3474.55055
613.359	3359.53366
613.56	3432.35057
613.761	3353.60427
613.961	3504.91007
614.162	3400.98814
614.362	3482.23304
614.563	3446.64881
614.764	3385.43901
614.964	3341.70927
615.165	3449.01669
615.365	3262.54294
615.566	3370.4319
615.766	3329.11364
615.967	3347.06734
616.167	3393.76591
616.368	3357.80353
616.568	3228.31239
616.768	3390.98784
616.969	3342.11105
617.169	3399.25266
617.37	3206.34061
617.57	3349.95827
617.77	3276.27272
617.971	3429.68171
618.171	3308.4437
618.371	3283.45174
618.571	3287.42624
618.772	3298.28144
618.972	3309.57097
619.172	3314.94249
619.372	3205.0362
619.573	3302.12281
619.773	3248.05334
619.973	3288.08502
620.173	3320.90692
620.373	3344.82291
620.573	3335.57233
620.774	3294.13626
620.974	3225.03673
621.174	3267.4903
621.374	3329.88033
621.574	3331.3703
621.774	3314.62703
621.974	3335.99108
622.174	3274.33625
622.374	3329.66954
622.574	3281.58564
622.774	3292.50775
622.974	3254.7289
623.174	3460.96461
623.374	3271.37785
623.574	3430.71806
623.774	3390.34876
623.973	3285.82906
624.173	3320.6345
624.373	3350.01196
624.573	3250.65998
624.773	3302.93603
624.973	3350.5832
625.172	3443.96398
625.372	3323.69985
625.572	3444.00365
625.772	3242.39963
625.971	3380.00793
626.171	3335.43109
626.371	3391.96748
626.57	3285.63561
626.77	3338.99768
626.97	3384.24836
627.169	3450.65969
627.369	3333.31463
627.569	3356.11364
627.768	3269.15455
627.968	3395.40908
628.167	3396.96892
628.367	3315.44208
628.566	3314.3129
628.766	3394.46389
628.965	3432.51341
629.165	3500.76679
629.364	3297.87943
629.564	3372.74693
629.763	3389.64599
629.963	3358.2808
630.162	3327.08296
630.362	3434.6604
630.561	3327.25017
630.76	3311.19699
630.96	3307.26773
631.159	3477.31756
631.358	3390.51414
631.558	3500.68222
631.757	3362.49475
631.956	3382.29581
632.155	3318.92072
632.355	3455.38569
632.554	3333.21858
632.753	3411.47306
632.952	3308.49409
633.152	3412.9836
633.351	3305.32748
633.55	3427.48114
633.749	3369.72622
633.948	3481.46212
634.147	3343.68372
634.346	3353.09139
634.545	3420.678
634.744	3393.94975
634.944	3240.47325
635.143	3420.56093
635.342	3320.67653
635.541	3441.88057
635.74	3332.22795
635.939	3420.19299
636.138	3318.23768
636.336	3478.19629
636.535	3409.89576
636.734	3423.14404
636.933	3523.1662
637.132	3464.80301
637.331	3340.43627
637.53	3488.34433
637.729	3388.58046
637.928	3560.13155
638.126	3505.22201
638.325	3501.23827
638.524	3473.01965
638.723	3460.44894
638.921	3526.17496
639.12	3417.79789
639.319	3508.20646
639.518	3518.36767
639.716	3507.74556
639.915	3570.0768
640.114	3586.74884
640.312	3689.71627
640.511	3426.22623
640.71	3648.9778
640.908	3623.7509
641.107	3491.9748
641.305	3655.91761
641.504	3612.76684
641.702	3629.3006
641.901	3640.11454
642.099	3560.86983
642.298	3708.98926
642.496	3641.51497
642.695	3626.44899
642.893	3679.39574
643.092	3677.84388
643.29	3611.98639
643.489	3656.08881
643.687	3615.81064
643.885	3584.36123
644.084	3578.1564
644.282	3585.95547
644.48	3718.57123
644.679	3731.78331
644.877	3626.4208
645.075	3723.06078
645.274	3685.17611
645.472	3675.58084
645.67	3528.54384
645.868	3669.58146
646.067	3652.30923
646.265	3699.78518
646.463	3655.17268
646.661	3700.26588
646.859	3775.70589
647.057	3619.8464
647.256	3692.19955
647.454	3767.31393
647.652	3681.29644
647.85	3703.35854
648.048	3831.69685
648.246	3665.71423
648.444	3665.35678
648.642	3692.90871
648.84	3673.46544
649.038	3875.6186
649.236	3686.35851
649.434	3681.26723
649.632	3691.55534
649.83	3646.95931
650.028	3693.55395
650.226	3652.43769
650.423	3631.70896
650.621	3728.39969
650.819	3636.79785
651.017	3733.97882
651.215	3730.28225
651.413	3697.53035
651.61	3702.75342
651.808	3695.7146
652.006	3568.8557
652.204	3716.03319
652.401	3794.20936
652.599	3846.81315
652.797	3674.88207
652.995	3697.65254
653.192	3569.70731
653.39	3830.45213
653.588	3712.67294
653.785	3695.81119
653.983	3564.44332
654.18	3748.98289
654.378	3452.61778
654.576	3706.11723
654.773	3672.84484
654.971	3714.89777
655.168	3599.11255
655.366	3802.46992
655.563	3591.52183
655.761	3666.22668
655.958	3660.86725
656.156	3674.87624
656.353	3663.79253
656.55	3613.67191
656.748	3668.20883
656.945	3673.71396
657.143	3621.41785
657.34	3614.14794
657.537	3511.70731
657.735	3657.79071
657.932	3547.14659
658.129	3601.8328
658.326	3604.17904
658.524	3619.7618
658.721	3543.19715
658.918	3551.56406
659.115	3523.8269
659.313	3564.17398
659.51	3552.50399
659.707	3477.14894
659.904	3545.73806
660.101	3567.9422
660.298	3516.30298
660.496	3536.14752
660.693	3431.1559
660.89	3557.3049
661.087	3573.11377
661.284	3532.29704
661.481	3445.44812
661.678	3491.68021
661.875	3493.82806
662.072	3564.07908
662.269	3549.30912
662.466	3613.87771
662.663	3481.46949
662.86	3509.34868
663.057	3484.31469
663.254	3549.12468
663.45	3550.07119
663.647	3502.08628
663.844	3552.69522
664.041	3579.70068
664.238	3414.37434
664.435	3415.55742
664.631	3507.26219
664.828	3558.24453
665.025	3509.90385
665.222	3563.13153
665.419	3464.03878
665.615	3596.20235
665.812	3491.94419
666.009	3603.17815
666.205	3533.13763
666.402	3638.43199
666.599	3547.43394
666.795	3555.88852
666.992	3577.71345
667.188	3576.28902
667.385	3525.79932
667.582	3706.33807
667.778	3556.7341
667.975	3621.89796
668.171	3645.14455
668.368	3576.94395
668.564	3502.18995
668.761	3630.96283
668.957	3547.89823
669.154	3576.77451
669.35	3493.1547
669.547	3612.57547
669.743	3549.59238
669.939	3663.16095
670.136	3493.3343
670.332	3522.70337
670.528	3507.08412
670.725	3561.15272
670.921	3593.12741
671.117	3602.33553
671.314	3554.77904
671.51	3612.86256
671.706	3485.79941
671.902	3540.75245
672.099	3489.39723
672.295	3543.57426
672.491	3503.97276
672.687	3514.60778
672.883	3451.45798
673.08	3531.9141
673.276	3456.62092
673.472	3451.0166
673.668	3499.17843
673.864	3581.17355
674.06	3449.27649
674.256	3465.26963
674.452	3405.95874
674.648	3481.01125
674.844	3356.67544
675.04	3452.58628
675.236	3363.50136
675.432	3373.65904
675.628	3269.5372
675.824	3437.0283
676.02	3326.22927
676.216	3345.86076
676.412	3252.73915
676.608	3324.5173
676.804	3197.14079
676.999	3303.34112
677.195	3277.93457
677.391	3321.4914
677.587	3234.03743
677.783	3254.6666
677.978	3212.07056
678.174	3219.55245
678.37	3182.91998
678.566	3290.02044
678.761	3181.03697
678.957	3261.76129
679.153	3093.21134
679.348	3200.89388
679.544	3094.61733
679.74	3144.42512
679.935	3176.3477
680.131	3126.11746
680.327	3181.69176
680.522	3074.96474
680.718	3168.4005
680.913	3166.30286
681.109	3087.46576
681.304	3043.2907
681.5	3037.50248
681.695	3091.92098
681.891	3015.89654
682.086	3078.42543
682.282	3023.6225
682.477	2890.19633
682.672	3071.38784
682.868	2955.68538
683.063	2959.69495
683.259	3029.43282
683.454	2909.12678
683.649	2988.78025
683.845	2911.46456
684.04	2997.81249
684.235	2945.23333
684.43	2993.83278
684.626	2929.7594
684.821	2932.10441
685.016	2982.7668
685.211	2831.93016
685.407	2852.48802
685.602	2912.87312
685.797	2733.72088
685.992	2861.60663
686.187	2832.45388
686.382	2870.32966
686.577	2761.94712
686.773	2825.63397
686.968	2781.75779
687.163	2842.8954
687.358	2745.47147
687.553	2703.53566
687.748	2761.91767
687.943	2803.36288
688.138	2745.93218
688.333	2731.02361
688.528	2676.09115
688.723	2644.99971
688.918	2586.56892
689.112	2710.26932
689.307	2546.20546
689.502	2572.51776
689.697	2593.28302
689.892	2573.87494
690.087	2508.78519
690.282	2510.38549
690.476	2505.6876
690.671	2545.96322
690.866	2344.98944
691.061	2412.25717
691.255	2412.48326
691.45	2404.51371
691.645	2367.22777
691.84	2342.73824
692.034	2388.52531
692.229	2281.14258
692.424	2319.17855
692.618	2325.24834
692.813	2204.97056
693.007	2289.12732
693.202	2224.3635
693.397	2232.50676
693.591	2110.25135
693.786	2219.909
693.98	2173.53787
694.175	2242.78203
694.369	2099.11092
694.564	2142.33953
694.758	2103.75974
694.953	2155.0228
695.147	2040.29855
695.342	2117.1847
695.536	2095.47394
695.73	2119.44049
695.925	2164.25742
696.119	2061.55818
696.313	1996.13824
696.508	2125.53155
696.702	2037.07374
696.896	2143.27236
697.091	2105.34424
697.285	2097.77108
697.479	2037.35901
697.673	2115.30527
697.868	2012.99867
698.062	2178.47129
698.256	1983.5468
698.45	2123.15236
698.644	2010.25441
698.839	2183.78216
699.033	1987.17754
699.227	2170.71396
699.421	2037.61263
699.615	2084.97456
699.809	2152.43327
700.003	2144.93021
700.197	2042.30019
700.391	2169.69238
700.585	2078.98778
700.779	2102.59108
700.973	2090.48395
701.167	2139.08951
701.361	2137.48998
701.555	2180.90175
701.749	2062.98844
701.943	2150.11051
702.137	2103.82483
702.331	2178.64475
702.525	2127.28492
702.718	2206.01278
702.912	2103.25129
703.106	2103.36953
703.3	2144.40008
703.494	2205.42842
703.687	2050.53499
703.881	2140.68056
704.075	2077.01618
704.269	2228.64348
704.462	2194.26629
704.656	2147.25556
704.85	2108.25561
705.043	2144.46481
705.237	2084.0492
705.431	2186.49495
705.624	2064.92407
705.818	2106.40742
706.012	2140.54593
706.205	2113.11343
706.399	2134.84016
706.592	2284.93041
706.786	1971.43746
706.979	2115.3595
707.173	2078.46647
707.366	2177.51631
707.56	2155.28979
707.753	2196.75333
707.947	2117.89146
708.14	2093.54382
708.333	2060.43837
708.527	2117.98603
708.72	2108.53373
708.914	2205.49114
709.107	2146.45937
709.3	2186.83302
709.494	2171.76093
709.687	2115.43651
709.88	2169.02385
710.073	2129.81704
710.267	2175.28447
710.46	2169.62544
710.653	2090.48395
710.846	2133.63899
711.04	2159.47253
711.233	2162.72624
711.426	2170.37669
711.619	2148.59226
711.812	2186.27595
712.005	2223.67527
712.198	2134.03594
712.391	2134.57671
712.585	2183.94097
712.778	2088.07048
712.971	2183.09177
713.164	2186.92287
713.357	2204.91297
713.55	2212.66639
713.743	2109.7276
713.936	2190.85808
714.129	2194.37987
714.322	2257.88283
714.514	2138.75403
714.707	2221.18089
714.9	2183.22612
715.093	2193.03167
715.286	2170.48654
715.479	2215.19526
715.672	2222.07549
715.864	2246.59561
716.057	2139.56854
716.25	2167.96218
716.443	2191.56788
716.636	2200.81577
716.828	2213.44306
717.021	2196.60293
717.214	2259.79536
717.406	2262.14659
717.599	2159.00894
717.792	2079.50811
717.984	2149.17946
718.177	2125.14634
718.37	2164.44935
718.562	2258.7128
718.755	2101.46518
718.947	2113.21547
719.14	2066.47409
719.333	2180.49116
719.525	2015.75529
719.718	2075.6648
719.91	1947.94399
720.103	2075.40494
720.295	1910.37136
720.487	2070.21305
720.68	2032.11265
720.872	2016.08042
721.065	1847.37122
721.257	1977.33864
721.449	1850.96482
721.642	1924.13191
721.834	1806.90871
722.026	1956.41061
722.219	1821.95527
722.411	1942.34736
722.603	1701.53663
722.796	1824.56341
722.988	1794.66138
723.18	1823.55127
723.372	1712.38662
723.565	1761.80539
723.757	1629.01447
723.949	1801.01368
724.141	1722.96867
724.333	1813.42617
724.525	1694.54204
724.717	1752.319
724.91	1700.70894
725.102	1680.08849
725.294	1547.42852
725.486	1669.7415
725.678	1656.83174
725.87	1699.50047
726.062	1583.9906
726.254	1660.21344
726.446	1601.1937
726.638	1643.4501
726.83	1526.84065
727.022	1624.11588
727.213	1547.8173
727.405	1683.11114
727.597	1486.6947
727.789	1527.69353
727.981	1531.75692
728.173	1631.50834
728.365	1562.13745
728.556	1572.23834
728.748	1514.7542
728.94	1600.77601
729.132	1531.37515
729.324	1629.04973
729.515	1608.93389
729.707	1601.38254
729.899	1666.34114
730.09	1672.83103
730.282	1583.47057
730.474	1618.89928
730.665	1487.48131
730.857	1687.18886
731.049	1491.4498
731.24	1725.66168
731.432	1585.01544
731.623	1672.73299
731.815	1508.46334
732.006	1703.0767
732.198	1587.0497
732.389	1611.68804
732.581	1561.31662
732.772	1664.4088
732.964	1633.98085
733.155	1650.70548
733.347	1595.12561
733.538	1687.87921
733.729	1561.73599
733.921	1636.68064
734.112	1604.13188
734.304	1687.32444
734.495	1598.59328
734.686	1768.69721
734.877	1664.9514
735.069	1745.54745
735.26	1692.28442
735.451	1613.10457
735.643	1644.25756
735.834	1762.64999
736.025	1645.16934
736.216	1714.96023
736.407	1586.88491
736.599	1716.44271
736.79	1730.01955
736.981	1816.15344
737.172	1627.60428
737.363	1816.88924
737.554	1693.1386
737.745	1833.45423
737.936	1766.20919
738.127	1889.80664
738.318	1863.38882
738.509	1914.24111
738.7	1826.2199
738.891	1908.79221
739.082	1851.45509
739.273	1876.21339
739.464	1860.83159
739.655	1923.82685
739.846	1857.26263
740.037	1965.04034
740.228	1923.86032
740.419	2007.93182
740.609	1939.20567
740.8	1995.51469
740.991	1984.78847
741.182	1953.59616
741.373	1985.98779
741.563	2043.46473
741.754	1956.65845
741.945	2018.95106
742.136	2019.40498
742.326	2093.67288
742.517	2009.74781
742.708	2127.99504
742.898	2058.96222
743.089	2105.06513
743.28	2025.52251
743.47	2044.11143
743.661	2021.52403
743.851	2175.8078
744.042	1974.63567
744.233	2142.34234
744.423	2034.86287
744.614	2198.92128
744.804	2043.36433
744.995	2227.04454
745.185	1953.92401
745.376	2143.3358
745.566	2071.11544
745.756	2210.74837
745.947	2109.61607
746.137	2207.72709
746.328	2099.96279
746.518	2228.84678
746.708	2111.06978
746.899	2131.78456
747.089	2105.11645
747.279	2149.1817
747.47	2153.56129
747.66	2263.20598
747.85	2054.51428
748.04	2226.86238
748.231	2222.68831
748.421	2266.84638
748.611	2131.4473
748.801	2272.78833
748.991	2106.27689
749.182	2208.94286
749.372	2107.79736
749.562	2247.24402
749.752	2222.10518
749.942	2282.42959
750.132	2203.41351
750.322	2322.34981
750.512	2156.6802
750.702	2265.71715
750.892	2219.26386
751.082	2313.45691
751.272	2192.84588
751.462	2305.34289
751.652	2195.37367
751.842	2349.71678
752.032	2225.59725
752.222	2329.54583
752.412	2264.47223
752.602	2325.81192
752.792	2282.54838
752.981	2308.3174
753.171	2247.99584
753.361	2284.16361
753.551	2291.70696
753.741	2321.22098
753.93	2272.23366
754.12	2290.62052
754.31	2309.64778
754.5	2390.35045
754.689	2290.8807
754.879	2401.20172
755.069	2319.1084
755.258	2411.57185
755.448	2363.82187
755.638	2377.30085
755.827	2203.75733
756.017	2363.88009
756.206	2222.14351
756.396	2412.99003
756.586	2308.16838
756.775	2322.35257
756.965	2302.51156
757.154	2366.48155
757.344	2311.26888
757.533	2370.59658
757.723	2305.48311
757.912	2383.55047
758.101	2356.2352
758.291	2433.21087
758.48	2292.83653
758.67	2377.90718
758.859	2283.59191
759.048	2442.26247
759.238	2337.09129
759.427	2397.69628
759.616	2323.76202
759.806	2418.12567
759.995	2314.746
760.184	2467.76704
760.373	2297.79145
760.563	2404.46731
760.752	2336.3865
760.941	2290.11651
761.13	2220.22659
761.319	2266.29196
761.509	2148.38505
761.698	2264.67928
761.887	2092.69205
762.076	2199.48363
762.265	2062.53888
762.454	2138.89422
762.643	2029.87114
762.832	2036.00849
763.021	1828.9437
763.21	1852.15278
763.399	1706.07627
763.588	1801.07103
763.777	1727.19208
763.966	1687.79174
764.155	1624.20346
764.344	1601.9269
764.533	1553.87558
764.722	1557.37031
764.911	1435.66311
765.1	1490.22606
765.288	1360.49595
765.477	1445.82256
765.666	1266.05798
765.855	1340.28268
766.044	1171.86179
766.232	1266.23029
766.421	1131.69249
766.61	1308.8304
766.799	1070.57462
766.987	1136.16638
767.176	938.63049
767.365	1070.59062
767.553	1010.51591
767.742	1056.14443
767.931	977.19178
768.119	1003.46746
768.308	970.38385
768.497	949.21005
768.685	943.80038
768.874	1025.99572
769.062	981.57086
769.251	1087.52114
769.439	945.46019
769.628	1006.95132
769.816	1026.35321
770.005	1031.47982
770.193	1129.12396
770.382	1170.367
770.57	1074.11539
770.758	1291.86112
770.947	1259.67018
771.135	1295.14833
771.323	1190.31594
771.512	1373.85169
771.7	1308.12133
771.888	1437.64214
772.077	1366.70918
772.265	1522.55615
772.453	1402.03021
772.642	1577.72476
772.83	1549.35964
773.018	1665.11448
773.206	1605.91639
773.394	1729.46075
773.583	1731.71776
773.771	1813.82345
773.959	1732.55785
774.147	1910.55122
774.335	1813.62343
774.523	1848.41257
774.711	1866.88887
774.899	1957.41606
775.087	1975.86942
775.275	1955.25878
775.463	1950.14825
775.651	2156.21876
775.839	2046.08399
776.027	2133.3171
776.215	2149.1131
776.403	2192.00709
776.591	2129.93336
776.779	2179.18137
776.967	2112.65518
777.155	2220.56699
777.343	2213.34553
777.531	2327.85324
777.718	2219.27601
777.906	2298.85028
778.094	2189.31218
778.282	2336.60258
778.47	2293.13754
778.657	2264.25484
778.845	2363.32192
779.033	2384.75116
779.22	2282.15327
779.408	2349.29941
779.596	2323.54924
779.783	2465.74892
779.971	2335.46995
780.159	2385.93127
780.346	2240.50981
780.534	2368.33817
780.722	2340.12579
780.909	2350.06439
781.097	2365.4958
781.284	2457.26454
781.472	2452.15091
781.659	2428.46674
781.847	2314.37873
782.034	2434.83996
782.222	2320.67279
782.409	2498.68983
782.597	2321.64584
782.784	2477.59726
782.971	2345.40882
783.159	2462.11826
783.346	2349.14347
783.533	2436.98838
783.721	2390.32386
783.908	2435.82278
784.095	2359.7225
784.283	2494.54639
784.47	2389.48326
784.657	2504.18521
784.844	2310.71342
785.032	2421.36634
785.219	2450.65191
785.406	2440.44363
785.593	2324.04718
785.78	2409.72144
785.968	2507.48733
786.155	2497.01097
786.342	2345.97618
786.529	2426.57331
786.716	2419.00662
786.903	2463.64465
787.09	2301.34141
787.277	2542.44251
787.464	2327.08
787.651	2395.41928
787.838	2396.07206
788.025	2413.97375
788.212	2340.68805
788.399	2491.14614
788.586	2319.96429
788.773	2403.962
788.96	2322.42896
789.147	2484.0001
789.334	2246.1158
789.521	2531.51545
789.707	2304.13474
789.894	2441.75168
790.081	2407.99292
790.268	2374.6827
790.455	2269.54017
790.641	2294.92291
790.828	2303.78635
791.015	2374.80788
791.202	2309.43182
791.388	2361.56399
791.575	2293.81577
791.762	2302.24674
791.948	2260.3483
792.135	2386.41474
792.322	2239.96957
792.508	2229.35675
792.695	2327.57956
792.881	2295.52395
793.068	2326.52056
793.254	2294.25468
793.441	2238.01488
793.627	2261.87121
793.814	2168.42377
794	2301.04885
794.187	2167.16271
794.373	2259.58833
794.56	2109.09589
794.746	2312.89986
794.933	2218.74966
795.119	2285.20983
795.305	2225.15089
795.492	2308.02201
795.678	2204.97056
795.864	2357.82138
796.051	2208.65479
796.237	2244.34184
796.423	2178.51078
796.61	2262.44917
796.796	2264.1034
796.982	2252.92792
797.168	2192.71103
797.355	2272.00645
797.541	2272.37222
797.727	2333.42783
797.913	2164.70918
798.099	2229.44462
798.285	2173.41475
798.471	2334.12984
798.658	2188.97743
798.844	2261.2841
799.03	2246.25279
799.216	2296.373
799.402	2249.39631
799.588	2320.23319
799.774	2225.12049
799.96	2225.95071
800.146	2153.82918
800.332	2280.31234
800.518	2234.11658
800.704	2379.94932
800.89	2260.3483
801.075	2270.00011
801.261	2260.39749
801.447	2277.86194
801.633	2235.17644
801.819	2318.0458
802.005	2205.28889
802.19	2379.65798
802.376	2255.8091
802.562	2243.79111
802.748	2203.63975
802.934	2312.67998
803.119	2190.92552
803.305	2331.52378
803.491	2293.47546
803.676	2347.48124
803.862	2238.01488
804.048	2313.18867
804.233	2162.9834
804.419	2372.58888
804.605	2232.78451
804.79	2368.93376
804.976	2115.25543
805.161	2329.54583
805.347	2262.65731
805.532	2341.25454
805.718	2244.44602
805.903	2346.05437
806.089	2222.10518
806.274	2325.73657
806.46	2229.59887
806.645	2391.40015
806.831	2248.27398
807.016	2326.16069
807.201	2268.77884
807.387	2321.99714
807.572	2187.98362
807.757	2374.3683
807.943	2327.42954
808.128	2458.6557
808.313	2176.38791
808.499	2313.82776
808.684	2293.82586
808.869	2280.72711
809.054	2269.06821
809.24	2325.03128
809.425	2195.60945
809.61	2303.93408
809.795	2231.65672
809.98	2282.74165
810.165	2164.11125
810.35	2435.10337
810.536	2233.1248
810.721	2234.52559
810.906	2167.16747
811.091	2351.96641
811.276	2196.01255
811.461	2322.84463
811.646	2174.39872
811.831	2253.94548
812.016	2175.74052
812.201	2251.45414
812.386	2286.60764
812.571	2263.64811
812.756	2159.06905
812.941	2277.48152
813.125	2168.56354
813.31	2325.73736
813.495	2224.57677
813.68	2247.65549
813.865	2198.42239
814.05	2202.42
814.234	2176.86988
814.419	2226.40144
814.604	2224.87776
814.789	2240.68601
814.973	2179.85384
815.158	2155.02305
815.343	2206.69504
815.528	2161.59009
815.712	2146.92228
815.897	2220.66676
816.081	2073.98988
816.266	2211.51617
816.451	2155.02904
816.635	2095.47565
816.82	2001.27771
817.004	2142.00767
817.189	1932.58223
817.374	2112.65518
817.558	1900.48933
817.743	2135.70485
817.927	1882.68029
818.111	2030.50922
818.296	1868.78948
818.48	1901.54456
818.665	1874.54903
818.849	1936.97363
819.034	1836.93852
819.218	1949.0196
819.402	1846.21447
819.587	1843.25387
819.771	1759.2579
819.955	1900.38531
820.14	1783.88007
820.324	1822.21071
820.508	1716.14361
820.692	1831.39739
820.877	1747.2394
821.061	1874.73126
821.245	1735.60482
821.429	1664.88366
821.613	1567.87997
821.798	1691.13453
821.982	1635.39307
822.166	1653.87682
822.35	1657.15583
822.534	1661.78079
822.718	1489.78358
822.902	1688.7575
823.086	1486.79639
823.27	1649.73796
823.454	1567.16296
823.638	1656.89297
823.822	1532.11085
824.006	1581.31719
824.19	1555.41558
824.374	1551.05185
824.558	1441.83732
824.742	1472.16973
824.926	1378.15856
825.11	1538.00315
825.294	1413.36094
825.477	1404.75944
825.661	1398.07529
825.845	1405.83908
826.029	1335.36024
826.213	1420.23387
826.396	1323.79391
826.58	1347.32292
826.764	1427.10613
826.948	1427.08961
827.131	1358.74079
827.315	1366.2284
827.499	1336.57936
827.682	1426.26372
827.866	1307.94455
828.05	1368.21015
828.233	1301.58818
828.417	1402.83081
828.6	1267.81286
828.784	1411.05929
828.967	1254.79336
829.151	1291.93091
829.335	1211.05736
829.518	1319.16058
829.701	1240.86061
829.885	1280.78077
830.068	1235.13305
830.252	1363.27373
830.435	1283.42953
830.619	1261.85773
830.802	1250.40462
830.985	1157.71237
831.169	1201.60054
831.352	1238.05587
831.535	1243.37259
831.719	1247.91444
831.902	1229.36819
832.085	1277.91902
832.269	1167.10976
832.452	1290.46767
832.635	1253.136
832.818	1191.07866
833.002	1221.04545
833.185	1293.75126
833.368	1192.45043
833.551	1197.65966
833.734	1165.69139
833.917	1232.0412
834.1	1178.63229
834.284	1341.32958
834.467	1148.34702
834.65	1227.90868
834.833	1170.32698
835.016	1238.43449
835.199	1162.05549
835.382	1264.8
835.565	1081.80162
835.748	1224.30825
835.931	1222.00758
836.114	1152.38734
836.297	1186.76953
836.479	1203.36504
836.662	1205.82724
836.845	1250.46821
837.028	1128.50142
837.211	1226.06433
837.394	1192.13715
837.577	1237.34805
837.759	1228.02914
837.942	1216.4923
838.125	1172.34356
838.308	1236.42488
838.49	1194.66338
838.673	1125.97761
838.856	1202.38272
839.039	1318.9207
839.221	1232.75627
839.404	1305.59931
839.587	1191.24101
839.769	1324.34131
839.952	1175.04592
840.134	1295.85151
840.317	1156.90136
840.499	1323.98427
840.682	1156.2133
840.865	1302.54078
841.047	1191.37592
841.23	1220.96173
841.412	1130.56409
841.595	1277.48849
841.777	1264.67114
841.959	1292.50709
842.142	1211.77324
842.324	1205.18472
842.507	1240.52293
842.689	1356.95491
842.871	1301.49962
843.054	1358.38872
843.236	1279.78649
843.418	1413.45501
843.601	1256.11193
843.783	1345.20241
843.965	1337.30252
844.147	1439.79597
844.33	1272.49494
844.512	1360.40486
844.694	1325.92873
844.876	1373.738
845.059	1252.17295
845.241	1319.80124
845.423	1351.70559
845.605	1391.64376
845.787	1243.14371
845.969	1407.53194
846.151	1314.09603
846.333	1403.77226
846.515	1280.434
846.697	1347.55658
846.879	1344.84194
847.061	1404.6184
847.243	1290.15268
847.425	1389.04858
847.607	1347.96297
847.789	1372.72329
847.971	1385.22048
848.153	1426.38953
848.335	1267.71333
848.517	1307.63566
848.699	1437.44118
848.881	1372.10104
849.062	1225.18654
849.244	1338.34107
849.426	1336.26388
849.608	1461.26215
849.789	1238.10756
849.971	1370.67869
850.153	1270.63934
850.335	1350.4402
850.516	1258.34608
850.698	1344.71089
850.88	1281.51974
851.061	1360.72387
851.243	1283.94927
851.425	1325.05776
851.606	1280.69406
851.788	1297.87658
851.969	1239.43662
852.151	1303.49327
852.333	1129.83756
852.514	1327.18185
852.696	1160.81918
852.877	1245.9117
853.059	1231.00322
853.24	1246.94396
853.422	1081.53058
853.603	1213.68669
853.784	1111.23567
853.966	1159.33453
854.147	1078.35402
854.329	1210.72764
854.51	1023.02835
854.691	1112.59205
854.873	1072.64907
855.054	1119.27204
855.235	1041.30356
855.416	1126.16705
855.598	946.5562
855.779	1062.00594
855.96	1053.46257
856.141	1022.89501
856.323	938.99116
856.504	989.35978
856.685	918.69573
856.866	975.8282
857.047	923.69874
857.228	895.35185
857.409	815.55343
857.591	873.50513
857.772	813.29624
857.953	799.27496
858.134	792.90696
858.315	802.6286
858.496	786.1679
858.677	871.40254
858.858	797.7277
859.039	854.71641
859.22	832.0436
859.401	783.02508
859.582	804.37567
859.762	785.51473
859.943	729.41238
860.124	790.64837
860.305	749.40455
860.486	743.49706
860.667	751.39276
860.848	751.71541
861.028	707.61807
861.209	771.40237
861.39	709.38676
861.571	751.41961
861.751	691.72208
861.932	654.71409
862.113	625.02649
862.293	727.36465
862.474	625.13607
862.655	730.09421
862.835	647.66533
863.016	718.37431
863.197	672.02195
863.377	690.56947
863.558	634.95916
863.738	697.23955
863.919	652.24847
864.099	630.21443
864.28	617.73206
864.46	600.97611
864.641	631.68698
864.821	668.17038
865.002	613.49242
865.182	640.11708
865.363	652.48453
865.543	697.83905
865.723	636.38947
865.904	650.39211
866.084	617.42465
866.264	562.0882
866.445	566.55607
866.625	594.77232
866.805	619.40399
866.986	706.61667
867.166	676.47096
867.346	594.90989
867.526	588.91715
867.707	636.13452
867.887	640.58177
868.067	627.1935
868.247	566.90604
868.427	546.94773
868.607	506.99816
868.788	646.98189
868.968	564.50648
869.148	599.57016
869.328	548.13568
869.508	644.79449
869.688	571.58497
869.868	593.36381
870.048	578.08274
870.228	676.71499
870.408	566.12895
870.588	602.7598
870.768	599.37343
870.948	599.26435
871.128	530.38171
871.307	584.98065
871.487	520.4211
871.667	583.30024
871.847	531.66543
872.027	590.43102
872.207	538.02368
872.387	584.06519
872.566	627.21632
872.746	627.05672
872.926	546.19893
873.106	634.65958
873.285	603.13403
873.465	600.32737
873.645	570.00002
873.824	648.4168
874.004	658.08121
874.184	575.86836
874.363	502.85579
874.543	593.92512
874.723	602.97973
874.902	623.48964
875.082	602.86969
875.261	611.23611
875.441	469.80276
875.62	591.45192
875.8	467.99466
875.979	636.13452
876.159	559.13333
876.338	564.56803
876.518	622.83637
876.697	583.87325
876.876	557.90388
877.056	556.69528
877.235	512.05839
877.415	629.38296
877.594	570.39408
877.773	592.14357
877.953	569.81408
878.132	592.60188
878.311	591.6027
878.49	616.10705
878.67	572.5048
878.849	581.3406
879.028	509.45934
879.207	627.63957
879.387	544.97049
879.566	613.6483
879.745	603.84467
879.924	582.06729
880.103	575.9103
880.282	648.86612
880.461	655.76844
880.64	588.53897
880.819	500.783
880.998	604.13111
881.178	493.50317
881.357	569.22428
881.536	556.31842
881.715	628.52855
881.893	575.13875
882.072	545.56155
882.251	524.78027
882.43	555.93204
882.609	501.50633
882.788	558.02574
882.967	514.98855
883.146	517.24538
883.325	526.10074
883.503	578.61061
883.682	566.46068
883.861	560.73214
884.04	526.42924
884.219	485.95032
884.397	493.08165
884.576	520.04116
884.755	451.71844
884.933	511.41631
885.112	561.18531
885.291	511.86673
885.469	507.55718
885.648	517.66411
885.827	467.22777
886.005	505.3362
886.184	494.08319
886.363	528.88248
886.541	501.22721
886.72	498.67234
886.898	338.94069
887.077	508.9871
887.255	522.83067
887.434	507.23548
887.612	502.07855
887.791	463.14237
887.969	459.4321
888.147	469.43262
888.326	436.10138
888.504	440.09576
888.682	390.51141
888.861	490.95047
889.039	408.04226
889.218	455.03679
889.396	352.18199
889.574	401.23283
889.752	387.18381
889.931	405.86207
890.109	437.31062
890.287	475.53149
890.465	332.2473
890.643	445.59246
890.822	366.30981
891	402.55341
891.178	344.54938
891.356	381.55602
891.534	427.56726
891.712	326.51352
891.89	324.61007
892.068	376.02681
892.247	391.59622
892.425	404.35778
892.603	294.29976
892.781	420.91734
892.959	322.36606
893.137	377.3805
893.314	293.57942
893.492	334.09993
893.67	316.67922
893.848	365.84522
894.026	290.91771
894.204	297.79354
894.382	349.21615
894.56	316.67922
894.738	336.04392
894.915	322.17381
895.093	304.837
895.271	292.30754
895.449	285.40974
895.626	258.5437
895.804	290.03999
895.982	326.01894
896.16	291.25577
896.337	268.99543
896.515	318.65681
896.693	304.63074
896.87	255.42081
897.048	230.57153
897.225	250.9548
897.403	209.36549
897.581	270.10412
897.758	260.83766
897.936	161.15593
898.113	339.43121
898.291	238.58035
898.468	206.99352
898.646	242.14807
898.823	171.15554
899.001	175.836
899.178	231.01636
899.356	252.3602
899.533	237.56882
899.71	129.75756
899.888	224.33393
900.065	137.45864
900.242	188.31233
900.42	218.65254
900.597	214.26607
900.774	175.94301
900.952	220.08434
901.129	154.69225
901.306	177.03813
901.483	179.30914
901.661	166.8695
901.838	129.88131
902.015	119.67969
902.192	162.4561
902.369	171.46731
902.546	162.38808
902.723	156.71788
902.901	147.85458
903.078	185.03138
903.255	163.76011
903.432	186.01905
903.609	108.49486
903.786	135.47842
903.963	61.24175
904.14	108.5656
904.317	108.51979
904.494	131.03504
904.671	124.23394
904.848	173.79155
905.024	163.80414
905.201	125.48733
905.378	73.58817
905.555	98.3304
905.732	108.53227
905.909	127.5754
906.086	83.62165
906.262	194.09859
906.439	126.50528
906.616	111.85865
906.793	126.41359
906.969	182.73059
907.146	88.20548
907.323	119.63869
907.5	146.80452
907.676	180.4999
907.853	137.87269
908.03	98.3944
908.206	99.46202
908.383	137.77229
908.559	83.74943
908.736	144.4799
908.912	85.93372
909.089	162.59276
909.266	57.81702
909.442	122.06136
909.619	140.00866
909.795	149.02309
909.972	134.3962
910.148	108.42445
910.324	190.71596
910.501	146.74278
910.677	158.08059
910.854	196.32871
911.03	163.52874
911.206	133.29803
911.383	76.89821
911.559	124.33869
911.735	124.11567
911.912	90.48523
912.088	153.48659
912.264	123.02581
912.44	91.61337
912.617	136.633
912.793	129.83666
912.969	176.07069
913.145	159.16747
913.321	153.59231
913.498	102.81841
913.674	102.86951
913.85	168.18999
914.026	101.69847
914.202	128.69372
914.378	100.59763
914.554	115.36302
914.73	89.27191
914.906	91.62741
915.082	114.11959
915.258	141.22398
915.434	70.21583
915.61	125.45359
915.786	144.60161
915.962	116.50606
916.138	109.64421
916.314	103.96203
916.49	75.85832
916.665	78.11154
916.841	151.29852
917.017	82.64972
917.193	72.49934
917.369	134.53037
917.545	102.82233
917.72	100.74454
917.896	90.4887
918.072	131.16596
918.247	127.71218
918.423	136.80617
918.599	77.03671
918.775	73.58535
918.95	102.82626
919.126	44.30133
919.301	123.23305
919.477	105.11409
919.653	132.26546
919.828	58.98518
920.004	99.55354
920.179	101.70624
920.355	-14.25129
920.53	114.09342
920.706	117.54992
920.881	110.78981
921.057	44.30303
921.232	75.89911
921.408	46.58431
921.583	68.00728
921.759	74.77333
921.934	78.16257
922.109	108.57395
922.285	130.00591
922.46	33.06618
922.635	53.34656
922.811	117.5274
922.986	70.2806
923.161	111.81168
923.336	53.36093
923.512	70.26707
923.687	65.76047
923.862	127.60462
924.037	44.31152
924.212	83.73659
924.388	100.74454
924.563	64.6893
924.738	61.21353
924.913	150.31929
925.088	60.07654
925.263	83.76229
925.438	60.07194
925.613	85.97643
925.788	86.05568
925.963	88.25954
926.138	71.43152
926.313	96.18909
926.488	117.69029
926.663	100.65158
926.838	74.71024
927.013	48.87604
927.188	106.32797
927.363	38.70917
927.538	61.21119
927.713	80.42966
927.888	60.10882
928.062	132.09324
928.237	117.5094
928.412	101.77633
928.587	38.71066
928.761	53.33837
928.936	95.00895
929.111	65.74277
929.286	78.05777
929.46	71.38749
929.635	79.30061
929.81	54.47047
929.984	68.07816
930.159	45.46339
930.334	55.55378
930.508	75.9225
930.683	79.30978
930.857	74.78484
931.032	67.96291
931.206	116.48811
931.381	27.47074
931.556	42.09396
931.73	124.43446
931.904	34.21519
932.079	31.95184
932.253	-16.53308
932.428	56.74406
932.602	27.41778
932.777	10.52551
932.951	26.31277
933.125	18.41716
933.3	68.06763
933.474	89.412
933.648	66.96406
933.823	34.21123
933.997	74.81657
934.171	57.90156
934.345	-49.25106
934.52	26.30669
934.694	43.24066
934.868	19.5739
935.042	46.63102
935.217	33.07509
935.391	-0.75246
935.565	22.95055
935.739	21.82395
935.913	-5.26215
936.087	38.68092
936.261	79.34347
936.435	9.39687
936.609	6.01667
936.783	6.01993
936.957	-22.21534
937.131	-74.07036
937.305	55.61776
937.479	29.72861
937.653	52.21451
937.827	-12.0338
938.001	37.58244
938.175	-14.29291
938.349	7.143
938.523	-0.75243
938.697	-31.21088
938.87	12.78394
939.044	-4.13718
939.218	54.54617
939.392	2.63173
939.566	53.44354
939.739	1.50452
939.913	33.1225
940.087	-5.26255
940.261	-8.65181
940.434	31.96171
940.608	-27.80672
940.782	65.85204
940.955	66.95627
941.129	-17.67158
941.302	4.88751
941.476	46.68534
941.65	13.92785
941.823	-1.88046
941.997	17.30462
942.17	19.54965
942.344	22.92219
942.517	-50.37603
942.691	-6.39854
942.864	37.62022
943.038	-8.65248
943.211	29.69642
943.385	37.61876
943.558	2.63153
943.731	-26.6666
943.905	-6.3916
944.078	-5.26499
944.251	9.39506
944.425	-14.30902
944.598	3.75969
944.771	50.06698
944.945	82.739
945.118	72.60571
945.291	21.82649
945.464	33.1045
945.638	40.97355
945.811	8.2832
945.984	-32.35714
946.157	8.27068
946.33	39.90532
946.503	20.68751
946.677	36.5278
946.85	12.79136
947.023	-18.79484
947.196	-27.84543
947.369	28.59136
947.542	34.24303
947.715	-6.39135
947.888	18.41149
948.061	31.97284
948.234	4.88656
948.407	12.78542
948.58	16.17637
948.753	-12.02684
948.926	15.04691
949.099	-10.91261
949.271	27.46116
949.444	-9.78619
949.617	31.99394
949.79	47.74168
949.963	43.29604
950.136	-52.66017
950.308	-8.65114
950.481	46.64185
950.654	-10.90711
950.827	18.4314
950.999	22.96303
951.172	-6.39135
951.345	-13.175
951.517	24.08628
951.69	21.82564
951.863	-19.94064
952.035	12.79136
952.208	-18.805
952.381	71.49236
952.553	15.04691
952.726	34.24835
952.898	-50.3916
953.071	10.52267
953.243	19.56478
953.416	-6.39283
953.588	-47.00072
953.761	38.76763
953.933	10.52308
954.106	50.03394
954.278	-21.0494
954.45	12.77901
954.623	20.69954
954.795	-31.25818
954.967	20.6843
955.14	74.85129
955.312	8.28352
955.484	-1.8809
955.657	16.18643
955.829	34.23771
956.001	-23.3137
956.173	-39.11745
956.346	1.50557
956.518	18.42071
956.69	20.69472
956.862	2.63357
957.034	-19.92445
957.207	47.78047
957.379	-13.15867
957.551	52.32768
957.723	-30.07987
957.895	26.33517
958.067	-23.32814
958.239	-63.90992
958.411	19.54738
958.583	-4.13542
958.755	45.51606
958.927	-1.8801
959.099	3.76246
959.271	-21.04859
959.443	46.66356
959.615	39.84046
959.787	-30.08568
959.959	15.04925
960.13	-31.21812
960.302	2.63123
960.474	44.36954
960.646	-36.86067
960.818	62.43752
960.99	17.30529
961.161	20.6859
961.333	-15.41028
961.505	-19.92214
961.677	13.91059
961.848	43.23065
962.02	22.94077
962.192	24.08628
962.363	17.30663
962.535	0.37618
962.707	-34.61328
962.878	53.42695
963.05	17.28725
963.221	28.58582
963.393	7.13833
963.564	-15.41861
963.736	-21.06568
963.907	-4.13975
964.079	20.69071
964.25	-39.12503
964.422	-19.92214
964.593	-17.67226
964.765	-12.04595
964.936	-0.75188
965.108	-26.70879
965.279	19.54286
965.45	0.37605
965.622	35.35752
965.793	21.81887
965.964	30.85216
966.136	-22.18862
966.307	50.04947
966.478	34.23638
966.65	19.56554
966.821	-19.93138
966.992	45.49143
967.163	-27.83356
967.334	15.04051
967.506	36.48666
967.677	42.15755
967.848	-22.18862
968.019	12.78938
968.19	34.21651
968.361	68.10984
968.532	-33.45675
968.703	-25.55704
968.874	-35.69988
969.045	-0.75203
969.216	-9.77784
969.387	15.04633
969.558	-37.97511
969.729	20.69713
969.9	9.3976
970.071	19.5663
970.242	15.04458
970.413	-15.42339
970.584	15.03587
970.755	-6.39531
970.926	33.13152
971.097	-15.42159
971.267	-28.95131
971.438	12.7874
971.609	33.11349
971.78	-26.71501
971.951	9.40961
972.121	15.05509
972.292	2.63204
972.463	-18.79774
972.633	72.57761
972.804	-4.13622
972.975	-44.74641
973.145	-3.00938
973.316	-19.93678
973.487	37.62022
973.657	17.30731
973.828	-5.26459
973.998	2.63398
974.169	3.7648
974.339	3.76144
974.51	-21.06813
974.68	4.88996
974.851	-6.39854
975.021	2.63224
975.192	27.46861
975.362	16.17261
975.533	-1.87916
975.703	46.61482
975.874	-36.84358
976.044	9.40268
976.214	70.32946
976.385	3.76071
976.555	12.7879
976.725	-4.13846
976.896	55.71472
977.066	-3.00962
977.236	28.60357
977.406	35.35889
977.577	13.92028
977.747	12.79434
977.917	51.13778
978.087	40.99413
978.257	-23.302
978.427	25.20114
978.598	33.12636
978.768	-7.52287
978.938	21.79865
979.108	34.21916
979.278	-6.39407
979.448	30.82354
979.618	38.72559
979.788	-16.55674
979.958	44.3644
980.128	15.04167
980.298	48.87792
980.468	35.37673
980.638	3.75781
980.808	29.69756
980.978	-43.61919
981.148	-46.99891
981.317	-10.91049
981.487	42.11508
981.657	11.65888
981.827	-7.52521
981.997	20.70679
982.167	45.52665
982.336	26.35154
982.506	64.70683
982.676	-7.51967
982.846	-70.69599
983.015	0.37585
983.185	-22.19033
983.355	-44.7257
983.524	-46.99528
983.694	0.37593
983.864	-4.13526
984.033	-51.53672
984.203	22.93989
984.372	-12.03241
984.542	10.52673
984.712	22.93723
984.881	20.6835
985.051	-28.95243
985.22	11.65752
985.39	-16.54904
985.559	-31.22417
985.728	48.87038
985.898	21.82564
986.067	40.99572
986.237	-25.55999
986.406	-18.8174
986.576	31.97656
986.745	3.76421
986.914	28.60579
987.084	28.59136
987.253	-12.03474
987.422	-22.20842
987.591	-3.00845
987.761	-4.1391
987.93	13.91274
988.099	11.66204
988.268	-23.32453
988.438	-23.32362
988.607	42.13791
988.776	-27.85084
988.945	44.40737
989.114	35.34931
989.283	66.96146
989.452	19.56251
989.621	4.88751
989.791	-7.5293
989.96	-5.26255
990.129	12.78098
990.298	0.37622
990.467	44.40047
990.636	34.24835
990.805	-40.26378
990.974	-23.34084
991.142	-5.26601
991.311	-9.77256
991.48	-10.90458
991.649	-17.68115
991.818	-34.59988
991.987	-13.15613
992.156	37.64213
992.325	18.42926
992.493	-12.03287
992.662	-215.45587
992.831	26.32293
993	-34.60791
993.168	35.33703
993.337	20.70115
993.506	3.76377
993.675	46.61302
993.843	-4.13462
994.012	46.64727
994.181	-16.54137
994.349	13.92352
994.518	15.03645
994.686	51.16748
994.855	-50.42872
995.024	-23.3119
995.192	53.36093
995.361	-3.0059
995.529	11.65707
995.698	-39.10384
995.866	1.50504
996.035	2.63255
996.203	9.39905
996.371	54.51454
996.54	3.76173
996.708	17.29258
996.877	24.08534
997.045	22.95144
997.213	-13.16937
997.382	-0.75255
997.55	-18.79629
997.718	-62.82947
997.887	22.93634
998.055	-6.39185
998.223	0.37587
998.391	-35.74405
998.56	54.53983
998.728	-0.75255
998.896	79.4204
999.064	54.52507
999.232	-33.4658
999.401	-21.04373
999.569	27.45903
999.737	17.31403
999.905	17.29793
1000.073	65.83417
1000.241	-5.26479
1000.409	57.96441
1000.577	-22.18776
1000.745	42.11834
1000.913	11.65842
1001.081	-37.96924
1001.249	10.52917
1001.417	-41.35185
1001.585	16.17011
1001.753	9.40414
1001.921	20.6843
1002.089	-4.13766
1002.256	10.53325
1002.424	28.59468
1002.592	-10.91007
1002.76	16.17261
1002.928	13.91059
1003.096	35.38085
1003.263	-30.1137
1003.431	13.9192
1003.599	30.82591
1003.767	-18.81375
1003.934	-4.14071
1004.102	10.52876
1004.27	-38.00747
1004.437	-5.26418
1004.605	8.28127
1004.773	-9.78391
1004.94	9.40086
1005.108	-31.20124
1005.275	26.33517
1005.443	25.19724
1005.61	-12.03567
1005.778	0.37615
1005.945	3.75955
1006.113	13.91866
1006.28	-21.06976
1006.448	-9.78239
1006.615	3.76042
1006.783	45.54965
1006.95	1.50434
1007.118	-0.75267
1007.285	29.72054
1007.452	8.27452
1007.62	63.54993
1007.787	-14.2907
1007.954	42.13465
1008.122	19.54738
1008.289	8.27773
1008.456	15.06036
1008.623	22.95589
1008.791	-8.65752
1008.958	4.89205
1009.125	20.67631
1009.292	39.87743
1009.459	39.8728
1009.627	-10.89995
1009.794	11.65257
1009.961	-51.54072
1010.128	57.95991
1010.295	-22.20152
1010.462	70.40046
1010.629	39.89446
1010.796	6.02063
1010.963	20.69472
1011.13	-15.41206
1011.297	18.42926
1011.464	-4.13335
1011.631	-13.16274
1011.798	-17.67704
1011.965	61.29608
1012.132	17.30261
1012.299	8.2758
1012.466	-25.57382
1012.633	-16.5484
1012.799	13.91489
1012.966	-14.29568
1013.133	-7.52872
1013.3	-14.29845
1013.467	-51.47707
1013.633	44.41082
1013.8	-0.75229
1013.967	25.1914
1014.134	15.04109
1014.3	15.05041
1014.467	-40.24662
1014.634	-21.06405
1014.8	28.59247
1014.967	-7.52317
1015.134	19.56099
1015.3	7.143
1015.467	-67.3155
1015.633	-5.2656
1015.8	-24.46025
1015.966	37.60275
1016.133	-6.39259
1016.3	-28.94908
1016.466	-7.52579
1016.632	-49.24725
1016.799	7.14853
1016.965	-41.36782
1017.132	2.63306
1017.298	-9.78543
1017.465	-0.75308
1017.631	-34.61596
1017.797	54.58643
1017.964	39.89756
1018.13	-33.44257
1018.296	46.63644
1018.463	-3.01125
1018.629	16.17637
1018.795	-13.16172
1018.961	-5.2652
1019.128	-21.05347
1019.294	20.66675
1019.46	18.43569
1019.626	-0.75267
1019.792	15.03993
1019.959	-16.54904
1020.125	87.29263
1020.291	-60.57212
1020.457	1.50393
1020.623	-80.86012
1020.789	35.36437
1020.955	-45.88423
1021.121	16.18139
1021.287	-10.90542
1021.453	22.94166
1021.619	22.955
1021.785	24.06389
1021.951	7.14742
1022.117	-7.52638
1022.283	-14.29678
1022.449	17.31537
1022.615	37.63189
1022.781	-10.89074
1022.946	26.33925
1023.112	1.50668
1023.278	-37.96485
1023.444	52.34399
1023.61	1.50423
1023.775	4.89205
1023.941	4.89281
1024.107	-36.88642
1024.273	-1.88083
1024.438	-19.92061
1024.604	-78.61877
1024.77	-98.82498
1024.935	33.07892
1025.101	42.14936
1025.267	-16.55225
1025.432	0.37628
1025.598	19.57542
1025.763	11.65527
1025.929	-26.72019
1026.095	27.45478
1026.26	25.21287
1026.426	12.78641
1026.591	-15.41742
1026.757	-4.13959
1026.922	-34.6106
1027.087	16.16075
1027.253	-14.29734
1027.418	17.30328
1027.584	-37.97657
1027.749	7.14964
1027.914	-35.73851
1028.08	27.46648
1028.245	-25.58472
1028.41	-15.42697
1028.576	6.0176
1028.741	-23.3173
1028.906	-31.19402
1029.072	-0.7522
1029.237	-10.91134
1029.402	4.88864
1029.567	-31.20847
1029.732	56.80546
1029.898	6.01644
1030.063	32.00017
1030.228	69.20519
1030.393	16.18014
1030.558	37.62897
1030.723	26.35872
1030.888	8.27292
1031.053	45.54079
1031.218	17.29525
1031.383	15.03297
1031.548	-3.01043
1031.713	-15.42219
1031.878	-38.0001
1032.043	21.81718
1032.208	-9.78201
1032.373	-37.99715
1032.538	-1.8801
1032.703	-5.26459
1032.868	-13.17141
1033.033	34.24568
1033.198	54.55251
1033.362	4.88864
1033.527	-0.75255
1033.692	-43.63608
1033.857	-15.42458
1034.021	25.22857
1034.186	31.96295
1034.351	-8.64479
1034.516	17.31134
1034.68	21.81718
1034.845	-24.46785
1035.01	-4.13943
1035.174	24.08253
1035.339	-19.94761
1035.504	8.27998
1035.668	-58.27417
1035.833	-8.65181
1035.997	-10.91092
1036.162	51.1794
1036.326	27.49321
1036.491	-3.00892
1036.655	-3.00775
1036.82	-52.65405
1036.984	-55.99895
1037.149	-76.31159
1037.313	-5.26154
1037.478	-26.72435
1037.642	13.91113
1037.807	-4.13927
1037.971	20.69392
1038.135	29.71019
1038.3	-9.78543
1038.464	16.18517
1038.628	19.5663
1038.792	4.88807
1038.957	17.30328
1039.121	1.50527
1039.285	-3.0095
1039.449	-1.88061
1039.614	19.5572
1039.778	9.40706
1039.942	-6.39185
1040.106	68.09135
1040.27	-16.54776
1040.434	-55.99032
1040.599	-38.01634
1040.763	-48.14643
1040.927	17.29258
1041.091	-14.29512
1041.255	12.78295
1041.419	48.89493
1041.583	-51.55271
1041.747	-58.26293
1041.911	-22.17491
1042.075	22.93989
1042.239	42.14118
1042.403	-24.43093
1042.567	-61.67094
1042.731	-10.90542
1042.894	-25.55999
1043.058	39.88207
1043.222	0.37611
1043.386	-43.60404
1043.55	-26.72435
1043.714	-34.61999
1043.877	34.22578
1044.041	-15.43297
1044.205	-0.75208
1044.369	2.63469
1044.532	-34.62134
1044.696	-71.87003
1044.86	-39.13565
1045.023	-54.8958
1045.187	-6.3963
1045.351	-45.87714
1045.514	22.94966
1045.678	-18.79339
1045.841	25.20994
