Data from mildly cloudy_Subt2__5__14-19-35-395.txt Node

Date: Mon Oct 13 14:19:35 EDT 2025
User: brett
Spectrometer: USB4F03499
Trigger mode: 4
Integration Time (sec): 4.400000E-4
Scans to average: 1
Electric dark correction enabled: true
Nonlinearity correction enabled: true
Boxcar width: 0
XAxis mode: Wavelengths
Number of Pixels in Spectrum: 3648
>>>>>Begin Spectral Data<<<<<
345.386	58.41401
345.605	58.41401
345.824	58.41401
346.044	65.24756
346.263	5.36511
346.482	-42.01506
346.701	-16.08313
346.92	-11.56588
347.139	15.51881
347.358	-10.43609
347.577	-27.35683
347.796	27.92899
348.015	27.94851
348.234	-10.43649
348.453	-4.79394
348.672	27.91927
348.891	23.42338
349.11	-30.768
349.329	9.87007
349.548	48.27097
349.767	6.48893
349.986	25.66217
350.205	-25.08704
350.424	35.8427
350.643	42.62606
350.862	20.04817
351.08	-34.1573
351.299	-30.7394
351.518	-37.5397
351.737	24.55556
351.956	-23.98594
352.174	-20.59291
352.393	27.94091
352.612	-34.14669
352.831	-7.05373
353.049	3.10406
353.268	13.26461
353.487	-37.5543
353.705	-63.53053
353.924	-28.4767
354.143	32.43273
354.361	8.75036
354.58	-17.21277
354.798	43.77141
355.017	-35.24344
355.236	30.21167
355.454	5.36073
355.673	43.72553
355.891	-13.82263
356.11	-58.9784
356.328	-2.53954
356.547	-3.6673
356.765	-3.66915
356.984	-9.31128
357.202	32.46797
357.42	5.36406
357.639	7.62054
357.857	3.10226
358.076	-1.41061
358.294	-36.39867
358.512	-14.9461
358.731	-52.17543
358.949	-26.22719
359.167	-11.56633
359.386	-31.89153
359.604	-38.65446
359.822	-11.57396
360.04	-39.80856
360.259	-5.92112
360.477	26.80938
360.695	-5.92158
360.913	-20.58574
361.131	14.37433
361.35	-8.18344
361.568	25.67608
361.786	-48.83364
362.004	-53.32729
362.222	14.39771
362.44	-10.43205
362.658	27.94633
362.876	-34.12422
363.094	-3.6673
363.312	62.8683
363.53	-40.95942
363.749	-39.76382
363.967	-19.46189
364.184	32.43524
364.402	14.38822
364.62	-17.22213
364.838	-44.26065
365.056	-0.28228
365.274	-36.40009
365.492	9.87197
365.71	55.0053
365.928	-25.1006
366.146	78.69846
366.364	-44.26748
366.581	30.16955
366.799	5.35866
367.017	-37.52077
367.235	-8.17584
367.453	12.12468
367.67	14.38822
367.888	31.30887
368.106	22.28979
368.323	6.48417
368.541	8.749
368.759	-17.21411
368.977	-1.41116
369.194	-45.38569
369.412	11.01194
369.629	31.34658
369.847	-20.58892
370.065	40.33486
370.282	-2.53993
370.5	-49.98511
370.717	-38.65746
370.935	-7.05373
371.152	30.19876
371.37	-31.89277
371.588	-17.20278
371.805	24.55651
372.022	-0.28201
372.24	64.03928
372.457	-51.074
372.675	3.10334
372.892	58.40722
373.11	-9.3178
373.327	-13.83175
373.544	6.49372
373.762	-21.71415
373.979	-36.37194
374.196	-3.67015
374.414	33.59533
374.631	3.1031
374.848	35.84548
375.066	-14.9461
375.283	-3.66787
375.5	-22.84966
375.717	4.23011
375.935	20.03959
376.152	-17.21144
376.369	57.25972
376.586	-5.92364
376.803	-32.99041
377.02	49.35895
377.238	7.61493
377.455	26.81771
377.672	-35.27072
377.889	40.374
378.106	3.10346
378.323	40.36459
378.54	21.15832
378.757	-14.94725
378.974	20.03027
379.191	-23.97758
379.408	10.99701
379.625	30.19876
379.842	35.82048
380.059	24.54508
380.276	13.2708
380.493	-23.98967
380.71	24.53938
380.927	24.55842
381.143	-1.41061
381.36	11.01023
381.577	-9.30624
381.794	-22.85763
382.011	-10.44175
382.228	-45.42781
382.444	-52.14524
382.661	-0.28231
382.878	-10.44418
383.095	-9.31309
383.311	65.16394
383.528	-42.0672
383.745	7.61847
383.962	-8.18249
384.178	-36.37896
384.395	6.48968
384.612	44.88789
384.828	-20.57146
385.045	-36.41563
385.261	15.50621
385.478	23.43613
385.695	12.12702
385.911	-25.10545
386.128	-35.26935
386.344	74.26306
386.561	36.98669
386.777	-7.05046
386.994	-19.44838
387.21	-11.56007
387.427	-9.3102
387.643	7.62469
387.86	21.14361
388.076	-33.02107
388.292	29.04115
388.509	11.00681
388.725	35.84687
388.942	59.52087
389.158	58.41401
389.374	-5.92433
389.591	-35.26525
389.807	-12.69598
390.023	-28.4745
390.239	-46.52315
390.456	4.23224
390.672	4.23044
390.888	-23.99712
391.104	-10.44013
391.321	-26.23836
391.537	52.75889
391.753	10.99701
391.969	24.53369
392.185	32.4478
392.401	-43.16217
392.618	-53.33142
392.834	-4.79821
393.05	-37.55576
393.266	29.05238
393.482	4.23044
393.698	39.22256
393.914	51.59344
394.13	-1.41045
394.346	-8.17458
394.562	-20.59052
394.778	-14.96233
394.994	50.49009
395.21	-60.0804
395.426	-29.63717
395.642	17.77334
395.858	24.55079
396.073	64.0492
396.289	-13.81462
396.505	-13.82478
396.721	36.93798
396.937	7.6117
397.153	6.49119
397.369	34.67955
397.584	44.90887
397.8	-25.10545
398.016	13.25896
398.232	-10.44134
398.447	-19.44912
398.663	-8.17837
398.879	-9.30732
399.094	15.5146
399.31	-37.51497
399.526	-5.92181
399.741	25.66912
399.957	15.511
400.173	65.20186
400.388	1.97474
400.604	-1.41099
400.82	13.25434
401.035	57.25751
401.251	12.12514
401.466	21.15832
401.682	21.16735
401.897	-26.22314
402.113	-56.66821
402.328	21.17805
402.544	-40.88634
402.759	11.00382
402.974	30.18354
403.19	-18.33119
403.405	8.74324
403.621	21.16899
403.836	39.20586
404.051	-3.6673
404.267	67.39204
404.482	30.17421
404.697	31.31372
404.913	54.9968
405.128	20.03182
405.343	1.97451
405.559	17.77678
405.774	23.41159
405.989	-47.65007
406.204	38.08426
406.42	26.79795
406.635	24.55938
406.85	-7.04665
407.065	-0.282
407.28	45.98412
407.495	6.48893
407.71	14.38321
407.926	58.35756
408.141	25.68605
408.356	12.13218
408.571	87.68419
408.786	52.73847
409.001	16.63233
409.216	14.3771
409.431	78.67109
409.646	44.82189
409.861	25.68206
410.076	9.86436
410.291	17.76784
410.506	75.2743
410.721	15.5098
410.936	47.0898
411.15	-26.22112
411.365	15.50861
411.58	36.93941
411.795	8.73683
412.01	67.38944
412.225	4.2288
412.439	48.19076
412.654	7.61258
412.869	68.45009
413.084	24.53654
413.299	39.21496
413.513	38.10642
413.728	30.17071
413.943	13.25179
414.157	40.32551
414.372	10.99277
414.587	41.43351
414.801	13.24566
415.016	78.67413
415.231	92.2131
415.445	76.433
415.66	39.18618
415.874	38.01977
416.089	56.10002
416.304	100.17691
416.518	26.78346
416.733	47.04811
416.947	25.66118
417.162	51.57357
417.376	52.69579
417.59	86.47155
417.805	60.60825
418.019	95.53262
418.234	49.33038
418.448	42.54541
418.663	75.28011
418.877	-7.04286
419.091	78.58938
419.306	77.48198
419.52	62.81994
419.734	79.76055
419.949	17.74187
420.163	75.2482
420.377	35.79285
420.591	90.92948
420.806	52.69579
421.02	119.22527
421.234	98.84789
421.448	10.98812
421.663	102.38683
421.877	-3.66137
422.091	56.0957
422.305	27.91388
422.519	41.46873
422.733	83.19557
422.947	5.35411
423.161	35.78459
423.376	60.61994
423.59	45.90624
423.804	52.72218
424.018	34.67955
424.232	4.22766
424.446	44.79259
424.66	32.41147
424.874	74.11661
425.088	70.78259
425.302	39.12756
425.515	95.49591
425.729	17.75072
425.943	100.09168
426.157	80.87391
426.371	48.17224
426.585	10.98981
426.799	42.52256
427.013	113.47693
427.226	47.04992
427.44	19.99328
427.654	85.34651
427.868	23.38183
428.081	67.32721
428.295	40.31151
428.509	100.05696
428.723	65.08607
428.936	19.97496
429.15	96.63941
429.364	71.85381
429.577	103.42526
429.791	36.87561
430.005	66.20167
430.218	128.11682
430.432	42.56178
430.645	34.66485
430.859	114.62741
431.073	67.31688
431.286	95.55468
431.5	47.06439
431.713	40.27897
431.927	41.42714
432.14	65.10611
432.354	102.21754
432.567	91.02718
432.781	58.35756
432.994	87.68757
433.207	40.26971
433.421	88.62323
433.634	77.56266
433.848	77.42852
434.061	118.05469
434.274	71.82347
434.488	87.60662
434.701	38.03582
434.914	70.75528
435.127	75.2772
435.341	116.9389
435.554	83.12505
435.767	124.89856
435.98	86.45167
436.194	75.15306
436.407	83.18914
436.62	91.02368
436.833	149.4797
437.046	101.16685
437.259	79.76055
437.473	80.85526
437.686	150.66049
437.899	121.38218
438.112	86.4186
438.325	126.94924
438.538	108.9591
438.751	123.59265
438.964	-26.14997
439.177	89.80513
439.39	130.28979
439.603	212.57122
439.816	138.2193
440.029	134.86439
440.242	158.34916
440.455	120.16603
440.668	183.17722
440.881	190.11204
441.094	149.53117
441.306	192.26958
441.519	164.09006
441.732	133.71004
441.945	219.12796
442.158	150.62013
442.37	213.52222
442.583	156.22998
442.796	251.54456
443.009	202.17684
443.222	169.72905
443.434	118.01843
443.647	216.68019
443.86	217.83322
444.072	243.64243
444.285	262.75747
444.498	233.56516
444.71	219.12796
444.923	255.0188
445.136	159.51366
445.348	214.52117
445.561	190.82041
445.773	277.69271
445.986	233.66254
446.198	188.58637
446.411	238.0804
446.623	252.40689
446.836	260.3323
447.048	227.96523
447.261	279.54057
447.473	273.59708
447.686	197.46094
447.898	281.42829
448.11	250.49143
448.323	269.69186
448.535	272.56145
448.748	267.92937
448.96	227.90485
449.172	343.47772
449.385	231.10713
449.597	381.24719
449.809	263.80686
450.021	331.98088
450.234	392.41106
450.446	291.48088
450.658	268.18086
450.87	296.05845
451.083	311.80948
451.295	292.64143
451.507	274.79686
451.719	339.94742
451.931	409.08224
452.143	358.74871
452.356	286.12187
452.568	381.17594
452.78	327.13601
452.992	356.067
453.204	372.00536
453.416	424.00455
453.628	373.58033
453.84	369.47419
454.052	339.8072
454.264	395.47503
454.476	319.42332
454.688	439.96625
454.9	433.67842
455.112	304.89063
455.324	381.21868
455.536	409.21964
455.747	367.54695
455.959	373.8596
456.171	349.26526
456.383	424.76987
456.595	401.26799
456.807	348.51359
457.018	360.89851
457.23	412.17886
457.442	336.34532
457.654	412.24009
457.865	455.58409
458.077	366.37768
458.289	408.55111
458.501	417.69835
458.712	462.40802
458.924	551.29742
459.136	369.24204
459.347	490.46558
459.559	396.54468
459.77	462.16886
459.982	475.83615
460.194	489.88683
460.405	381.68044
460.617	410.80672
460.828	400.93974
461.04	458.64861
461.251	452.82645
461.463	542.58209
461.674	509.13028
461.886	467.36412
462.097	416.61625
462.309	512.61332
462.52	418.84236
462.731	646.31366
462.943	482.64819
463.154	471.2324
463.366	417.15897
463.577	554.23848
463.788	487.11275
464	501.95027
464.211	589.87122
464.422	654.14491
464.634	643.48858
464.845	599.48585
465.056	664.91206
465.267	623.38695
465.478	539.01767
465.69	701.33192
465.901	597.53377
466.112	695.21369
466.323	641.2293
466.534	781.44955
466.745	633.14596
466.957	719.65184
467.168	623.99557
467.379	770.01728
467.59	600.89773
467.801	628.95548
468.012	629.99204
468.223	720.52133
468.434	607.6482
468.645	806.89196
468.856	772.30176
469.067	802.78524
469.278	719.95163
469.489	915.12208
469.7	649.11312
469.911	732.28559
470.122	809.90449
470.333	941.69899
470.543	782.88888
470.754	938.58234
470.965	809.70199
471.176	923.68022
471.387	883.52121
471.598	852.95467
471.808	786.47793
472.019	901.51336
472.23	890.23138
472.441	793.70142
472.651	903.43945
472.862	972.82337
473.073	881.39489
473.283	923.56953
473.494	870.45508
473.705	1014.32651
473.915	832.47198
474.126	981.2376
474.337	995.69823
474.547	1063.44204
474.758	1112.41515
474.968	1025.41952
475.179	984.75958
475.389	1024.1861
475.6	984.4165
475.81	1151.51531
476.021	1122.41685
476.231	1242.56916
476.442	1100.537
476.652	1176.42612
476.863	1094.5939
477.073	1135.84196
477.284	1074.15224
477.494	1243.47524
477.704	1268.52153
477.915	1464.86193
478.125	1150.4446
478.335	1311.64947
478.546	1423.96451
478.756	1338.70243
478.966	1383.34949
479.177	1408.54792
479.387	1343.35281
479.597	1408.45332
479.807	1379.20681
480.018	1438.97279
480.228	1411.41558
480.438	1494.70308
480.648	1511.06334
480.858	1533.80371
481.068	1453.33082
481.279	1586.94097
481.489	1579.30165
481.699	1633.09459
481.909	1635.61219
482.119	1827.32631
482.329	1695.92919
482.539	1773.52104
482.749	1651.95913
482.959	1804.89962
483.169	1753.61959
483.379	1890.19192
483.589	1874.46095
483.799	1932.2646
484.009	1813.03479
484.219	1857.17767
484.429	1897.32329
484.639	1932.52103
484.849	1874.99759
485.059	2010.31066
485.268	2008.24023
485.478	2084.78051
485.688	1863.47432
485.898	2008.62057
486.108	1929.48911
486.317	2131.9562
486.527	1948.69311
486.737	2142.32266
486.947	2070.3661
487.156	2186.92
487.366	2057.87502
487.576	2084.35436
487.785	2001.53976
487.995	2149.63006
488.205	2158.78606
488.414	2214.43245
488.624	2127.16979
488.834	2267.5657
489.043	2134.14794
489.253	2134.37542
489.462	2186.51653
489.672	2327.731
489.882	2244.40645
490.091	2387.30537
490.301	2227.72028
490.51	2390.38585
490.72	2256.91963
490.929	2368.67177
491.138	2320.39238
491.348	2327.23589
491.557	2315.30954
491.767	2351.8463
491.976	2308.82816
492.185	2434.87654
492.395	2272.21469
492.604	2407.25816
492.813	2365.30641
493.023	2434.62244
493.232	2400.17708
493.441	2422.25175
493.651	2361.64779
493.86	2406.28418
494.069	2369.89151
494.278	2507.18141
494.488	2428.79774
494.697	2485.58659
494.906	2463.46812
495.115	2586.27625
495.324	2398.56883
495.533	2562.19979
495.743	2392.26214
495.952	2537.37346
496.161	2560.54839
496.37	2589.20479
496.579	2638.73054
496.788	2616.6423
496.997	2660.61736
497.206	2586.94665
497.415	2610.32957
497.624	2731.75801
497.833	2621.90229
498.042	2638.49792
498.251	2594.72653
498.46	2701.47071
498.669	2668.70787
498.878	2635.49154
499.087	2609.04661
499.296	2684.93187
499.504	2553.54771
499.713	2612.38886
499.922	2609.43131
500.131	2646.22782
500.34	2560.99055
500.549	2580.16151
500.757	2639.19637
500.966	2659.3762
501.175	2507.62609
501.384	2612.98182
501.592	2455.86856
501.801	2529.09381
502.01	2519.75793
502.218	2588.30517
502.427	2566.07079
502.636	2526.54951
502.844	2477.81499
503.053	2552.42517
503.262	2515.10049
503.47	2575.65854
503.679	2579.7824
503.887	2654.38677
504.096	2562.72289
504.304	2676.3857
504.513	2699.13412
504.721	2658.51454
504.93	2720.41727
505.138	2801.38118
505.347	2795.73817
505.555	2874.45894
505.764	2707.92932
505.972	2896.38236
506.18	2918.72174
506.389	3025.90704
506.597	2868.03754
506.806	3040.42176
507.014	3099.20156
507.222	3179.49295
507.431	3124.46807
507.639	3189.98968
507.847	3235.26055
508.055	3321.82944
508.264	3307.2041
508.472	3484.54873
508.68	3368.26647
508.888	3554.15712
509.096	3576.34986
509.305	3564.5909
509.513	3522.47369
509.721	3744.48763
509.929	3723.4521
510.137	3829.70989
510.345	3745.8487
510.553	3952.67998
510.762	3927.7339
510.97	3925.24807
511.178	3943.31317
511.386	4046.48677
511.594	3980.20972
511.802	4047.18816
512.01	4039.68806
512.218	4178.35769
512.426	4133.46854
512.634	4167.85137
512.842	4067.71293
513.049	4116.04185
513.257	4142.61688
513.465	4275.21172
513.673	4155.40172
513.881	4269.43664
514.089	4249.50769
514.297	4294.24469
514.504	4208.48375
514.712	4268.28154
514.92	4235.83634
515.128	4422.7208
515.336	4234.81237
515.543	4295.49009
515.751	4199.8597
515.959	4157.03958
516.166	4199.29435
516.374	4293.15692
516.582	4202.95829
516.789	4128.44366
516.997	4149.96683
517.205	4177.5317
517.412	4138.09989
517.62	4186.9974
517.827	4185.27939
518.035	4052.94902
518.243	4058.47969
518.45	4004.88342
518.658	3970.97913
518.865	4067.12213
519.073	4062.6938
519.28	4000.06728
519.488	4081.16058
519.695	3979.38432
519.902	3963.38297
520.11	4013.4796
520.317	4074.48778
520.525	3987.90964
520.732	3875.00908
520.939	3972.53099
521.147	3768.33336
521.354	3998.82135
521.561	3912.04978
521.769	3848.50577
521.976	3774.5711
522.183	3909.19327
522.391	3877.0525
522.598	3915.28667
522.805	3837.37553
523.012	3926.8504
523.219	3878.4295
523.427	3851.11936
523.634	3719.64558
523.841	3844.68468
524.048	3745.01245
524.255	3887.02752
524.462	3817.49299
524.669	3866.41578
524.877	3789.83593
525.084	3743.14504
525.291	3698.6327
525.498	3773.48444
525.705	3846.38398
525.912	3864.45656
526.119	3739.21497
526.326	3743.1055
526.533	3895.98914
526.74	3831.57197
526.947	3750.53964
527.153	3823.72787
527.36	3810.3366
527.567	3827.49651
527.774	3852.19256
527.981	3912.72579
528.188	3768.13799
528.395	3819.65198
528.602	3760.43551
528.808	3880.68634
529.015	3710.4589
529.222	3817.78905
529.429	3630.11932
529.635	3846.18581
529.842	3737.75608
530.049	3791.39753
530.256	3738.32354
530.462	3813.97812
530.669	3776.67575
530.876	3736.706
531.082	3782.13982
531.289	3666.07502
531.495	3691.17821
531.702	3872.61827
531.909	3672.24262
532.115	3822.40173
532.322	3650.27099
532.528	3680.25502
532.735	3771.62098
532.941	3683.82367
533.148	3572.01663
533.354	3755.36632
533.561	3713.25505
533.767	3649.67516
533.974	3630.43829
534.18	3615.43703
534.387	3660.62373
534.593	3533.5665
534.799	3667.05458
535.006	3683.59775
535.212	3564.11804
535.418	3655.98652
535.625	3622.44999
535.831	3589.80434
536.037	3576.33485
536.244	3481.56199
536.45	3396.78618
536.656	3584.15799
536.862	3510.61113
537.068	3649.84112
537.275	3438.23859
537.481	3548.23494
537.687	3498.48137
537.893	3670.06138
538.099	3470.91662
538.305	3523.97589
538.512	3384.41505
538.718	3473.8226
538.924	3485.87418
539.13	3397.83304
539.336	3415.76659
539.542	3448.02381
539.748	3354.35881
539.954	3413.6461
540.16	3367.26202
540.366	3357.47097
540.572	3322.91327
540.778	3398.37262
540.984	3387.03333
541.19	3399.69166
541.396	3279.88673
541.602	3395.20087
541.807	3269.29737
542.013	3334.03911
542.219	3227.29653
542.425	3255.81168
542.631	3177.55882
542.837	3248.18131
543.042	3175.3026
543.248	3261.81193
543.454	3065.5161
543.66	3290.6744
543.865	3150.4991
544.071	3252.2222
544.277	3084.86821
544.483	3173.14496
544.688	3083.05102
544.894	3132.54445
545.1	3045.83904
545.305	3179.58115
545.511	3025.24541
545.716	3209.49449
545.922	3059.53679
546.128	3096.59359
546.333	3076.86041
546.539	3137.66569
546.744	3001.66168
546.95	3009.53386
547.155	2940.23398
547.361	3020.81627
547.566	2859.85299
547.772	2977.64188
547.977	2821.20253
548.182	2942.40887
548.388	2861.94576
548.593	3041.98237
548.799	2903.31518
549.004	2866.29911
549.209	2845.45226
549.415	2887.84429
549.62	2793.32404
549.825	2955.11533
550.031	2747.35392
550.236	2899.8254
550.441	2810.89065
550.646	2920.94818
550.852	2844.57237
551.057	2837.07928
551.262	2787.67412
551.467	2809.44391
551.672	2719.08322
551.878	2847.66636
552.083	2701.7861
552.288	2830.15469
552.493	2702.46932
552.698	2714.96593
552.903	2681.54433
553.108	2790.49688
553.313	2630.44765
553.518	2690.46789
553.723	2682.56391
553.928	2699.31972
554.133	2638.69791
554.338	2665.32321
554.543	2583.85037
554.748	2649.84172
554.953	2478.57424
555.158	2672.29175
555.363	2511.78017
555.568	2580.38924
555.773	2640.80037
555.978	2596.00588
556.182	2427.05239
556.387	2564.60904
556.592	2465.97347
556.797	2507.40581
557.002	2404.3583
557.206	2452.37769
557.411	2431.27515
557.616	2433.57006
557.821	2448.41859
558.025	2509.99345
558.23	2418.56569
558.435	2529.77189
558.64	2377.34662
558.844	2470.65226
559.049	2410.00254
559.253	2383.1006
559.458	2342.81967
559.663	2422.67952
559.867	2198.05411
560.072	2342.33422
560.276	2291.04366
560.481	2270.41789
560.685	2176.9521
560.89	2267.26431
561.094	2243.54979
561.299	2178.56207
561.503	2132.2378
561.708	2221.1608
561.912	2185.55757
562.117	2212.54591
562.321	2080.00481
562.525	2196.74203
562.73	2169.60897
562.934	2237.574
563.139	2084.23266
563.343	2079.16675
563.547	2065.0758
563.752	2092.7674
563.956	2086.96992
564.16	2005.23381
564.364	2022.74491
564.569	2011.87489
564.773	2041.80622
564.977	2026.99117
565.181	1990.62482
565.385	1979.20903
565.59	1971.17406
565.794	1936.80794
565.998	1907.72663
566.202	1884.67882
566.406	1882.2953
566.61	1907.88623
566.814	1972.56247
567.018	1986.2937
567.222	1891.80008
567.426	1812.79411
567.63	1835.65513
567.834	1889.45231
568.038	1925.18845
568.242	1742.32869
568.446	1819.79488
568.65	1850.64384
568.854	1706.00017
569.058	1815.86205
569.262	1709.68821
569.466	1840.40111
569.67	1704.18401
569.874	1702.58736
570.078	1665.50801
570.281	1756.77157
570.485	1726.95816
570.689	1712.0785
570.893	1654.10899
571.097	1706.30263
571.3	1652.9802
571.504	1618.62149
571.708	1571.46218
571.912	1723.79371
572.115	1560.63663
572.319	1635.34425
572.523	1537.22854
572.726	1562.38162
572.93	1545.24257
573.133	1530.22138
573.337	1548.07951
573.541	1581.61023
573.744	1526.1404
573.948	1557.45523
574.151	1489.39998
574.355	1590.18967
574.558	1461.23142
574.762	1478.90402
574.965	1485.7232
575.169	1485.9705
575.372	1431.10182
575.576	1557.45523
575.779	1390.25607
575.983	1491.85302
576.186	1431.67305
576.389	1452.73401
576.593	1408.17081
576.796	1477.23486
577	1389.42247
577.203	1405.49099
577.406	1369.39591
577.609	1425.47306
577.813	1317.71073
578.016	1333.42749
578.219	1382.75974
578.423	1380.08414
578.626	1357.43674
578.829	1425.52064
579.032	1294.42045
579.235	1389.91829
579.438	1249.01959
579.642	1424.6298
579.845	1288.35453
580.048	1366.515
580.251	1249.60853
580.454	1294.76557
580.657	1239.0558
580.86	1391.28055
581.063	1139.23222
581.266	1358.15471
581.469	1262.16636
581.672	1308.81893
581.875	1253.0313
582.078	1278.15052
582.281	1146.34654
582.484	1223.30802
582.687	1234.03801
582.89	1264.29548
583.093	1294.63829
583.296	1274.84908
583.499	1293.08041
583.702	1286.09629
583.904	1213.27154
584.107	1324.51484
584.31	1287.87198
584.513	1288.47987
584.716	1222.62903
584.918	1266.42436
585.121	1176.38641
585.324	1216.73024
585.527	1154.2865
585.729	1257.01048
585.932	1170.29896
586.135	1167.81588
586.337	1196.28835
586.54	1252.79521
586.743	1202.44415
586.945	1229.78019
587.148	1204.14661
587.35	1382.65565
587.553	1144.90397
587.755	1332.33215
587.958	1195.28243
588.161	1232.74281
588.363	1169.17053
588.566	1242.50147
588.768	1197.60039
588.971	1310.94654
589.173	1190.21028
589.375	1216.02397
589.578	1209.21255
589.78	1227.81251
589.983	1156.24736
590.185	1226.47579
590.387	1237.72734
590.59	1166.30509
590.792	1149.29845
590.994	1181.51281
591.197	1103.42821
591.399	1156.14717
591.601	1097.37908
591.803	1227.1056
592.006	1100.61293
592.208	1114.90226
592.41	1119.72277
592.612	1201.17143
592.815	1093.73536
593.017	1247.29822
593.219	1108.03632
593.421	1179.06039
593.623	1073.19083
593.825	1070.69837
594.027	1088.80554
594.229	1234.15832
594.432	1037.08043
594.634	1171.66835
594.836	1082.17936
595.038	1105.68426
595.24	1018.44584
595.442	1129.96738
595.644	1044.33744
595.846	1138.48744
596.048	1007.70084
596.249	1097.1237
596.451	963.54777
596.653	1075.02678
596.855	1027.95871
597.057	1048.33827
597.259	1018.65829
597.461	982.94633
597.663	982.57144
597.864	1046.77411
598.066	1008.07826
598.268	1076.57601
598.47	944.323
598.671	1073.07957
598.873	1000.63171
599.075	999.86375
599.277	988.04153
599.478	1008.7487
599.68	940.41092
599.882	971.79625
600.083	1018.58744
600.285	1017.42396
600.487	982.13031
600.688	1037.09008
600.89	1039.45487
601.091	1114.90226
601.293	989.13545
601.494	1100.32149
601.696	950.53426
601.898	1076.42717
602.099	950.89362
602.301	992.99203
602.502	936.65451
602.703	995.69823
602.905	1039.38271
603.106	1031.05671
603.308	967.52158
603.509	990.57533
603.711	958.91771
603.912	961.01922
604.113	902.26087
604.315	985.8842
604.516	981.64883
604.717	932.90945
604.919	955.96864
605.12	989.74654
605.321	974.39752
605.522	904.2169
605.724	915.08979
605.925	965.09516
606.126	895.93491
606.327	977.81953
606.528	932.04275
606.729	981.7175
606.931	996.32479
607.132	998.72329
607.333	885.05947
607.534	1028.08128
607.735	854.47569
607.936	968.51464
608.137	903.99337
608.338	965.02763
608.539	924.0817
608.74	886.19462
608.941	939.63918
609.142	899.81561
609.343	914.21905
609.544	985.72597
609.745	906.96432
609.946	966.32513
610.147	911.70303
610.348	989.08033
610.549	883.68187
610.75	962.9271
610.95	887.50443
611.151	854.93918
611.352	934.62739
611.553	939.30792
611.754	867.40799
611.954	919.34667
612.155	944.05828
612.356	945.21955
612.557	870.00315
612.757	922.21408
612.958	815.02894
613.159	967.60238
613.359	881.04409
613.56	913.31774
613.761	817.51441
613.961	976.179
614.162	859.48073
614.362	931.27415
614.563	873.01911
614.764	913.22158
614.964	978.53698
615.165	902.3877
615.365	855.9993
615.566	919.98998
615.766	889.35388
615.967	944.98803
616.167	911.76736
616.368	855.21081
616.568	849.12172
616.768	825.55481
616.969	828.04617
617.169	921.37725
617.37	822.31643
617.57	899.25661
617.77	816.24258
617.971	971.90074
618.171	856.06018
618.371	876.57564
618.571	771.09233
618.772	857.98352
618.972	837.81806
619.172	914.70299
619.372	852.98481
619.573	877.28538
619.773	837.04858
619.973	924.24361
620.173	914.25137
620.373	812.85739
620.573	876.62176
620.774	935.13259
620.974	857.10405
621.174	893.61551
621.374	891.4535
621.574	928.88644
621.774	874.36405
621.974	982.40628
622.174	929.67178
622.374	986.7516
622.574	882.49175
622.774	898.03348
622.974	950.09726
623.174	946.41414
623.374	950.49529
623.574	945.61749
623.774	928.46321
623.973	892.39325
624.173	963.48002
624.373	1001.51568
624.573	836.06602
624.773	994.51977
624.973	883.40219
625.172	933.48953
625.372	894.02506
625.572	977.30551
625.772	884.78938
625.971	930.30912
626.171	926.66231
626.371	1000.5967
626.57	952.25703
626.77	994.70863
626.97	877.68852
627.169	1015.45636
627.369	912.76752
627.569	1004.0544
627.768	965.06139
627.968	914.54219
628.167	897.53813
628.367	921.83194
628.566	951.39568
628.766	935.39474
628.965	869.84916
629.165	1033.80032
629.364	871.76751
629.564	953.31896
629.763	928.95168
629.963	1024.87267
630.162	942.6993
630.362	975.49247
630.561	947.94958
630.76	919.95769
630.96	1005.82064
631.159	1033.24952
631.358	919.02935
631.558	1004.30182
631.757	954.12484
631.956	985.8536
632.155	1067.5314
632.355	1005.043
632.554	1000.64396
632.753	988.41267
632.952	954.12484
633.152	1000.70175
633.351	893.40177
633.55	981.38022
633.749	959.92407
633.948	1050.74862
634.147	867.07146
634.346	984.3889
634.545	896.77921
634.744	992.90261
634.944	999.82895
635.143	981.44305
635.342	891.14007
635.541	922.8893
635.74	946.6821
635.939	952.85131
636.138	884.05587
636.336	957.23048
636.535	923.66702
636.734	1001.63265
636.933	937.68429
637.132	985.37997
637.331	919.28151
637.53	987.46539
637.729	958.8962
637.928	1111.07853
638.126	932.45318
638.325	1061.99587
638.524	1010.83073
638.723	979.39405
638.921	1064.90267
639.12	1025.71549
639.319	1041.82046
639.518	1089.52073
639.716	1032.50588
639.915	1103.12495
640.114	1075.36326
640.312	1133.31385
640.511	1069.73212
640.71	1118.95454
640.908	1067.23457
641.107	1071.97205
641.305	1015.16736
641.504	1085.94375
641.702	1104.49492
641.901	1059.03365
642.099	1097.03852
642.298	1144.65794
642.496	1035.87272
642.695	1114.67181
642.893	1136.58231
643.092	1184.04677
643.29	1072.13666
643.489	1194.67153
643.687	1137.66959
643.885	1108.91607
644.084	1147.92732
644.282	1191.45058
644.48	1184.04082
644.679	1249.15645
644.877	1246.4792
645.075	1339.28914
645.274	1218.66311
645.472	1254.99151
645.67	1324.18639
645.868	1349.35288
646.067	1230.86566
646.265	1375.45622
646.463	1328.6813
646.661	1323.72392
646.859	1445.96115
647.057	1379.55295
647.256	1365.33979
647.454	1514.40282
647.652	1400.78619
647.85	1530.60589
648.048	1484.45147
648.246	1562.68873
648.444	1478.90394
648.642	1556.94259
648.84	1499.3551
649.038	1631.95158
649.236	1610.72648
649.434	1604.1603
649.632	1648.30497
649.83	1699.78138
650.028	1607.24
650.226	1667.05159
650.423	1618.14551
650.621	1754.79751
650.819	1693.91562
651.017	1740.63274
651.215	1792.93731
651.413	1786.36143
651.61	1810.89208
651.808	1775.94847
652.006	1693.81927
652.204	1864.78067
652.401	1823.99737
652.599	1764.62534
652.797	1749.04186
652.995	1706.65932
653.192	1708.39387
653.39	1773.63481
653.588	1759.53492
653.785	1778.14831
653.983	1678.27914
654.18	1716.66898
654.378	1623.6969
654.576	1674.98776
654.773	1718.55139
654.971	1674.29795
655.168	1675.85955
655.366	1835.93987
655.563	1702.6161
655.761	1722.72014
655.958	1669.78725
656.156	1725.0915
656.353	1569.19981
656.55	1603.89828
656.748	1582.27232
656.945	1621.25084
657.143	1553.60591
657.34	1579.40516
657.537	1511.45145
657.735	1527.28975
657.932	1439.28565
658.129	1501.31427
658.326	1520.35753
658.524	1507.43725
658.721	1429.13089
658.918	1443.22397
659.115	1436.25809
659.313	1400.03276
659.51	1303.57461
659.707	1434.07343
659.904	1360.6404
660.101	1487.93863
660.298	1396.69928
660.496	1427.03093
660.693	1385.2358
660.89	1522.85446
661.087	1384.12189
661.284	1501.1957
661.481	1464.53158
661.678	1564.02399
661.875	1467.62422
662.072	1577.05573
662.269	1528.89291
662.466	1702.39524
662.663	1621.30399
662.86	1730.08882
663.057	1690.8909
663.254	1837.67804
663.45	1824.34856
663.647	1796.47035
663.844	1833.04546
664.041	1919.96852
664.238	1909.03117
664.435	1939.67588
664.631	2037.7092
664.828	2070.20423
665.025	2155.54917
665.222	2081.71548
665.419	2207.72121
665.615	2281.5838
665.812	2144.18276
666.009	2376.03694
666.205	2415.35776
666.402	2375.84247
666.599	2466.94847
666.795	2513.97222
666.992	2589.43439
667.188	2644.03132
667.385	2642.93671
667.582	2823.89256
667.778	2650.61425
667.975	2830.57472
668.171	2798.33196
668.368	2779.12995
668.564	2849.07355
668.761	2900.83815
668.957	2764.372
669.154	3031.82821
669.35	2904.77373
669.547	3009.56443
669.743	2960.67453
669.939	3046.85731
670.136	2975.88969
670.332	2886.72465
670.528	2970.11496
670.725	2906.61736
670.921	2883.24434
671.117	2898.85831
671.314	2778.23558
671.51	2934.58719
671.706	2849.988
671.902	2741.37773
672.099	2789.04997
672.295	2733.97595
672.491	2655.67051
672.687	2632.97865
672.883	2614.05286
673.08	2596.57255
673.276	2555.95715
673.472	2640.15492
673.668	2513.06745
673.864	2426.79512
674.06	2437.7896
674.256	2411.49521
674.452	2292.31103
674.648	2237.56569
674.844	2250.59033
675.04	2293.36976
675.236	2204.10273
675.432	2078.81819
675.628	2095.98321
675.824	2093.54738
676.02	2009.56023
676.216	1962.57723
676.412	1926.52981
676.608	1946.19495
676.804	1772.95313
676.999	1790.88812
677.195	1734.21022
677.391	1758.63692
677.587	1624.56371
677.783	1614.33941
677.978	1589.14584
678.174	1626.47098
678.37	1523.30544
678.566	1485.674
678.761	1527.84322
678.957	1535.65922
679.153	1492.05031
679.348	1526.81542
679.544	1439.26714
679.74	1394.35015
679.935	1442.28747
680.131	1472.96502
680.327	1505.66499
680.522	1391.84958
680.718	1396.03196
680.913	1439.81345
681.109	1447.65438
681.304	1554.37767
681.5	1432.99254
681.695	1503.17409
681.891	1385.5127
682.086	1591.89609
682.282	1408.45332
682.477	1368.66007
682.672	1510.56089
682.868	1610.27747
683.063	1611.00825
683.259	1629.81596
683.454	1563.40708
683.649	1719.68022
683.845	1610.90336
684.04	1797.33845
684.235	1769.24478
684.43	1897.32329
684.626	1981.89943
684.821	2009.30801
685.016	1924.33283
685.211	2044.72653
685.407	2069.33906
685.602	2137.3638
685.797	2080.71456
685.992	2291.53072
686.187	2285.31618
686.382	2430.219
686.577	2324.49503
686.773	2501.14614
686.968	2460.42135
687.163	2597.5199
687.358	2519.9214
687.553	2583.15772
687.748	2747.67169
687.943	2740.90197
688.138	2745.32015
688.333	2828.93711
688.528	2727.9755
688.723	2820.4833
688.918	2813.79283
689.112	2990.52347
689.307	2825.71517
689.502	2970.41351
689.697	3010.94883
689.892	3040.70756
690.087	3013.68034
690.282	3037.98203
690.476	2997.20326
690.671	3067.07158
690.866	3021.85984
691.061	3010.33047
691.255	2995.59606
691.45	3185.61904
691.645	3025.46201
691.84	3097.02637
692.034	3038.16194
692.229	3018.30514
692.424	3011.95912
692.618	3099.98069
692.813	2967.31671
693.007	2901.77505
693.202	2987.80295
693.397	2964.39687
693.591	2834.50729
693.786	2775.52974
693.98	2732.25218
694.175	2898.59379
694.369	2665.38259
694.564	2744.58961
694.758	2638.97709
694.953	2591.79917
695.147	2477.10159
695.342	2597.51375
695.536	2439.40133
695.73	2444.91966
695.925	2384.08579
696.119	2265.68602
696.313	2179.47899
696.508	2176.97598
696.702	2105.63922
696.896	2152.21132
697.091	1986.54797
697.285	2057.78949
697.479	1905.61241
697.673	2028.48641
697.868	1809.71176
698.062	1916.82379
698.256	1694.25513
698.45	1816.46796
698.644	1743.28268
698.839	1759.43339
699.033	1543.04882
699.227	1678.42774
699.421	1546.58434
699.615	1535.40736
699.809	1428.9884
700.003	1538.72469
700.197	1457.66866
700.391	1505.54406
700.585	1392.59681
700.779	1404.50932
700.973	1324.89606
701.167	1324.34668
701.361	1359.02338
701.555	1295.33742
701.749	1242.1885
701.943	1334.00444
702.137	1168.93055
702.331	1286.57131
702.525	1137.86389
702.718	1280.19282
702.912	1142.19972
703.106	1167.56309
703.3	1194.29352
703.494	1189.13667
703.687	1125.95773
703.881	1151.94982
704.075	1084.43877
704.269	1252.15854
704.462	1164.84877
704.656	1226.7272
704.85	1070.47316
705.043	1229.56916
705.237	1186.18309
705.431	1247.34081
705.624	1124.55782
705.818	1223.5909
706.012	1214.55496
706.205	1218.36416
706.399	1247.3233
706.592	1348.14132
706.786	1175.21835
706.979	1294.08882
707.173	1215.11487
707.366	1361.31193
707.56	1311.14138
707.753	1465.21119
707.947	1347.86847
708.14	1426.49575
708.333	1394.43406
708.527	1499.88984
708.72	1465.16256
708.914	1571.35299
709.107	1557.14874
709.3	1656.2114
709.494	1602.24565
709.687	1715.33171
709.88	1719.12429
710.073	1701.32711
710.267	1816.24865
710.46	1867.45336
710.653	1851.0663
710.846	2026.60979
711.04	2003.47979
711.233	2083.42844
711.426	2119.78624
711.619	2170.29658
711.812	2159.11471
712.005	2254.82739
712.198	2275.62694
712.391	2374.46208
712.585	2292.46636
712.778	2447.61364
712.971	2428.06909
713.164	2498.18111
713.357	2512.29751
713.55	2600.76186
713.743	2664.97241
713.936	2768.31743
714.129	2703.64989
714.322	2831.44635
714.514	2751.45551
714.707	2881.15108
714.9	2789.04601
715.093	2915.77946
715.286	2834.10021
715.479	2920.07682
715.672	2911.04809
715.864	3050.11398
716.057	2875.28668
716.25	3113.5297
716.443	3004.0628
716.636	3075.21763
716.828	3110.83943
717.021	3070.47158
717.214	3109.09997
717.406	3134.10121
717.599	2999.70961
717.792	2918.54884
717.984	3005.49902
718.177	3108.92996
718.37	3025.84128
718.562	3129.16321
718.755	3044.60941
718.947	2943.46569
719.14	2989.7865
719.333	2947.09688
719.525	2905.65425
719.718	2924.12992
719.91	2740.05535
720.103	2840.52806
720.295	2629.54982
720.487	2710.18755
720.68	2610.38264
720.872	2709.37468
721.065	2515.95882
721.257	2588.56812
721.449	2433.71259
721.642	2520.81206
721.834	2363.76247
722.026	2437.75807
722.219	2231.4777
722.411	2322.29692
722.603	2137.41644
722.796	2224.60045
722.988	2172.87709
723.18	2097.19511
723.372	1988.92806
723.565	1998.58962
723.757	1845.91258
723.949	1925.40931
724.141	1810.21942
724.333	1864.18781
724.525	1747.57343
724.717	1704.48712
724.91	1647.44424
725.102	1641.85507
725.294	1504.78648
725.486	1603.48074
725.678	1466.58329
725.87	1415.69071
726.062	1357.61952
726.254	1391.19847
726.446	1335.00285
726.638	1408.87591
726.83	1237.33831
727.022	1254.16035
727.213	1279.93126
727.405	1248.17207
727.597	1156.68151
727.789	1160.20411
727.981	1122.49415
728.173	1161.14004
728.365	1023.66071
728.556	1050.15851
728.748	1024.44362
728.94	1079.25355
729.132	1057.23456
729.324	1121.99247
729.515	923.34235
729.707	1004.70216
729.899	945.51788
730.09	979.90467
730.282	982.70877
730.474	969.9249
730.665	936.6874
730.857	1019.1198
731.049	857.92968
731.24	1042.65587
731.432	995.05628
731.623	1066.86444
731.815	909.99762
732.006	1012.4173
732.198	928.59327
732.389	951.52353
732.581	923.86226
732.772	1016.79098
732.964	974.60288
733.155	1004.93757
733.347	982.19925
733.538	1068.03007
733.729	979.63845
733.921	1024.96631
734.112	977.37392
734.304	1073.47811
734.495	940.04022
734.686	1067.86612
734.877	1058.68186
735.069	1114.74858
735.26	1022.2217
735.451	1093.0155
735.643	1041.38669
735.834	1180.82153
736.025	1164.96934
736.216	1165.54628
736.407	1118.85531
736.599	1163.98126
736.79	1165.25627
736.981	1368.38313
737.172	1203.32657
737.363	1374.23725
737.554	1331.16202
737.745	1361.6651
737.936	1362.45756
738.127	1535.08623
738.318	1370.64321
738.509	1603.58635
738.7	1497.65702
738.891	1556.43137
739.082	1432.88233
739.273	1532.45005
739.464	1523.12862
739.655	1657.49562
739.846	1634.53629
740.037	1758.12474
740.228	1695.23935
740.419	1819.2281
740.609	1793.11041
740.8	1814.47201
740.991	1930.83129
741.182	2043.58874
741.373	1902.16921
741.563	2057.75228
741.754	1925.06601
741.945	2081.13311
742.136	2073.10939
742.326	2205.73436
742.517	2112.41445
742.708	2276.98172
742.898	2191.15037
743.089	2275.3489
743.28	2261.69402
743.47	2154.00737
743.661	2232.40136
743.851	2409.30912
744.042	2234.42199
744.233	2374.81915
744.423	2242.45512
744.614	2459.83486
744.804	2360.85705
744.995	2516.44499
745.185	2340.98731
745.376	2564.76083
745.566	2403.34587
745.756	2552.57105
745.947	2314.68737
746.137	2529.696
746.328	2500.56853
746.518	2549.48699
746.708	2530.45523
746.899	2605.79209
747.089	2481.70514
747.279	2484.99608
747.47	2490.54488
747.66	2584.59844
747.85	2497.57089
748.04	2552.79765
748.231	2475.92703
748.421	2594.69753
748.611	2503.42106
748.801	2541.5879
748.991	2507.87249
749.182	2501.17721
749.372	2451.43824
749.562	2496.05521
749.752	2456.39463
749.942	2435.06001
750.132	2442.05544
750.322	2529.77189
750.512	2389.03921
750.702	2518.7788
750.892	2346.85121
751.082	2520.9622
751.272	2319.40443
751.462	2368.20601
751.652	2299.71129
751.842	2404.0679
752.032	2254.66227
752.222	2352.20166
752.412	2192.81638
752.602	2293.45536
752.792	2167.40959
752.981	2186.90658
753.171	2059.51141
753.361	2235.85594
753.551	2149.95742
753.741	2177.50038
753.93	2035.81508
754.12	2064.02125
754.31	1970.04519
754.5	2013.89743
754.689	1893.57684
754.879	2012.4372
755.069	1912.50081
755.258	1947.08426
755.448	2006.48875
755.638	1962.37831
755.827	1820.83282
756.017	1920.27757
756.206	1811.34786
756.396	1885.448
756.586	1790.10406
756.775	1788.51691
756.965	1671.3191
757.154	1757.2223
757.344	1742.66145
757.533	1798.46768
757.723	1720.8091
757.912	1849.21202
758.101	1683.74834
758.291	1744.80901
758.48	1610.965
758.67	1645.18706
758.859	1591.00501
759.048	1671.99772
759.238	1498.27643
759.427	1632.07262
759.616	1503.96743
759.806	1647.39057
759.995	1496.35935
760.184	1598.35951
760.373	1429.7974
760.563	1497.7423
760.752	1429.41622
760.941	1596.00196
761.13	1410.19264
761.319	1471.04979
761.509	1378.70698
761.698	1404.73789
761.887	1280.84285
762.076	1294.60312
762.265	1231.03024
762.454	1359.64346
762.643	1137.24802
762.832	1163.23836
763.021	1036.51578
763.21	1126.03537
763.399	1018.8356
763.588	1009.17703
763.777	926.21832
763.966	905.88415
764.155	851.05983
764.344	881.98581
764.533	827.30014
764.722	883.05098
764.911	772.58022
765.1	772.76891
765.288	686.78959
765.477	706.59362
765.666	593.34419
765.855	717.8756
766.044	543.13582
766.232	639.91335
766.421	573.11229
766.61	614.60145
766.799	503.80093
766.987	603.56099
767.176	497.27512
767.365	493.25375
767.553	501.02448
767.742	545.25304
767.931	445.75795
768.119	539.57389
768.308	481.21607
768.497	529.85127
768.685	458.83459
768.874	506.66689
769.062	471.33694
769.251	505.74299
769.439	494.69186
769.628	532.538
769.816	537.9282
770.005	612.38187
770.193	553.53551
770.382	731.08191
770.57	674.5956
770.758	709.89821
770.947	648.73606
771.135	833.71909
771.323	736.5096
771.512	837.84777
771.7	810.59977
771.888	876.66796
772.077	861.92233
772.265	1035.55337
772.453	1021.97262
772.642	1002.15504
772.83	1026.70133
773.018	1046.77283
773.206	1055.83663
773.394	1158.32473
773.583	1108.28402
773.771	1213.6017
773.959	1210.16258
774.147	1271.09115
774.335	1291.34786
774.523	1336.49039
774.711	1330.21275
774.899	1514.67675
775.087	1390.61876
775.275	1481.6521
775.463	1444.8806
775.651	1564.02365
775.839	1483.76127
776.027	1549.81592
776.215	1530.04993
776.403	1675.45484
776.591	1585.19045
776.779	1740.0094
776.967	1641.74816
777.155	1840.71191
777.343	1640.2935
777.531	1750.96019
777.718	1714.2792
777.906	1825.6124
778.094	1725.85542
778.282	1831.54982
778.47	1792.07395
778.657	1768.66674
778.845	1706.57878
779.033	1861.09631
779.22	1705.14698
779.408	1828.33829
779.596	1847.30842
779.783	1856.34136
779.971	1792.07395
780.159	1766.13444
780.346	1760.21395
780.534	1861.51214
780.722	1763.48659
780.909	1769.40585
781.097	1722.97113
781.284	1881.55881
781.472	1769.43065
781.659	1891.56
781.847	1746.05045
782.034	1844.33444
782.222	1684.27268
782.409	1737.86411
782.597	1690.14564
782.784	1750.73417
782.971	1567.45705
783.159	1794.70235
783.346	1587.53928
783.533	1734.7816
783.721	1660.82847
783.908	1692.04267
784.095	1635.35134
784.283	1640.18637
784.47	1614.74098
784.657	1698.32109
784.844	1457.31273
785.032	1648.51918
785.219	1579.88715
785.406	1675.43786
785.593	1577.76023
785.78	1635.89406
785.968	1550.32087
786.155	1580.56659
786.342	1466.19373
786.529	1552.68402
786.716	1402.90735
786.903	1539.46421
787.09	1387.5371
787.277	1571.99419
787.464	1326.06835
787.651	1537.56189
787.838	1502.47569
788.025	1434.02562
788.212	1348.3167
788.399	1482.34096
788.586	1368.87459
788.773	1408.82891
788.96	1349.62337
789.147	1517.41117
789.334	1233.11928
789.521	1414.84926
789.707	1338.07216
789.894	1368.66114
790.081	1304.52232
790.268	1361.00681
790.455	1247.95944
790.641	1329.05084
790.828	1310.05661
791.015	1349.58121
791.202	1319.6289
791.388	1321.71925
791.575	1154.7269
791.762	1257.01048
791.948	1192.71321
792.135	1255.66975
792.322	1122.1597
792.508	1200.89758
792.695	1203.41531
792.881	1210.24547
793.068	1129.30886
793.254	1213.38421
793.441	1133.86047
793.627	1190.64725
793.814	1072.93137
794	1159.09584
794.187	1115.33994
794.373	1172.6765
794.56	1058.23428
794.746	1066.56908
794.933	998.89852
795.119	1124.36007
795.305	1109.79575
795.492	1119.7264
795.678	998.90953
795.864	1107.19368
796.051	949.96488
796.237	1024.11541
796.423	942.03304
796.61	1050.92313
796.796	1009.1719
796.982	1121.90726
797.168	967.4199
797.355	1073.8976
797.541	983.90619
797.727	1043.31217
797.913	921.27882
798.099	1027.35502
798.285	866.95487
798.471	970.43246
798.658	916.25225
798.844	957.45702
799.03	951.82306
799.216	1061.88505
799.402	873.50071
799.588	1054.53241
799.774	915.70264
799.96	921.66492
800.146	789.98047
800.332	980.93008
800.518	862.80384
800.704	899.38334
800.89	980.96668
801.075	979.97292
801.261	904.76155
801.447	996.56929
801.633	919.82859
801.819	1026.62978
802.005	968.9998
802.19	944.5586
802.376	958.34023
802.562	975.73365
802.748	899.13002
802.934	1007.44248
803.119	922.66827
803.305	1008.43068
803.491	917.54225
803.676	987.09871
803.862	854.80931
804.048	937.1918
804.233	911.02972
804.419	992.43482
804.605	916.41272
804.79	989.4285
804.976	905.58125
805.161	1032.02275
805.347	945.42116
805.532	917.12144
805.718	902.05442
805.903	955.74455
806.089	896.53596
806.274	996.15043
806.46	907.54028
806.645	1099.47872
806.831	938.04675
807.016	1006.20739
807.201	941.00369
807.387	999.67758
807.572	893.27012
807.757	1104.32403
807.943	1006.87914
808.128	1017.32394
808.313	938.74686
808.499	981.85296
808.684	970.32431
808.869	986.60357
809.054	989.91313
809.24	987.05097
809.425	957.99054
809.61	963.00687
809.795	1002.82991
809.98	1009.48935
810.165	972.93568
810.35	1093.09969
810.536	950.52852
810.721	1008.67965
810.906	949.86607
811.091	1038.14633
811.276	865.02936
811.461	987.0165
811.646	1066.75361
811.831	1049.28484
812.016	998.61827
812.201	1029.98052
812.386	1027.33553
812.571	1060.32857
812.756	953.91279
812.941	1055.39822
813.125	973.02953
813.31	1007.65662
813.495	926.40231
813.68	982.64009
813.865	1000.45676
814.05	1052.27348
814.234	987.70777
814.419	957.49029
814.604	971.96885
814.789	1106.90683
814.973	928.44405
815.158	1015.83938
815.343	937.87744
815.528	991.86429
815.712	900.51187
815.897	1060.03265
816.081	928.67359
816.266	930.62119
816.451	932.06246
816.635	911.83798
816.82	856.67232
817.004	912.18636
817.189	821.30482
817.374	903.6748
817.558	834.46271
817.743	827.78177
817.927	781.34989
818.111	939.73874
818.296	775.24651
818.48	796.57677
818.665	752.92597
818.849	780.66676
819.034	715.85037
819.218	724.62085
819.402	687.01214
819.587	731.86609
819.771	636.11047
819.955	655.27388
820.14	589.95108
820.324	746.3449
820.508	600.63569
820.692	678.69652
820.877	577.79507
821.061	655.27388
821.245	624.79129
821.429	520.59781
821.613	484.28154
821.798	536.28858
821.982	510.8254
822.166	545.67218
822.35	479.08233
822.534	563.55532
822.718	443.0084
822.902	507.00292
823.086	446.7877
823.27	495.41955
823.454	463.2973
823.638	511.57748
823.822	421.19334
824.006	470.0168
824.19	465.91614
824.374	483.68824
824.558	410.95882
824.742	465.86433
824.926	353.865
825.11	475.12987
825.294	361.83832
825.477	404.17493
825.661	411.49448
825.845	469.06145
826.029	404.49011
826.213	426.90187
826.396	407.95297
826.58	378.53703
826.764	402.51746
826.948	413.30747
827.131	353.07906
827.315	378.69178
827.499	362.17583
827.682	428.22262
827.866	376.53323
828.05	413.15424
828.233	333.38523
828.417	409.81538
828.6	369.50158
828.784	387.74905
828.967	372.84282
829.151	372.92577
829.335	407.6346
829.518	365.16801
829.701	382.17673
829.885	354.22077
830.068	380.96279
830.252	423.70352
830.435	301.88096
830.619	369.67994
830.802	305.40641
830.985	369.7487
831.169	272.72553
831.352	375.27895
831.535	370.02473
831.719	345.20666
831.902	358.90983
832.085	358.46803
832.269	340.63056
832.452	380.18895
832.635	323.45037
832.818	345.10374
833.002	350.10007
833.185	318.20062
833.368	368.60672
833.551	368.89559
833.734	305.142
833.917	319.66241
834.1	353.10543
834.284	386.06907
834.467	326.3863
834.65	361.37196
834.833	329.79754
835.016	343.06554
835.199	326.58251
835.382	324.17748
835.565	312.97328
835.748	319.62646
835.931	317.66773
836.114	322.93971
836.297	272.55122
836.479	310.61111
836.662	239.12789
836.845	295.07429
837.028	291.68858
837.211	306.40897
837.394	287.34785
837.577	281.63963
837.759	353.25069
837.942	302.81655
838.125	283.93957
838.308	246.75892
838.49	338.07075
838.673	147.62136
838.856	306.47828
839.039	253.71636
839.221	268.42392
839.404	308.42403
839.587	271.46407
839.769	315.20715
839.952	272.61264
840.134	286.34852
840.317	234.65839
840.499	295.0078
840.682	210.77723
840.865	279.67799
841.047	279.60393
841.23	319.91487
841.412	264.82584
841.595	283.59882
841.777	263.78695
841.959	271.78153
842.142	249.07037
842.324	173.67367
842.507	269.3194
842.689	303.21584
842.871	306.53612
843.054	276.19512
843.236	255.69457
843.418	282.63013
843.601	247.02879
843.783	212.13533
843.965	243.63322
844.147	296.38149
844.33	246.81458
844.512	303.84245
844.694	244.64184
844.876	314.25558
845.059	281.54438
845.241	233.30981
845.423	220.17368
845.605	264.70638
845.787	189.52107
845.969	240.24738
846.151	265.9142
846.333	282.01227
846.515	272.86969
846.697	197.24594
846.879	262.64835
847.061	304.33423
847.243	195.18439
847.425	264.84579
847.607	257.25848
847.789	244.68798
847.971	289.81403
848.153	299.63427
848.335	251.43053
848.517	290.51646
848.699	222.45708
848.881	257.09301
849.062	242.44046
849.244	264.88572
849.426	196.58644
849.608	285.40272
849.789	232.56867
849.971	191.89017
850.153	216.45158
850.335	258.21209
850.516	196.43004
850.698	310.96148
850.88	241.52221
851.061	253.62066
851.243	253.65891
851.425	214.65162
851.606	202.14616
851.788	230.11828
851.969	260.37153
852.151	244.93818
852.333	145.78303
852.514	290.79
852.696	207.6867
852.877	183.07967
853.059	267.40598
853.24	160.47752
853.422	151.32404
853.603	199.96521
853.784	171.7196
853.966	251.25074
854.147	188.49377
854.329	233.41523
854.51	151.55853
854.691	190.82041
854.873	224.75831
855.054	237.01438
855.235	184.01986
855.416	230.12698
855.598	170.63738
855.779	215.60904
855.96	206.92025
856.141	255.97389
856.323	184.11032
856.504	202.04669
856.685	196.55658
856.866	180.67231
857.047	207.91543
857.228	167.33056
857.409	187.60082
857.591	180.80919
857.772	199.91966
857.953	136.92893
858.134	183.22613
858.315	153.76722
858.496	144.79901
858.677	170.73456
858.858	120.19815
859.039	221.42052
859.22	202.17684
859.401	188.84452
859.582	170.98255
859.762	119.05625
859.943	167.34328
860.124	213.49784
860.305	155.03593
860.486	171.77163
860.667	146.00965
860.848	168.5292
861.028	173.01773
861.209	160.64205
861.39	195.64402
861.571	195.36879
861.751	142.60924
861.932	153.68582
862.113	149.50828
862.293	134.82316
862.474	115.59284
862.655	158.52441
862.835	141.50833
863.016	183.33829
863.197	175.4896
863.377	162.79376
863.558	118.03202
863.738	186.66427
863.919	112.33556
864.099	131.45304
864.28	184.45422
864.46	143.68797
864.641	134.90572
864.821	185.44243
865.002	98.83275
865.182	152.7791
865.363	129.24066
865.543	157.34096
865.723	140.58984
865.904	158.47593
866.084	105.4899
866.264	109.97411
866.445	105.4899
866.625	119.08354
866.805	137.12735
866.986	152.83738
867.166	128.05319
867.346	81.8336
867.526	93.17093
867.707	118.04562
867.887	121.4241
868.067	121.4008
868.247	96.56536
868.427	96.56167
868.607	105.54621
868.788	152.83738
868.968	87.53957
869.148	140.51975
869.328	50.43948
869.508	178.66145
869.688	84.23437
869.868	101.04287
870.048	84.21175
870.228	142.7071
870.408	97.74952
870.588	114.6362
870.768	84.25055
870.948	83.10908
871.128	89.82574
871.307	117.99582
871.487	88.70449
871.667	62.79346
871.847	69.59956
872.027	84.2376
872.207	80.80878
872.387	88.78287
872.566	92.15623
872.746	96.63199
872.926	88.75214
873.106	96.60974
873.285	169.79396
873.465	36.93228
873.645	60.54077
873.824	125.94145
874.004	94.39267
874.184	58.32611
874.363	83.11227
874.543	107.89283
874.723	68.52392
874.902	69.58887
875.082	87.65378
875.261	95.45201
875.441	15.48419
875.62	66.21693
875.8	21.13222
875.979	93.29251
876.159	57.18695
876.338	51.54781
876.518	92.16332
876.697	95.50325
876.876	53.79714
877.056	75.16167
877.235	75.11296
877.415	71.88424
877.594	80.84595
877.773	118.10466
877.953	81.88343
878.132	87.60662
878.311	105.62296
878.49	51.60539
878.67	93.203
878.849	58.31939
879.028	92.10314
879.207	26.77211
879.387	67.34791
879.566	35.80803
879.745	83.13144
879.924	24.5082
880.103	50.44724
880.282	126.03362
880.461	141.84518
880.64	116.92092
880.819	92.14205
880.998	109.06366
881.178	31.26909
881.357	40.30529
881.536	75.26559
881.715	96.6915
881.893	42.58807
882.072	-10.42964
882.251	59.43835
882.43	56.07411
882.609	61.69194
882.788	75.19332
882.967	52.7039
883.146	76.3535
883.325	92.10314
883.503	79.78822
883.682	103.4372
883.861	67.37904
884.04	85.40888
884.219	39.16958
884.397	68.51069
884.576	33.51629
884.755	92.10667
884.933	30.15328
885.112	60.67157
885.291	58.35981
885.469	69.64247
885.648	51.62535
885.827	14.38265
886.005	76.40054
886.184	130.36945
886.363	74.1824
886.541	101.23707
886.72	59.50246
886.898	-59.89421
887.077	83.21166
887.255	56.09138
887.434	109.21973
887.612	68.52656
887.791	56.12602
887.969	38.05485
888.147	70.71446
888.326	36.92943
888.504	-1.40892
888.682	17.76784
888.861	95.551
889.039	57.1716
889.218	47.07346
889.396	19.99787
889.574	39.14553
889.752	56.08922
889.931	52.67555
890.109	54.96709
890.287	91.07631
890.465	-5.91975
890.643	123.74456
890.822	59.51857
891	27.90097
891.178	40.28361
891.356	69.59154
891.534	79.7913
891.712	16.617
891.89	45.93268
892.068	57.21334
892.247	60.58725
892.425	110.23553
892.603	-21.71079
892.781	76.41823
892.959	47.05715
893.137	64.01204
893.314	51.60539
893.492	108.00089
893.67	45.91504
893.848	31.28472
894.026	27.88704
894.204	47.05534
894.382	89.84295
894.56	44.78915
894.738	47.0989
894.915	3.09999
895.093	73.03015
895.271	77.47305
895.449	44.78743
895.626	15.49726
895.804	68.4606
895.982	26.80418
896.16	78.61655
896.337	51.60938
896.515	108.07196
896.693	53.83644
896.87	65.09358
897.048	15.49607
897.225	52.70796
897.403	42.5356
897.581	25.67409
897.758	35.78047
897.936	26.76388
898.113	44.8496
898.291	14.38043
898.468	-2.53553
898.646	30.18939
898.823	-25.08221
899.001	29.03443
899.178	56.13905
899.356	55.02448
899.533	11.00254
899.71	20.00709
899.888	56.14993
900.065	-14.92656
900.242	59.49327
900.42	41.47355
900.597	94.47274
900.774	54.97768
900.952	42.66263
901.129	65.14882
901.306	38.06659
901.483	53.85097
901.661	40.30374
901.838	21.15423
902.015	16.63041
902.192	13.25896
902.369	58.36206
902.546	23.40074
902.723	20.01094
902.901	23.40978
903.078	35.83991
903.255	87.72146
903.432	48.21119
903.609	25.65821
903.786	31.29799
903.963	74.09382
904.14	34.69832
904.317	33.55629
904.494	59.48868
904.671	25.6592
904.848	30.19641
905.024	27.96048
905.201	17.78506
905.378	26.77211
905.555	-7.04964
905.732	51.59344
905.909	41.42873
906.086	-18.31213
906.262	91.10799
906.439	33.55629
906.616	14.38154
906.793	-0.28194
906.969	31.31736
907.146	1.97344
907.323	-28.4811
907.5	54.9968
907.676	61.76087
907.853	44.87045
908.03	27.91819
908.206	9.8674
908.383	70.74983
908.559	42.56178
908.736	29.04676
908.912	-19.45437
909.089	51.63535
909.266	22.25799
909.442	65.13121
909.619	42.57984
909.795	47.09708
909.972	66.24242
910.148	-16.07256
910.324	61.79914
910.501	11.00297
910.677	76.42413
910.854	53.90519
911.03	27.9128
911.206	30.18588
911.383	-1.40854
911.559	50.49399
911.735	8.73515
911.912	12.12468
912.088	59.4818
912.264	-14.94437
912.44	8.74189
912.617	35.81494
912.793	7.61464
912.969	42.61282
913.145	43.72553
913.321	56.14123
913.498	-3.66532
913.674	48.19447
913.85	20.04193
914.026	10.99362
914.202	29.03332
914.378	5.35762
914.554	53.88638
914.73	-3.66292
914.906	-4.79579
915.082	-38.67247
915.258	47.11895
915.434	-18.3326
915.61	52.74459
915.786	61.7776
915.962	62.91448
916.138	6.48868
916.314	21.14117
916.49	-26.23937
916.665	-12.69401
916.841	9.87886
917.017	61.72753
917.193	-16.08313
917.369	51.64938
917.545	-36.39303
917.72	42.61447
917.896	-31.88782
918.072	43.75608
918.247	44.85654
918.423	41.50416
918.599	14.38933
918.775	8.73852
918.95	-9.30588
919.126	-47.66111
919.301	27.94199
919.477	29.03779
919.653	43.74758
919.828	-14.95304
920.004	23.41612
920.179	25.64733
920.355	-92.66291
920.53	-1.41017
920.706	30.18354
920.881	0.8466
921.057	-27.34732
921.232	22.28289
921.408	-45.43486
921.583	20.02407
921.759	-2.53964
921.934	27.92575
922.109	29.06138
922.285	32.46165
922.46	-9.3066
922.635	-26.23937
922.811	39.19676
922.986	12.13265
923.161	-13.81836
923.336	52.7039
923.512	-28.51201
923.687	-12.69942
923.862	-34.15332
924.037	-43.15549
924.212	-0.28203
924.388	31.33194
924.563	15.52725
924.738	13.24872
924.913	65.20186
925.088	-18.32906
925.263	-4.79635
925.438	-10.43125
925.613	-27.36636
925.788	14.39156
925.963	1.97466
926.138	3.10527
926.313	38.08131
926.488	61.81834
926.663	12.1303
926.838	-18.33119
927.013	-4.79803
927.188	42.59631
927.363	30.16373
927.538	7.61141
927.713	16.64906
927.888	43.68504
928.062	3.10274
928.237	8.74493
928.412	-3.6683
928.587	33.54593
928.761	4.22929
928.936	-29.63602
929.111	22.27514
929.286	-32.99295
929.46	0.8464
929.635	13.26307
929.81	-40.91959
929.984	13.2708
930.159	14.37932
930.334	-27.34627
930.508	8.74866
930.683	54.99467
930.857	7.61877
931.032	-4.79338
931.206	42.60951
931.381	39.22256
931.556	-5.92433
931.73	66.32446
931.904	50.46279
932.079	-20.59929
932.253	-60.07111
932.428	3.1031
932.602	-0.28182
932.777	7.61258
932.951	-0.28205
933.125	-11.56364
933.3	41.47998
933.474	17.77265
933.648	48.26347
933.823	20.02407
933.997	17.78161
934.171	-20.6129
934.345	-37.49469
934.52	-10.43528
934.694	12.13265
934.868	14.39939
935.042	14.39212
935.217	-7.05209
935.391	-2.53964
935.565	-4.79933
935.739	47.10801
935.913	-34.12685
936.087	-12.68568
936.261	34.71581
936.435	5.35659
936.609	18.89194
936.783	-34.16793
936.957	13.26461
937.131	-70.2118
937.305	38.06072
937.479	56.13905
937.653	7.61258
937.827	8.7402
938.001	25.65524
938.175	-3.66659
938.349	3.10178
938.523	6.48893
938.697	-18.32765
938.87	-25.11421
939.044	-8.1809
939.218	33.58619
939.392	-19.4634
939.566	49.40107
939.739	6.48767
939.913	79.82522
940.087	-47.67956
940.261	-7.05291
940.434	16.64326
940.608	-66.83713
940.782	16.66526
940.955	40.36145
941.129	1.97329
941.302	-4.79431
941.476	49.41261
941.65	32.45661
941.823	-12.69549
941.997	7.61906
942.17	25.65623
942.344	-22.84613
942.517	-30.7228
942.691	21.1616
942.864	27.93765
943.038	-0.28211
943.211	-7.05264
943.385	33.57707
943.558	13.24923
943.731	-40.85486
943.905	-30.74891
944.078	-3.66659
944.251	-2.53718
944.425	4.23487
944.598	-7.05073
944.771	44.89487
944.945	0.84739
945.118	57.29079
945.291	50.49595
945.464	32.44654
945.638	16.64068
945.811	12.14161
945.984	13.2523
946.157	4.22962
946.33	73.0867
946.503	-20.60809
946.677	62.95356
946.85	13.26153
947.023	-40.89424
947.196	0.84623
947.369	-2.54072
947.542	-3.67129
947.715	0.84581
947.888	-0.2819
948.061	34.69832
948.234	-12.69008
948.407	-28.50537
948.58	5.36177
948.753	-18.32411
948.926	17.77334
949.099	-0.28217
949.271	9.87771
949.444	47.09708
949.617	36.97806
949.79	-3.66844
949.963	49.40876
950.136	-20.58256
950.308	-31.89029
950.481	47.11165
950.654	-16.08001
950.827	3.10406
950.999	27.94851
951.172	-8.17742
951.345	14.39156
951.517	44.86349
951.69	43.72892
951.863	-23.98687
952.035	-28.51867
952.208	-21.72086
952.381	67.45208
952.553	12.13218
952.726	57.27746
952.898	-21.70661
953.071	-11.56051
953.243	21.16324
953.416	5.35762
953.588	-46.53034
953.761	42.62275
953.933	-18.33048
954.106	30.19993
954.278	-80.42674
954.45	-0.28195
954.623	23.42702
954.795	18.90803
954.967	7.61729
955.14	9.88463
955.312	16.65877
955.484	4.23158
955.657	-2.54171
955.829	3.10563
956.001	-20.58654
956.173	-21.71499
956.346	16.651
956.518	-1.41023
956.69	-7.05839
956.862	9.87465
957.034	-54.44852
957.207	14.39883
957.379	-33.00188
957.551	42.64099
957.723	-13.81409
957.895	-20.61451
958.067	-14.9542
958.239	-57.79483
958.411	-7.05155
958.583	-55.59531
958.755	25.68206
958.927	4.22978
959.099	23.4134
959.271	-40.8895
959.443	32.46544
959.615	-23.98687
959.787	-19.45813
959.959	17.77609
960.13	17.75687
960.302	24.51762
960.474	16.64648
960.646	1.97337
960.818	24.55842
960.99	-7.05674
961.161	-7.05537
961.333	-17.19614
961.505	-40.89266
961.677	-31.88782
961.848	-21.7335
962.02	-21.73519
962.192	23.42793
962.363	40.33486
962.535	16.64133
962.707	5.35762
962.878	49.38573
963.05	-40.91007
963.221	20.03182
963.393	-51.05225
963.564	-36.39726
963.736	5.35804
963.907	60.6176
964.079	47.09708
964.25	-12.69106
964.422	-5.91884
964.593	-28.4877
964.765	4.23372
964.936	-14.94725
965.108	-21.72255
965.279	-4.79375
965.45	-33.01723
965.622	12.13548
965.793	3.10454
965.964	-5.92962
966.136	-20.58972
966.307	64.05168
966.478	1.97627
966.65	26.80522
966.821	24.51951
966.992	21.15669
967.163	-44.30175
967.334	-2.53885
967.506	38.08426
967.677	32.47049
967.848	-21.71834
968.019	7.61788
968.19	-21.73519
968.361	74.21689
968.532	-37.50047
968.703	-3.66306
968.874	-84.90575
969.045	20.01557
969.216	-53.34798
969.387	38.071
969.558	-28.4767
969.729	8.75104
969.9	-18.33402
970.071	15.52242
970.242	-10.44175
970.413	-10.43811
970.584	-22.85055
970.755	41.4415
970.926	50.52926
971.097	-9.3084
971.267	-25.09575
971.438	38.06366
971.609	9.88155
971.78	-16.08251
971.951	6.49296
972.121	39.22104
972.292	34.66752
972.463	-3.66461
972.633	21.17146
972.804	31.28472
972.975	-18.3227
973.145	-19.47245
973.316	4.23011
973.487	33.57837
973.657	12.135
973.828	-20.5937
973.998	40.33018
974.169	29.0704
974.339	30.17188
974.51	7.61464
974.68	13.25742
974.851	-37.56454
975.021	-16.08064
975.192	67.40246
975.362	-3.6683
975.533	9.8636
975.703	-11.57126
975.874	-32.98786
976.044	7.61641
976.214	14.39939
976.385	-25.11518
976.555	16.64197
976.725	41.4463
976.896	20.05833
977.066	-12.69893
977.236	16.65747
977.406	21.16407
977.577	23.41612
977.747	-10.44662
977.917	7.61995
978.087	21.16242
978.257	-35.24208
978.427	14.38989
978.598	-1.41248
978.768	7.61493
978.938	-33.01083
979.108	0.84656
979.278	-12.69549
979.448	18.89267
979.618	-55.64075
979.788	18.89705
979.958	4.23257
980.128	-18.34254
980.298	-5.92732
980.468	50.51161
980.638	-29.60963
980.808	16.63811
980.978	-26.2201
981.148	-45.3997
981.317	6.48792
981.487	-0.28223
981.657	4.23158
981.827	8.74561
981.997	93.3465
982.167	30.20228
982.336	16.66072
982.506	23.43522
982.676	-19.46114
982.846	-60.06183
983.015	3.10058
983.185	-5.92204
983.355	-34.10185
983.524	-18.31917
983.694	-2.53767
983.864	-21.71666
984.033	-39.77305
984.203	6.48893
984.372	-5.92158
984.542	-28.49763
984.712	-3.66787
984.881	-9.31237
985.051	-10.43085
985.22	-22.85852
985.39	25.65129
985.559	-16.07815
985.728	-1.41094
985.898	18.91023
986.067	24.54794
986.237	-48.79013
986.406	-10.44215
986.576	26.80626
986.745	22.29584
986.914	39.23169
987.084	42.59466
987.253	-21.72255
987.422	7.61847
987.591	4.23011
987.761	3.10394
987.93	10.99914
988.099	16.64519
988.268	-16.08064
988.438	7.61376
988.607	6.49397
988.776	5.36011
988.945	58.41175
989.114	22.28634
989.283	55.02875
989.452	16.64777
989.621	-39.78846
989.791	8.75036
989.96	-62.36594
990.129	-17.20677
990.298	6.48918
990.467	9.88309
990.636	76.43891
990.805	4.23011
990.974	52.73032
991.142	-0.28208
991.311	-26.22415
991.48	-31.87917
991.649	-14.95304
991.818	-37.51642
991.987	-20.58256
992.156	38.11235
992.325	25.66614
992.493	-9.30624
992.662	-216.11401
992.831	7.61729
993	-39.78383
993.168	-27.37804
993.337	7.6235
993.506	-16.09563
993.675	-3.6683
993.843	-37.51497
994.012	24.55556
994.181	-35.2557
994.349	-1.41154
994.518	-14.95015
994.686	24.56033
994.855	25.65129
995.024	-38.64398
995.192	9.87159
995.361	-11.55561
995.529	-5.92433
995.698	-16.0676
995.866	29.05238
996.035	-2.53875
996.203	-1.41012
996.371	9.87656
996.54	32.42897
996.708	-2.53836
996.877	13.26822
997.045	5.36323
997.213	-23.99153
997.382	-3.66886
997.55	-25.09575
997.718	-37.51206
997.887	-21.73097
998.055	-22.8479
998.223	-30.74415
998.391	-0.28202
998.56	36.96658
998.728	11.00382
998.896	55.07157
999.064	21.16407
999.232	-14.94206
999.401	-64.5885
999.569	40.3333
999.737	32.45535
999.905	-11.56901
1000.073	11.01409
1000.241	18.88902
1000.409	61.81834
1000.577	-10.43367
1000.745	30.18471
1000.913	23.40616
1001.081	-37.49903
1001.249	4.23093
1001.417	-62.33213
1001.585	-11.56901
1001.753	-4.79728
1001.921	-11.57081
1002.089	8.74358
1002.256	-21.73688
1002.424	7.62173
1002.592	-5.92479
1002.76	-17.21678
1002.928	-9.30876
1003.096	20.04817
1003.263	6.48918
1003.431	-10.44378
1003.599	-28.50537
1003.767	-5.92502
1003.934	24.54984
1004.102	8.7429
1004.27	-42.05576
1004.437	5.35721
1004.605	27.93982
1004.773	6.48943
1004.94	1.97443
1005.108	-69.11997
1005.275	27.93332
1005.443	-3.66858
1005.61	-16.08001
1005.778	-3.66773
1005.945	-4.79412
1006.113	27.92467
1006.28	-22.85763
1006.448	7.6167
1006.615	32.41771
1006.783	44.89138
1006.95	-9.30984
1007.118	5.36219
1007.285	44.85133
1007.452	9.87274
1007.62	17.78161
1007.787	-28.49432
1007.954	13.26771
1008.122	-35.27482
1008.289	31.3113
1008.456	13.27235
1008.623	6.49346
1008.791	9.87771
1008.958	3.10466
1009.125	5.35845
1009.292	9.8804
1009.459	-0.28231
1009.627	-32.99423
1009.794	-26.23531
1009.961	-11.56051
1010.128	25.70105
1010.295	31.29799
1010.462	64.10149
1010.629	14.4022
1010.796	-2.54033
1010.963	38.08573
1011.13	6.48192
1011.297	-11.57126
1011.464	-38.63204
1011.631	6.48517
1011.798	-21.72171
1011.965	1.97627
1012.132	-4.79765
1012.299	-11.57126
1012.466	-19.46039
1012.633	-23.97944
1012.799	5.3599
1012.966	13.25486
1013.133	47.10436
1013.3	-7.05428
1013.467	-83.74343
1013.633	32.46797
1013.8	-7.05346
1013.967	-16.085
1014.134	15.511
1014.3	0.84679
1014.467	-28.4866
1014.634	-25.10934
1014.8	4.23421
1014.967	3.10274
1015.134	22.2872
1015.3	-9.30732
1015.467	-63.45664
1015.633	-16.08188
1015.8	-1.41061
1015.966	27.92467
1016.133	-49.95595
1016.3	-36.37896
1016.466	22.28375
1016.632	-77.00899
1016.799	9.8758
1016.965	-38.6395
1017.132	-3.66787
1017.298	22.2872
1017.465	32.45787
1017.631	-5.92318
1017.797	27.96484
1017.964	24.56606
1018.13	-41.99724
1018.296	-10.44702
1018.463	42.59466
1018.629	16.64648
1018.795	-35.26798
1018.961	-16.08064
1019.128	-21.71163
1019.294	-2.53738
1019.46	-34.17459
1019.626	32.44026
1019.792	5.35886
1019.959	-34.14271
1020.125	53.93034
1020.291	-37.51351
1020.457	-53.34591
1020.623	-49.89992
1020.789	9.88001
1020.955	-43.15549
1021.121	-0.28231
1021.287	5.35721
1021.453	-18.34753
1021.619	36.96371
1021.785	-2.53915
1021.951	0.8465
1022.117	13.2605
1022.283	-1.41055
1022.449	33.58619
1022.615	49.3819
1022.781	-48.75815
1022.946	8.75104
1023.112	34.72796
1023.278	-74.7552
1023.444	69.73971
1023.61	-4.79524
1023.775	7.61995
1023.941	30.19056
1024.107	4.23142
1024.273	3.1031
1024.438	-23.96276
1024.604	-29.59821
1024.77	-117.55677
1024.935	-25.11615
1025.101	47.13175
1025.267	-39.79773
1025.432	13.26101
1025.598	17.78783
1025.763	-16.08064
1025.929	-30.768
1026.095	34.69026
1026.26	23.42611
1026.426	0.84633
1026.591	-42.04107
1026.757	31.31008
1026.922	-18.33473
1027.087	-5.92158
1027.253	-1.41061
1027.418	11.00382
1027.584	-18.32411
1027.749	31.31372
1027.914	-7.05018
1028.08	17.78092
1028.245	9.87045
1028.41	9.87274
1028.576	-21.73013
1028.741	-18.3326
1028.906	-53.29429
1029.072	-0.28207
1029.237	21.15259
1029.402	-17.21077
1029.567	5.35473
1029.732	20.04505
1029.898	-5.92364
1030.063	4.23734
1030.228	64.03928
1030.393	34.70101
1030.558	12.14066
1030.723	70.83193
1030.888	-20.59849
1031.053	66.31159
1031.218	-16.08251
1031.383	-0.28194
1031.548	15.51761
1031.713	-17.20944
1031.878	-30.75368
1032.043	-8.18566
1032.208	0.84637
1032.373	-37.52659
1032.538	-7.051
1032.703	-36.4015
1032.868	-5.9264
1033.033	26.81667
1033.198	7.62469
1033.362	-13.82424
1033.527	-8.18503
1033.692	-17.20211
1033.857	-1.41045
1034.021	34.73066
1034.186	-0.28218
1034.351	1.97291
1034.516	31.32221
1034.68	27.92683
1034.845	13.2605
1035.01	18.90217
1035.174	31.32221
1035.339	14.38766
1035.504	29.06363
1035.668	-54.41696
1035.833	-14.9542
1035.997	13.25691
1036.162	43.75268
1036.326	42.64099
1036.491	-14.95362
1036.655	-31.87917
1036.82	-21.70828
1036.984	-17.18292
1037.149	-81.48771
1037.313	-42.0248
1037.478	30.17654
1037.642	-7.05209
1037.807	32.43524
1037.971	-13.83552
1038.135	-9.31418
1038.3	41.4575
1038.464	20.04193
1038.628	14.3938
1038.792	5.35804
1038.957	-13.83121
1039.121	24.54508
1039.285	3.10322
1039.449	-3.6673
1039.614	-14.95884
1039.778	4.23355
1039.942	12.12187
1040.106	44.87916
1040.27	-30.75249
1040.434	-45.36647
1040.599	6.48792
1040.763	-17.19946
1040.927	-12.69401
1041.091	3.10262
1041.255	-17.20944
1041.419	3.10539
1041.583	9.8674
1041.747	-54.40646
1041.911	-36.37194
1042.075	22.28203
1042.239	27.94416
1042.403	-5.91793
1042.567	-36.36632
1042.731	14.37766
1042.894	-27.34627
1043.058	24.55651
1043.222	0.84623
1043.386	-34.1071
1043.55	-28.51312
1043.714	41.43351
1043.877	11.00553
1044.041	42.58642
1044.205	-12.69401
1044.369	6.4922
1044.532	-14.95362
1044.696	-45.4155
1044.86	-19.46717
1045.023	-78.1449
1045.187	-29.64178
1045.351	-51.05225
1045.514	25.67608
1045.678	4.22685
1045.841	-7.05894
