Data from 3_57 pm cloudy_Subt2__9__16-00-08-528.txt Node

Date: Tue Oct 07 16:00:08 EDT 2025
User: brett
Spectrometer: USB4F03499
Trigger mode: 4
Integration Time (sec): 1.000000E-2
Scans to average: 10
Electric dark correction enabled: true
Nonlinearity correction enabled: true
Boxcar width: 0
XAxis mode: Wavelengths
Number of Pixels in Spectrum: 3648
>>>>>Begin Spectral Data<<<<<
345.386	-4.57091
345.605	-4.57091
345.824	-4.57091
346.044	1.25022
346.263	-13.19193
346.482	-5.68846
346.701	-6.58298
346.92	7.29508
347.139	10.87406
347.358	-6.13603
347.577	21.61772
347.796	-12.07114
348.015	-2.44334
348.234	-11.3983
348.453	14.79468
348.672	-12.40375
348.891	2.14507
349.11	-8.37338
349.329	141.93511
349.548	193.88009
349.767	198.84397
349.986	208.39754
350.205	211.64738
350.424	203.15636
350.643	216.71896
350.862	200.58567
351.08	207.26467
351.299	216.41302
351.518	203.10824
351.737	215.47712
351.956	203.064
352.174	216.02217
352.393	217.78929
352.612	222.29725
352.831	207.87161
353.049	235.95078
353.268	230.47458
353.487	209.98601
353.705	228.45479
353.924	238.02694
354.143	225.05441
354.361	228.23266
354.58	228.7374
354.798	230.02256
355.017	237.85355
355.236	228.89474
355.454	226.96076
355.673	244.56738
355.891	254.65802
356.11	243.99863
356.328	240.56989
356.547	250.09862
356.765	248.98227
356.984	252.28515
357.202	254.6147
357.42	262.38059
357.639	252.36406
357.857	242.28546
358.076	261.29392
358.294	248.18961
358.512	274.46139
358.731	255.86717
358.949	272.65607
359.167	259.37266
359.386	274.72132
359.604	261.96246
359.822	267.8674
360.04	292.23057
360.259	278.15684
360.477	281.30086
360.695	268.08525
360.913	281.42329
361.131	266.40511
361.35	282.41386
361.568	283.28924
361.786	277.92451
362.004	283.63655
362.222	270.44075
362.44	273.01008
362.658	276.94213
362.876	292.6638
363.094	265.35765
363.312	278.77408
363.53	272.52799
363.749	288.4039
363.967	272.33974
364.184	274.23072
364.402	278.84059
364.62	285.1028
364.838	271.39749
365.056	274.0294
365.274	310.55602
365.492	291.16571
365.71	285.92443
365.928	297.69241
366.146	276.50542
366.364	304.18119
366.581	307.6937
366.799	319.74268
367.017	302.66342
367.235	327.80606
367.453	319.18424
367.67	339.97217
367.888	323.54023
368.106	339.90939
368.323	337.00136
368.541	331.49846
368.759	357.77749
368.977	368.15232
369.194	359.35001
369.412	374.41988
369.629	366.47644
369.847	375.08292
370.065	384.30402
370.282	381.21548
370.5	389.30887
370.717	389.9272
370.935	395.28335
371.152	398.01122
371.37	408.10863
371.588	408.99263
371.805	428.7107
372.022	427.3882
372.24	429.11748
372.457	434.4721
372.675	432.27494
372.892	438.83608
373.11	437.47295
373.327	441.47397
373.544	425.76356
373.762	456.27484
373.979	446.90157
374.196	441.04917
374.414	435.7257
374.631	461.94421
374.848	455.88059
375.066	435.46518
375.283	448.08933
375.5	458.1607
375.717	441.1902
375.935	469.32064
376.152	470.18844
376.369	468.33966
376.586	450.25857
376.803	453.35522
377.02	447.07956
377.238	460.85258
377.455	455.87392
377.672	463.4095
377.889	448.39551
378.106	447.64826
378.323	464.8715
378.54	471.85694
378.757	471.08739
378.974	460.58332
379.191	470.2575
379.408	488.69423
379.625	476.32453
379.842	491.3056
380.059	472.27716
380.276	483.50093
380.493	471.90368
380.71	481.10512
380.927	487.52312
381.143	479.43027
381.36	499.52734
381.577	498.97679
381.794	496.11716
382.011	503.96991
382.228	500.90579
382.444	526.62392
382.661	498.07711
382.878	504.8669
383.095	520.07906
383.311	507.26356
383.528	517.63189
383.745	517.54534
383.962	523.60942
384.178	533.67907
384.395	533.97893
384.612	549.09453
384.828	534.16109
385.045	540.84303
385.261	559.3614
385.478	550.6994
385.695	526.08168
385.911	548.45086
386.128	558.2005
386.344	557.45815
386.561	539.03426
386.777	562.19379
386.994	562.16325
387.21	540.2468
387.427	564.29233
387.643	552.03847
387.86	552.76807
388.076	520.69789
388.292	536.76372
388.509	535.91308
388.725	547.28998
388.942	577.45814
389.158	545.66478
389.374	559.35886
389.591	564.2213
389.807	533.47656
390.023	587.41842
390.239	562.72285
390.456	573.68474
390.672	584.6437
390.888	557.58549
391.104	585.84256
391.321	587.06563
391.537	591.69961
391.753	583.73945
391.969	611.9058
392.185	617.71169
392.401	620.6038
392.618	603.38211
392.834	609.21152
393.05	661.53516
393.266	633.45876
393.482	655.08882
393.698	634.73812
393.914	643.82097
394.13	666.86985
394.346	688.73124
394.562	658.29787
394.778	652.80821
394.994	677.25443
395.21	694.46202
395.426	694.49253
395.642	707.70988
395.858	721.65399
396.073	721.67712
396.289	712.69332
396.505	749.54751
396.721	729.83162
396.937	760.42606
397.153	747.99635
397.369	749.04179
397.584	783.43402
397.8	774.63521
398.016	766.8408
398.232	799.8027
398.447	790.54599
398.663	806.99227
398.879	795.06428
399.094	815.74567
399.31	815.20628
399.526	804.14038
399.741	840.11736
399.957	836.41254
400.173	837.48171
400.388	856.77968
400.604	855.44866
400.82	884.41409
401.035	905.16159
401.251	918.40808
401.466	908.48901
401.682	923.20521
401.897	978.9817
402.113	970.88902
402.328	990.88711
402.544	1010.04895
402.759	1014.73618
402.974	1072.18211
403.19	1065.5162
403.405	1139.78026
403.621	1182.5744
403.836	1180.71211
404.051	1239.58276
404.267	1260.32563
404.482	1256.66019
404.697	1259.16477
404.913	1289.47034
405.128	1376.31039
405.343	1337.52786
405.559	1348.31257
405.774	1394.40975
405.989	1450.45382
406.204	1480.12516
406.42	1501.02236
406.635	1518.05377
406.85	1513.32382
407.065	1565.82801
407.28	1599.24101
407.495	1606.52356
407.71	1596.3439
407.926	1642.41732
408.141	1759.7448
408.356	1750.11447
408.571	1710.03803
408.786	1727.12442
409.001	1739.84107
409.216	1825.93648
409.431	1822.89399
409.646	1818.24846
409.861	1798.65368
410.076	1810.16051
410.291	1838.51815
410.506	1880.19821
410.721	1872.03764
410.936	1885.92315
411.15	1887.14939
411.365	1916.26253
411.58	1951.08424
411.795	1947.51234
412.01	2028.06478
412.225	1973.89245
412.439	1940.05906
412.654	2001.65722
412.869	1989.39961
413.084	1994.07729
413.299	2067.91905
413.513	1971.8732
413.728	2031.69159
413.943	2093.21786
414.157	2100.75767
414.372	2118.44914
414.587	2149.25779
414.801	2216.08631
415.016	2205.31582
415.231	2221.55257
415.445	2220.68552
415.66	2235.95674
415.874	2294.69342
416.089	2245.54749
416.304	2366.3127
416.518	2333.61504
416.733	2353.413
416.947	2308.41031
417.162	2337.38471
417.376	2419.20367
417.59	2439.55305
417.805	2495.63693
418.019	2414.10436
418.234	2439.92851
418.448	2367.98413
418.663	2460.59135
418.877	2459.3901
419.091	2481.77636
419.306	2484.78028
419.52	2519.30335
419.734	2479.53977
419.949	2596.61934
420.163	2619.31116
420.377	2544.1986
420.591	2556.18888
420.806	2606.57801
421.02	2565.48016
421.234	2666.667
421.448	2640.60811
421.663	2620.13127
421.877	2609.64345
422.091	2575.19044
422.305	2608.39351
422.519	2614.90478
422.733	2744.46432
422.947	2614.66892
423.161	2621.81448
423.376	2646.32753
423.59	2705.30175
423.804	2704.88446
424.018	2707.96853
424.232	2679.04911
424.446	2823.65806
424.66	2767.54046
424.874	2747.61304
425.088	2665.83322
425.302	2695.12473
425.515	2833.48273
425.729	2840.33098
425.943	2826.32889
426.157	2845.79806
426.371	2791.67935
426.585	2833.29988
426.799	2856.21509
427.013	2983.50404
427.226	2951.84564
427.44	2829.98456
427.654	2827.7087
427.868	2846.20064
428.081	2872.36715
428.295	2855.53931
428.509	2902.06265
428.723	2845.35598
428.936	2865.14964
429.15	2786.07133
429.364	2899.82656
429.577	2757.53139
429.791	2828.31288
430.005	2968.17653
430.218	2910.22916
430.432	2795.09124
430.645	2830.45033
430.859	2848.03667
431.073	2882.22378
431.286	2949.73501
431.5	2979.86658
431.713	2827.381
431.927	2803.63671
432.14	2895.89847
432.354	2846.35671
432.567	2869.87802
432.781	2939.76087
432.994	2940.60904
433.207	3018.71165
433.421	2992.94784
433.634	2985.83711
433.848	3013.93847
434.061	2944.24916
434.274	2830.54264
434.488	2910.71392
434.701	2824.23752
434.914	2929.78004
435.127	2991.09235
435.341	3007.11498
435.554	2974.12352
435.767	3141.96057
435.98	3100.05759
436.194	2954.15593
436.407	2986.04471
436.62	3241.29289
436.833	3184.05203
437.046	3147.86946
437.259	3030.40306
437.473	3150.35428
437.686	3214.11023
437.899	3108.53721
438.112	3234.71971
438.325	3148.5688
438.538	3192.31028
438.751	3419.61095
438.964	3261.29006
439.177	3275.52326
439.39	3290.5751
439.603	3523.62273
439.816	3393.21367
440.029	3555.1074
440.242	3635.40324
440.455	3741.63936
440.668	3634.07311
440.881	3520.97786
441.094	3445.96376
441.306	3620.50663
441.519	3820.44071
441.732	3818.65444
441.945	3841.57435
442.158	3681.2682
442.37	3621.60064
442.583	3908.26784
442.796	3999.65952
443.009	3988.04077
443.222	3783.03022
443.434	3674.30564
443.647	4013.57201
443.86	4149.59992
444.072	4196.23095
444.285	4109.59101
444.498	4198.94676
444.71	4044.65399
444.923	4133.41919
445.136	4062.51509
445.348	3972.5476
445.561	4041.1866
445.773	4063.73391
445.986	3880.79989
446.198	4205.34662
446.411	4214.19426
446.623	4343.80413
446.836	4278.61048
447.048	4304.2521
447.261	4449.12614
447.473	4456.13566
447.686	4290.32803
447.898	4339.70266
448.11	4581.12631
448.323	4629.85652
448.535	4555.2538
448.748	4314.29917
448.96	4412.95539
449.172	4395.85545
449.385	4245.15447
449.597	4494.78381
449.809	4532.83876
450.021	4642.81735
450.234	4728.58785
450.446	4456.43574
450.658	4500.18063
450.87	4538.77395
451.083	4646.4324
451.295	4672.32331
451.507	4642.4913
451.719	4581.5052
451.931	4737.15271
452.143	4714.30947
452.356	4645.57157
452.568	4732.63035
452.78	4764.61092
452.992	4809.73617
453.204	4980.09839
453.416	4791.01678
453.628	4606.95986
453.84	4690.79839
454.052	4739.17643
454.264	4913.96937
454.476	4882.43256
454.688	5137.05627
454.9	5138.04213
455.112	4851.89725
455.324	4772.36344
455.536	4966.0372
455.747	5084.72281
455.959	5046.20623
456.171	5120.28847
456.383	4988.74644
456.595	4850.2965
456.807	4905.85452
457.018	4860.91168
457.23	5094.1804
457.442	4978.56141
457.654	5121.48636
457.865	5029.24569
458.077	4905.97724
458.289	4955.87941
458.501	5018.01911
458.712	5260.25085
458.924	5418.56493
459.136	5142.19619
459.347	5058.06928
459.559	5078.83525
459.77	5345.52527
459.982	5416.25444
460.194	5378.59513
460.405	5139.32546
460.617	5161.93549
460.828	5385.64037
461.04	5352.73501
461.251	5256.41321
461.463	5654.54901
461.674	5581.0368
461.886	5479.42203
462.097	5340.34778
462.309	5494.24015
462.52	5308.86313
462.731	5728.79283
462.943	5341.69377
463.154	5264.17949
463.366	5362.74637
463.577	5542.29537
463.788	5756.90604
464	5755.41048
464.211	5752.10811
464.422	6059.17738
464.634	5930.41899
464.845	5916.71149
465.056	6044.29526
465.267	5959.53077
465.478	5703.52508
465.69	5945.70195
465.901	5938.84063
466.112	5992.76118
466.323	6021.15107
466.534	6219.33323
466.745	6209.33836
466.957	6234.84927
467.168	6128.98757
467.379	6193.75405
467.59	5991.24083
467.801	5872.51097
468.012	6149.94182
468.223	6231.99737
468.434	6114.82341
468.645	6466.28665
468.856	6635.63451
469.067	6439.52494
469.278	6440.16109
469.489	6553.38892
469.7	6293.50272
469.911	6221.33937
470.122	6721.32092
470.333	6858.15362
470.543	6496.9493
470.754	6682.33002
470.965	6714.6236
471.176	6711.104
471.387	7003.80198
471.598	6825.92372
471.808	6726.74638
472.019	6891.51391
472.23	6867.79156
472.441	6737.78053
472.651	6921.80346
472.862	6839.8789
473.073	7166.54416
473.283	6992.86115
473.494	6959.72909
473.705	7008.14555
473.915	7045.80944
474.126	7310.21486
474.337	7277.8799
474.547	7444.37263
474.758	7553.31992
474.968	7459.05327
475.179	7535.5348
475.389	7418.57189
475.6	7597.45804
475.81	7631.95061
476.021	7835.56144
476.231	7890.9456
476.442	7799.64162
476.652	7610.32735
476.863	7782.37105
477.073	7706.39069
477.284	7960.12993
477.494	7960.22217
477.704	8381.49653
477.915	8509.49026
478.125	8078.50004
478.335	8256.41121
478.546	8593.11476
478.756	8419.72081
478.966	8665.11813
479.177	8672.77656
479.387	8821.74023
479.597	8779.6322
479.807	8788.01825
480.018	8740.97112
480.228	8963.11179
480.438	9006.62243
480.648	9159.86604
480.858	9162.37708
481.068	8949.35576
481.279	9186.24827
481.489	9656.09888
481.699	9546.65052
481.909	9439.05941
482.119	9996.15332
482.329	9982.60301
482.539	9945.89631
482.749	9777.06959
482.959	10034.25992
483.169	10356.2535
483.379	10277.2399
483.589	10481.98882
483.799	10335.11015
484.009	10259.8368
484.219	10394.61314
484.429	10635.92183
484.639	10434.30184
484.849	10729.46129
485.059	10870.30142
485.268	10956.93283
485.478	11073.93671
485.688	10741.67357
485.898	10840.33079
486.108	11057.91564
486.317	11198.89912
486.527	11313.99678
486.737	11526.61394
486.947	11494.84114
487.156	11637.869
487.366	11570.15024
487.576	11323.54447
487.785	11415.60578
487.995	11439.04116
488.205	11685.13862
488.414	11725.84676
488.624	11703.10497
488.834	11745.17632
489.043	11623.79072
489.253	11539.10348
489.462	11845.95605
489.672	12058.8
489.882	12104.96441
490.091	12240.49968
490.301	12090.00647
490.51	12214.71121
490.72	12297.38294
490.929	12424.62061
491.138	12557.8367
491.348	12391.80623
491.557	12421.83769
491.767	12572.79828
491.976	12555.57708
492.185	12552.21655
492.395	12548.72013
492.604	12712.95976
492.813	12712.41772
493.023	12923.80319
493.232	12873.12738
493.441	12763.30645
493.651	13070.83059
493.86	12787.33814
494.069	13040.00542
494.278	13064.81365
494.488	13131.96084
494.697	13213.66682
494.906	13081.58757
495.115	13332.69045
495.324	13206.8972
495.533	13437.98335
495.743	13570.12158
495.952	13769.11222
496.161	13658.20403
496.37	13794.95397
496.579	13909.56178
496.788	13951.25803
496.997	14120.3578
497.206	13981.57533
497.415	14085.19098
497.624	14118.3729
497.833	14310.82309
498.042	14360.27797
498.251	14490.06933
498.46	14570.15695
498.669	14511.70333
498.878	14452.90922
499.087	14499.94674
499.296	14887.97551
499.504	14817.08847
499.713	14759.11251
499.922	14841.78852
500.131	14918.22658
500.34	15004.60638
500.549	15129.75865
500.757	14820.90617
500.966	15122.56468
501.175	15020.50545
501.384	15241.79835
501.592	15116.52112
501.801	15171.13699
502.01	15223.32407
502.218	15198.90535
502.427	15341.45466
502.636	15243.35338
502.844	15385.679
503.053	15300.3242
503.262	15324.86601
503.47	15342.98084
503.679	15362.05843
503.887	15383.76351
504.096	15423.75333
504.304	15416.96425
504.513	15525.17959
504.721	15416.6498
504.93	15456.49283
505.138	15565.99703
505.347	15518.89426
505.555	15500.24419
505.764	15576.64434
505.972	15614.97561
506.18	15502.00193
506.389	15496.42479
506.597	15449.42837
506.806	15618.53831
507.014	15708.58804
507.222	15585.79407
507.431	15605.5851
507.639	15488.524
507.847	15756.00994
508.055	15709.09401
508.264	15702.61067
508.472	15797.53726
508.68	15696.76284
508.888	15873.00136
509.096	15840.74264
509.305	15855.13922
509.513	15793.27027
509.721	15857.34708
509.929	15887.10205
510.137	15889.95026
510.345	15975.48897
510.553	15871.41451
510.762	15943.38263
510.97	15878.34783
511.178	16029.00794
511.386	16194.40723
511.594	16071.21986
511.802	16156.12831
512.01	16131.06365
512.218	16174.99432
512.426	16354.33164
512.634	16297.42668
512.842	16333.7966
513.049	16332.62268
513.257	16327.48186
513.465	16467.59248
513.673	16531.85822
513.881	16487.60826
514.089	16509.24455
514.297	16544.8745
514.504	16566.77571
514.712	16652.20682
514.92	16773.89524
515.128	16867.52689
515.336	16770.72321
515.543	16706.41066
515.751	16798.8829
515.959	16702.10583
516.166	16607.70405
516.374	16794.04777
516.582	16860.70825
516.789	16820.06479
516.997	16803.04061
517.205	16720.51028
517.412	16793.6263
517.62	16904.84711
517.827	16845.03177
518.035	16844.66494
518.243	16790.72384
518.45	16688.51204
518.658	16654.83087
518.865	16670.67314
519.073	16733.86571
519.28	16613.90331
519.488	16614.66567
519.695	16579.75488
519.902	16589.20793
520.11	16583.51304
520.317	16765.30817
520.525	16635.22465
520.732	16470.81888
520.939	16614.92712
521.147	16392.18732
521.354	16530.51136
521.561	16562.53631
521.769	16577.17221
521.976	16408.7717
522.183	16649.24086
522.391	16466.58536
522.598	16613.53305
522.805	16571.90261
523.012	16568.16801
523.219	16601.15891
523.427	16662.88786
523.634	16718.04623
523.841	16686.66399
524.048	16620.20783
524.255	16794.02416
524.462	16794.52415
524.669	16657.19722
524.877	16831.42876
525.084	16704.50226
525.291	16790.74703
525.498	16827.43292
525.705	16907.62575
525.912	17043.51391
526.119	16916.48757
526.326	16946.00243
526.533	16980.21439
526.74	17131.89205
526.947	17076.7887
527.153	17111.05246
527.36	17162.47838
527.567	17138.03613
527.774	17196.09662
527.981	17190.16419
528.188	17117.74886
528.395	17304.6503
528.602	17232.72133
528.808	17257.11246
529.015	17225.87946
529.222	17385.22685
529.429	17244.34871
529.635	17385.27754
529.842	17407.54646
530.049	17319.27601
530.256	17327.69035
530.462	17513.04611
530.669	17474.90791
530.876	17490.55394
531.082	17498.68673
531.289	17524.62314
531.495	17584.7454
531.702	17654.8772
531.909	17555.91021
532.115	17837.24839
532.322	17559.28658
532.528	17632.39973
532.735	17714.76514
532.941	17714.494
533.148	17637.88853
533.354	17676.4182
533.561	17865.98034
533.767	17693.81778
533.974	17682.86017
534.18	17836.96438
534.387	17701.07229
534.593	17739.97941
534.799	17758.86273
535.006	17799.70918
535.212	17773.53441
535.418	17820.04718
535.625	17854.93285
535.831	17814.06396
536.037	17763.7777
536.244	17765.71951
536.45	17568.88273
536.656	17753.73843
536.862	17868.48002
537.068	17877.12209
537.275	17843.124
537.481	17948.03779
537.687	18004.87735
537.893	18077.43457
538.099	18039.67915
538.305	17994.06406
538.512	18038.7181
538.718	17921.49632
538.924	17983.71063
539.13	17940.20431
539.336	18039.19794
539.542	17973.21751
539.748	18142.06477
539.954	17981.83153
540.16	18147.5421
540.366	18142.3032
540.572	18090.94075
540.778	18029.76408
540.984	18044.2461
541.19	18021.03263
541.396	17952.68455
541.602	18119.5501
541.807	17945.01231
542.013	18032.61195
542.219	17877.14684
542.425	17917.52136
542.631	17888.58783
542.837	17834.57979
543.042	17928.94013
543.248	17870.88424
543.454	17821.31151
543.66	17854.8238
543.865	17687.8385
544.071	17838.62956
544.277	17795.06937
544.483	17758.52549
544.688	17751.81559
544.894	17820.26784
545.1	17898.47409
545.305	17714.44272
545.511	17838.86685
545.716	17808.84118
545.922	17688.71732
546.128	17740.91374
546.333	17708.91144
546.539	17830.09153
546.744	17705.92102
546.95	17783.10878
547.155	17700.09214
547.361	17803.91698
547.566	17611.39593
547.772	17726.10041
547.977	17693.08649
548.182	17615.04417
548.388	17741.22179
548.593	17720.37877
548.799	17601.74636
549.004	17609.45666
549.209	17679.06112
549.415	17769.74458
549.62	17631.62541
549.825	17658.38993
550.031	17554.80016
550.236	17746.93128
550.441	17832.07199
550.646	17764.66618
550.852	17850.12807
551.057	17634.05305
551.262	17836.41375
551.467	17820.23265
551.672	17740.55186
551.878	17830.91868
552.083	17713.54626
552.288	17791.69714
552.493	17730.78066
552.698	17805.45215
552.903	17800.57874
553.108	17926.58782
553.313	17878.64543
553.518	17750.19963
553.723	17853.82298
553.928	17957.89652
554.133	17909.73019
554.338	17972.18045
554.543	17998.12259
554.748	17893.26638
554.953	18013.4451
555.158	17940.80017
555.363	18006.52494
555.568	17821.05479
555.773	18124.41588
555.978	18042.85232
556.182	17947.57325
556.387	17903.60303
556.592	17915.73949
556.797	18051.35747
557.002	18031.28231
557.206	17982.14059
557.411	18052.72753
557.616	17909.09894
557.821	18130.08353
558.025	18029.38278
558.23	18043.13401
558.435	18045.73402
558.64	18061.90956
558.844	18053.00125
559.049	17981.19371
559.253	18066.3664
559.458	18004.47556
559.663	18046.62244
559.867	17975.98352
560.072	17897.73531
560.276	17947.53858
560.481	17947.627
560.685	17950.95971
560.89	17855.32221
561.094	17951.35195
561.299	17804.17652
561.503	17663.431
561.708	17881.97397
561.912	17782.79827
562.117	17807.77398
562.321	17706.07061
562.525	17823.9478
562.73	17840.32956
562.934	17762.82197
563.139	17696.66849
563.343	17846.65453
563.547	17687.26319
563.752	17761.57696
563.956	17716.12139
564.16	17722.55839
564.364	17652.32022
564.569	17695.28148
564.773	17694.73513
564.977	17584.31786
565.181	17738.03936
565.385	17641.96352
565.59	17711.38589
565.794	17661.09254
565.998	17662.44906
566.202	17620.19526
566.406	17611.53046
566.61	17645.72133
566.814	17565.56419
567.018	17594.99742
567.222	17620.95381
567.426	17438.85096
567.63	17486.14526
567.834	17457.45129
568.038	17547.26348
568.242	17360.15501
568.446	17436.86434
568.65	17392.97476
568.854	17358.24602
569.058	17450.37805
569.262	17498.94933
569.466	17446.78781
569.67	17433.7309
569.874	17358.93946
570.078	17434.05245
570.281	17317.20669
570.485	17358.98215
570.689	17306.5293
570.893	17154.37702
571.097	17287.60484
571.3	17116.34037
571.504	17197.81327
571.708	17109.85957
571.912	17169.28415
572.115	17071.66426
572.319	16926.30104
572.523	17089.18258
572.726	17077.20362
572.93	16962.73185
573.133	17034.65801
573.337	16985.48279
573.541	17009.10373
573.744	16871.00959
573.948	16876.46528
574.151	16908.82098
574.355	16815.55128
574.558	16843.62376
574.762	16939.27192
574.965	16722.95264
575.169	16852.44869
575.372	16756.77165
575.576	16829.86093
575.779	16709.01119
575.983	16860.62464
576.186	16636.13911
576.389	16691.57972
576.593	16631.37691
576.796	16771.69065
577	16581.43429
577.203	16757.59093
577.406	16610.87598
577.609	16541.42394
577.813	16573.61865
578.016	16533.58436
578.219	16632.21213
578.423	16527.09163
578.626	16510.06441
578.829	16491.22552
579.032	16405.8567
579.235	16580.52692
579.438	16518.92216
579.642	16482.11342
579.845	16418.81604
580.048	16505.7134
580.251	16358.53881
580.454	16431.5178
580.657	16360.94092
580.86	16413.53707
581.063	16264.50035
581.266	16322.83924
581.469	16398.24717
581.672	16321.54224
581.875	16388.7249
582.078	16330.04876
582.281	16209.56256
582.484	16257.81334
582.687	16450.77566
582.89	16352.94192
583.093	16302.26507
583.296	16275.96338
583.499	16541.63725
583.702	16285.56732
583.904	16280.55931
584.107	16387.37174
584.31	16408.99587
584.513	16320.71452
584.716	16356.53489
584.918	16323.13583
585.121	16380.25148
585.324	16321.24278
585.527	16359.37211
585.729	16482.48835
585.932	16367.16579
586.135	16355.92885
586.337	16355.3729
586.54	16446.07142
586.743	16411.60347
586.945	16348.53203
587.148	16285.98706
587.35	16360.57979
587.553	16344.16914
587.755	16300.02928
587.958	16367.36939
588.161	16199.8793
588.363	16299.47662
588.566	16237.65468
588.768	16390.43642
588.971	16306.1933
589.173	16179.36218
589.375	16182.73034
589.578	16142.9097
589.78	16140.70143
589.983	16090.86733
590.185	16063.38565
590.387	15911.56686
590.59	15914.18552
590.792	15838.73552
590.994	15701.23624
591.197	15742.87561
591.399	15557.33414
591.601	15566.08303
591.803	15398.27462
592.006	15351.41376
592.208	15342.79035
592.41	15270.74126
592.612	15230.43167
592.815	15138.0822
593.017	15194.42374
593.219	14978.78591
593.421	14861.14127
593.623	14848.72821
593.825	14826.31914
594.027	14780.06856
594.229	14767.06596
594.432	14648.74161
594.634	14648.05283
594.836	14573.20929
595.038	14642.40932
595.24	14482.1556
595.442	14525.49973
595.644	14419.17279
595.846	14334.25007
596.048	14427.15427
596.249	14221.9509
596.451	14238.40117
596.653	14220.54346
596.855	14142.64156
597.057	14157.94671
597.259	14119.83304
597.461	14083.28806
597.663	14076.56745
597.864	13981.62602
598.066	14095.81239
598.268	14001.34847
598.47	13999.94055
598.671	13916.68384
598.873	13919.435
599.075	13943.47664
599.277	14092.50521
599.478	13965.82594
599.68	13960.87069
599.882	14071.94877
600.083	14017.65775
600.285	14007.56742
600.487	13968.61367
600.688	13972.71092
600.89	14102.26194
601.091	14097.46981
601.293	14108.22328
601.494	14092.67044
601.696	14124.13221
601.898	14186.45853
602.099	14237.83778
602.301	14242.61275
602.502	14312.88253
602.703	14376.43726
602.905	14293.61444
603.106	14430.41491
603.308	14345.39855
603.509	14493.08923
603.711	14276.74547
603.912	14468.23059
604.113	14438.34774
604.315	14432.14864
604.516	14487.68862
604.717	14446.60465
604.919	14475.51365
605.12	14481.72282
605.321	14664.39656
605.522	14622.05785
605.724	14609.71655
605.925	14485.85594
606.126	14715.86237
606.327	14755.4465
606.528	14792.7759
606.729	14720.44582
606.931	14852.22148
607.132	14926.16964
607.333	14702.38204
607.534	14831.73941
607.735	14873.01335
607.936	14933.41717
608.137	14945.9118
608.338	14920.74148
608.539	14903.92119
608.74	14884.97146
608.941	14965.08843
609.142	14930.48362
609.343	15076.77303
609.544	15061.75403
609.745	14989.05763
609.946	15082.16334
610.147	15058.89174
610.348	15001.83908
610.549	15020.34234
610.75	15065.22438
610.95	15032.49549
611.151	15039.51212
611.352	15052.74579
611.553	15128.1304
611.754	15003.35678
611.954	15190.89927
612.155	15003.95621
612.356	15070.30831
612.557	15016.19098
612.757	15143.38678
612.958	15046.49667
613.159	15076.74035
613.359	15020.58445
613.56	15048.53191
613.761	15073.38161
613.961	15002.29298
614.162	14967.08129
614.362	14977.99338
614.563	15039.74316
614.764	15062.90116
614.964	14959.67479
615.165	15001.27586
615.365	14937.66731
615.566	14954.46751
615.766	14937.53496
615.967	15007.17433
616.167	14793.2103
616.368	14801.9267
616.568	14894.68474
616.768	14856.09095
616.969	14899.95685
617.169	14891.54066
617.37	14764.6283
617.57	14807.2692
617.77	14759.90548
617.971	14707.32987
618.171	14662.32735
618.371	14726.19308
618.571	14677.85241
618.772	14695.39698
618.972	14663.91924
619.172	14619.81526
619.372	14556.24422
619.573	14609.71918
619.773	14617.76083
619.973	14535.84551
620.173	14560.31967
620.373	14481.63704
620.573	14479.02862
620.774	14541.15354
620.974	14401.34084
621.174	14466.79187
621.374	14463.99968
621.574	14540.95451
621.774	14448.5573
621.974	14418.68144
622.174	14403.02675
622.374	14457.17421
622.574	14361.43848
622.774	14370.49552
622.974	14331.8889
623.174	14487.22366
623.374	14446.52874
623.574	14440.03619
623.774	14405.76996
623.973	14450.29716
624.173	14312.45676
624.373	14470.80545
624.573	14346.02637
624.773	14296.31476
624.973	14350.47612
625.172	14386.22326
625.372	14277.6961
625.572	14266.40816
625.772	14299.5081
625.971	14241.56389
626.171	14217.95415
626.371	14290.00301
626.57	14151.20133
626.77	14305.11289
626.97	14154.16279
627.169	14174.88289
627.369	14193.52778
627.569	14248.45801
627.768	14054.98342
627.968	14081.29045
628.167	14119.88919
628.367	14103.25009
628.566	14074.70804
628.766	14085.39319
628.965	14031.85697
629.165	14070.13962
629.364	14038.60138
629.564	13974.68982
629.763	14007.24594
629.963	13917.2959
630.162	13883.37531
630.362	13940.54472
630.561	13857.32351
630.76	13789.80203
630.96	13732.39754
631.159	13769.86369
631.358	13826.56184
631.558	13754.72577
631.757	13706.03004
631.956	13706.84596
632.155	13656.02189
632.355	13525.36015
632.554	13566.62539
632.753	13512.8515
632.952	13504.55586
633.152	13481.25101
633.351	13445.37887
633.55	13470.54439
633.749	13443.95594
633.948	13476.12506
634.147	13454.46745
634.346	13314.25452
634.545	13341.79863
634.744	13258.27458
634.944	13290.12917
635.143	13320.66548
635.342	13280.33602
635.541	13298.32832
635.74	13265.96263
635.939	13182.31296
636.138	13219.45129
636.336	13201.31455
636.535	13126.77148
636.734	13204.834
636.933	13273.49352
637.132	13212.691
637.331	13104.1236
637.53	13199.67618
637.729	13103.12852
637.928	13147.44639
638.126	13242.18739
638.325	13078.86685
638.524	13111.94426
638.723	13041.44714
638.921	13107.55703
639.12	13093.79571
639.319	13146.40782
639.518	13139.24426
639.716	13070.37577
639.915	13045.88677
640.114	13139.33904
640.312	13135.5736
640.511	13121.69523
640.71	13213.82069
640.908	13096.99336
641.107	13154.66569
641.305	13097.45788
641.504	13072.76473
641.702	13040.6948
641.901	13118.83932
642.099	13060.89214
642.298	13019.80713
642.496	13103.74421
642.695	13008.16407
642.893	12965.45161
643.092	13071.68138
643.29	13054.49802
643.489	12997.0045
643.687	13019.6161
643.885	12975.67111
644.084	13008.88916
644.282	12996.02428
644.48	13056.18725
644.679	13069.9126
644.877	12893.93859
645.075	12971.33786
645.274	12918.92933
645.472	12897.9638
645.67	12944.29773
645.868	12926.92437
646.067	12829.55088
646.265	12919.34431
646.463	12852.6787
646.661	12836.55961
646.859	12905.61604
647.057	12853.02705
647.256	12790.26181
647.454	12779.97758
647.652	12799.69546
647.85	12752.98142
648.048	12812.66684
648.246	12650.46236
648.444	12592.46639
648.642	12607.96317
648.84	12565.16863
649.038	12475.75766
649.236	12408.65413
649.434	12457.54167
649.632	12394.55146
649.83	12446.45661
650.028	12275.10566
650.226	12246.37946
650.423	12195.63588
650.621	12206.09221
650.819	12061.88127
651.017	12079.60955
651.215	12080.60246
651.413	12060.91078
651.61	11956.90095
651.808	11910.7068
652.006	11915.48332
652.204	11874.84844
652.401	11886.58388
652.599	11779.13257
652.797	11765.7465
652.995	11733.21957
653.192	11616.19107
653.39	11691.74688
653.588	11705.75366
653.785	11578.51313
653.983	11563.6882
654.18	11566.74196
654.378	11498.03948
654.576	11541.18751
654.773	11499.67127
654.971	11468.36416
655.168	11450.37572
655.366	11482.59577
655.563	11401.45382
655.761	11396.21686
655.958	11360.76806
656.156	11360.11759
656.353	11287.9612
656.55	11278.06837
656.748	11318.88287
656.945	11239.56199
657.143	11183.10652
657.34	11193.65904
657.537	11184.37632
657.735	11107.52455
657.932	11039.41378
658.129	11035.73756
658.326	10965.0255
658.524	11030.60267
658.721	11026.03143
658.918	10915.85857
659.115	10844.49551
659.313	10918.37839
659.51	10740.90033
659.707	10862.1687
659.904	10805.17981
660.101	10818.33388
660.298	10820.32501
660.496	10806.2335
660.693	10773.53301
660.89	10767.61834
661.087	10720.59373
661.284	10744.17983
661.481	10787.67178
661.678	10760.68115
661.875	10783.31822
662.072	10827.63359
662.269	10873.24874
662.466	10816.22124
662.663	10806.20289
662.86	10834.50427
663.057	10789.73714
663.254	10895.82178
663.45	10901.23247
663.647	10796.54794
663.844	10864.2744
664.041	10794.20103
664.238	10935.01899
664.435	10809.6619
664.631	10817.49352
664.828	10928.06095
665.025	10860.78128
665.222	10863.59336
665.419	10863.96243
665.615	10933.74927
665.812	10885.63504
666.009	10931.5743
666.205	10973.673
666.402	10933.13889
666.599	10880.29209
666.795	10917.92405
666.992	10984.22736
667.188	11022.25648
667.385	11009.16997
667.582	11102.31714
667.778	11076.26736
667.975	11125.09103
668.171	11080.64472
668.368	11036.2631
668.564	11079.91134
668.761	11138.43374
668.957	11092.54611
669.154	11086.19705
669.35	11090.34449
669.547	11078.2163
669.743	11139.18997
669.939	11151.52172
670.136	11106.4887
670.332	11117.54479
670.528	11061.99239
670.725	11193.21863
670.921	11162.77498
671.117	11119.12594
671.314	11072.72298
671.51	11169.11445
671.706	11167.96126
671.902	11109.52037
672.099	11183.79033
672.295	11079.70177
672.491	11101.67283
672.687	11021.46596
672.883	11016.72119
673.08	11047.19314
673.276	11066.4789
673.472	11059.78127
673.668	11004.49323
673.864	11018.0608
674.06	10998.03444
674.256	11043.66395
674.452	10889.30599
674.648	10909.5744
674.844	10963.98715
675.04	11023.06346
675.236	10915.98534
675.432	10880.39045
675.628	10837.44473
675.824	10826.3105
676.02	10814.51841
676.216	10849.72165
676.412	10820.14821
676.608	10802.86551
676.804	10755.79322
676.999	10842.82008
677.195	10707.34563
677.391	10776.20576
677.587	10789.50013
677.783	10756.19301
677.978	10761.94765
678.174	10773.85866
678.37	10690.75474
678.566	10767.44178
678.761	10682.85595
678.957	10691.88381
679.153	10578.60386
679.348	10688.61811
679.544	10638.3631
679.74	10678.49089
679.935	10611.69607
680.131	10639.40779
680.327	10603.97684
680.522	10546.20602
680.718	10600.44585
680.913	10538.16898
681.109	10506.67544
681.304	10532.77561
681.5	10518.29053
681.695	10526.69139
681.891	10491.34463
682.086	10508.42461
682.282	10482.24865
682.477	10491.77091
682.672	10420.66436
682.868	10429.50941
683.063	10438.86379
683.259	10467.25494
683.454	10363.82802
683.649	10369.96325
683.845	10335.78874
684.04	10415.3223
684.235	10382.79688
684.43	10351.76172
684.626	10345.36964
684.821	10341.69638
685.016	10290.23111
685.211	10301.27797
685.407	10259.8509
685.602	10250.26021
685.797	10178.4153
685.992	10175.77352
686.187	10313.69204
686.382	10227.63507
686.577	10190.15458
686.773	10186.91605
686.968	10181.51914
687.163	10168.22927
687.358	10098.68158
687.553	10160.29548
687.748	10110.47151
687.943	10084.89264
688.138	10058.06208
688.333	10080.7189
688.528	9963.08676
688.723	9973.53229
688.918	9936.93831
689.112	9748.42082
689.307	9743.69793
689.502	9640.90463
689.697	9670.53684
689.892	9702.76333
690.087	9573.7667
690.282	9588.99233
690.476	9420.42338
690.671	9437.96689
690.866	9328.04443
691.061	9335.05264
691.255	9247.53538
691.45	9260.58629
691.645	9160.15437
691.84	9103.98182
692.034	9107.12848
692.229	9048.99754
692.424	8998.79303
692.618	8968.48426
692.813	8904.21802
693.007	8872.37785
693.202	8855.27772
693.397	8895.26741
693.591	8773.58915
693.786	8768.55293
693.98	8699.55619
694.175	8750.26023
694.369	8635.5624
694.564	8663.25867
694.758	8575.95831
694.953	8539.33131
695.147	8543.77267
695.342	8516.83899
695.536	8401.44117
695.73	8413.47083
695.925	8326.4602
696.119	8361.78721
696.313	8243.51391
696.508	8221.02152
696.702	8250.08085
696.896	8149.31975
697.091	8178.89338
697.285	8156.18442
697.479	8123.68854
697.673	8101.0218
697.868	8066.7286
698.062	8140.07315
698.256	8035.58926
698.45	8054.62591
698.644	8060.7726
698.839	8069.89547
699.033	8019.20873
699.227	8072.69805
699.421	8033.27835
699.615	8072.05924
699.809	8105.45892
700.003	8144.66551
700.197	8077.01951
700.391	8155.55688
700.585	8046.16585
700.779	8153.95766
700.973	8115.77332
701.167	8080.78916
701.361	8119.8001
701.555	8161.97555
701.749	8065.42491
701.943	8136.67214
702.137	8112.30933
702.331	8045.51283
702.525	8047.19001
702.718	8048.47658
702.912	8053.65977
703.106	8067.26478
703.3	7948.52543
703.494	8039.75181
703.687	8024.11754
703.881	8027.14719
704.075	8028.54134
704.269	7972.9595
704.462	8032.03717
704.656	8058.84048
704.85	7977.20452
705.043	8001.93246
705.237	7976.52642
705.431	8048.14635
705.624	8008.13215
705.818	7998.89187
706.012	8056.32946
706.205	8064.56711
706.399	7985.49764
706.592	8079.73722
706.786	8039.75479
706.979	8092.92253
707.173	8009.71405
707.366	8059.58908
707.56	8062.30135
707.753	8062.03947
707.947	8022.45927
708.14	8088.2479
708.333	8013.20875
708.527	8085.599
708.72	8044.38973
708.914	8124.31341
709.107	8105.21054
709.3	8042.10483
709.494	8044.03316
709.687	7978.90908
709.88	8103.47102
710.073	8134.52372
710.267	8076.01881
710.46	8081.20515
710.653	8170.7624
710.846	8147.45172
711.04	8189.51859
711.233	8146.27107
711.426	8147.24334
711.619	8121.9729
711.812	8216.39008
712.005	8221.16688
712.198	8179.75248
712.391	8209.93141
712.585	8193.63839
712.778	8214.96005
712.971	8255.19717
713.164	8230.44166
713.357	8282.75056
713.55	8277.12353
713.743	8256.46637
713.936	8318.86135
714.129	8282.90215
714.322	8294.24584
714.514	8337.44958
714.707	8302.33075
714.9	8271.59939
715.093	8380.50138
715.286	8325.43199
715.479	8333.18395
715.672	8384.06395
715.864	8343.02029
716.057	8351.18784
716.25	8334.1447
716.443	8406.10374
716.636	8314.2939
716.828	8386.47214
717.021	8334.87221
717.214	8385.94885
717.406	8393.06326
717.599	8363.84256
717.792	8358.36979
717.984	8252.40154
718.177	8231.45708
718.37	8218.22758
718.562	8209.93721
718.755	8149.36401
718.947	8081.9108
719.14	8029.8892
719.333	7975.5048
719.525	7886.85749
719.718	7770.89865
719.91	7766.60975
720.103	7705.97853
720.295	7591.66403
720.487	7545.54716
720.68	7498.96782
720.872	7366.75102
721.065	7270.90208
721.257	7257.84189
721.449	7089.35305
721.642	7016.73044
721.834	6938.31211
722.026	6888.14777
722.219	6792.49451
722.411	6681.15382
722.603	6629.78373
722.796	6604.73152
722.988	6523.32083
723.18	6484.97715
723.372	6381.0635
723.565	6361.42751
723.757	6287.47006
723.949	6291.51073
724.141	6226.29378
724.333	6251.74504
724.525	6133.51161
724.717	6160.57437
724.91	6093.50509
725.102	6059.03334
725.294	5999.27433
725.486	5955.65281
725.678	5949.95139
725.87	5908.31471
726.062	5841.05311
726.254	5834.04357
726.446	5734.51608
726.638	5778.43973
726.83	5651.69164
727.022	5680.06171
727.213	5573.63335
727.405	5626.92273
727.597	5588.80463
727.789	5582.61735
727.981	5539.25894
728.173	5553.74487
728.365	5483.84219
728.556	5520.9735
728.748	5467.81421
728.94	5508.93379
729.132	5454.25938
729.324	5479.05625
729.515	5453.68812
729.707	5430.9068
729.899	5416.6865
730.09	5440.00618
730.282	5392.98955
730.474	5459.24337
730.665	5389.73037
730.857	5406.3442
731.049	5409.8938
731.24	5478.67789
731.432	5436.79964
731.623	5420.87972
731.815	5450.64843
732.006	5430.31714
732.198	5400.74372
732.389	5423.12237
732.581	5412.15621
732.772	5380.67104
732.964	5358.53765
733.155	5389.32897
733.347	5423.33965
733.538	5394.50004
733.729	5403.78147
733.921	5418.63759
734.112	5423.05927
734.304	5459.7598
734.495	5475.36568
734.686	5477.80245
734.877	5531.8469
735.069	5479.2555
735.26	5529.12723
735.451	5576.05309
735.643	5582.74029
735.834	5678.81278
736.025	5669.54901
736.216	5682.84744
736.407	5717.35668
736.599	5709.86731
736.79	5760.87184
736.981	5824.17303
737.172	5808.14556
737.363	5909.6138
737.554	5909.97866
737.745	5964.27988
737.936	6039.94035
738.127	6063.1864
738.318	6040.76802
738.509	6172.86853
738.7	6145.88328
738.891	6223.29144
739.082	6231.91798
739.273	6277.43275
739.464	6310.60792
739.655	6359.69737
739.846	6332.88414
740.037	6406.98986
740.228	6438.79076
740.419	6485.41325
740.609	6479.31066
740.8	6599.39884
740.991	6589.97042
741.182	6617.67988
741.373	6650.21424
741.563	6699.88774
741.754	6682.30763
741.945	6791.82767
742.136	6786.97751
742.326	6852.68205
742.517	6857.79594
742.708	6884.61899
742.898	6925.42646
743.089	6908.06649
743.28	6955.44024
743.47	6976.90052
743.661	6987.18887
743.851	7044.79873
744.042	7005.88112
744.233	7101.7162
744.423	7106.60598
744.614	7103.4171
744.804	7153.30806
744.995	7098.34894
745.185	7011.05193
745.376	7207.73418
745.566	7242.12945
745.756	7230.1589
745.947	7269.85376
746.137	7289.41099
746.328	7310.95051
746.518	7372.29045
746.708	7307.43886
746.899	7356.1082
747.089	7376.35824
747.279	7389.91964
747.47	7451.84797
747.66	7417.72209
747.85	7439.68195
748.04	7436.83395
748.231	7438.40518
748.421	7527.11034
748.611	7425.99266
748.801	7497.7782
748.991	7504.57703
749.182	7521.69648
749.372	7520.21581
749.562	7585.80662
749.752	7534.44593
749.942	7537.61797
750.132	7552.85685
750.322	7616.65803
750.512	7572.41962
750.702	7607.24955
750.892	7542.1048
751.082	7657.2166
751.272	7596.03502
751.462	7634.42029
751.652	7599.96413
751.842	7634.93159
752.032	7588.79681
752.222	7647.05846
752.412	7601.13478
752.602	7581.02074
752.792	7665.43807
752.981	7605.09957
753.171	7587.8188
753.361	7627.16394
753.551	7596.43048
753.741	7560.93786
753.93	7569.29692
754.12	7576.91409
754.31	7571.06687
754.5	7571.27675
754.689	7564.41521
754.879	7533.12139
755.069	7529.56901
755.258	7559.93599
755.448	7541.00877
755.638	7505.34777
755.827	7497.61995
756.017	7521.78527
756.206	7434.19879
756.396	7492.94729
756.586	7460.45878
756.775	7530.717
756.965	7493.80394
757.154	7482.18181
757.344	7421.39305
757.533	7422.0023
757.723	7422.47236
757.912	7460.76395
758.101	7365.71059
758.291	7418.39314
758.48	7369.2258
758.67	7370.72941
758.859	7375.70507
759.048	7405.49944
759.238	7345.29057
759.427	7368.03752
759.616	7337.96448
759.806	7315.15957
759.995	7332.6392
760.184	7320.25483
760.373	7251.28713
760.563	7309.01592
760.752	7237.9143
760.941	7227.4152
761.13	7110.94125
761.319	7079.43573
761.509	7011.2827
761.698	6982.16462
761.887	6888.95686
762.076	6825.42011
762.265	6663.24279
762.454	6657.54962
762.643	6472.94397
762.832	6390.96201
763.021	6286.94186
763.21	6195.77587
763.399	6081.14741
763.588	6008.79708
763.777	5892.12691
763.966	5777.69988
764.155	5654.5208
764.344	5539.45439
764.533	5485.34893
764.722	5368.21828
764.911	5235.03656
765.1	5161.55291
765.288	5045.78126
765.477	4999.07239
765.666	4880.28292
765.855	4821.69881
766.044	4731.13126
766.232	4627.58979
766.421	4533.62681
766.61	4466.23066
766.799	4385.64092
766.987	4330.53596
767.176	4276.94742
767.365	4206.56417
767.553	4128.5191
767.742	4107.06857
767.931	3983.31782
768.119	4011.65708
768.308	3947.71625
768.497	3924.37295
768.685	3900.68874
768.874	3880.37522
769.062	3812.59055
769.251	3845.8163
769.439	3839.82758
769.628	3850.00245
769.816	3832.27758
770.005	3876.58553
770.193	3907.58927
770.382	3926.34462
770.57	3947.80253
770.758	4030.33522
770.947	4106.04076
771.135	4144.90797
771.323	4163.18
771.512	4247.10691
771.7	4287.07178
771.888	4367.89602
772.077	4381.77132
772.265	4429.79844
772.453	4506.17779
772.642	4558.72024
772.83	4591.40082
773.018	4662.67985
773.206	4722.68665
773.394	4763.70279
773.583	4794.50926
773.771	4931.43053
773.959	4942.41678
774.147	5096.88205
774.335	5150.04951
774.523	5173.43074
774.711	5278.45509
774.899	5319.20891
775.087	5357.03818
775.275	5435.29694
775.463	5462.42419
775.651	5519.48266
775.839	5556.74212
776.027	5611.67996
776.215	5637.68158
776.403	5713.77993
776.591	5725.1931
776.779	5827.47417
776.967	5770.13904
777.155	5868.47057
777.343	5858.36802
777.531	5950.22372
777.718	5911.39205
777.906	5971.17201
778.094	5975.45698
778.282	5993.05543
778.47	5989.82109
778.657	5990.88994
778.845	5986.86303
779.033	5998.18704
779.22	6028.10388
779.408	6045.58148
779.596	6041.90166
779.783	6051.16607
779.971	6040.05823
780.159	6115.88904
780.346	6065.25124
780.534	6148.73842
780.722	6069.32054
780.909	6071.18222
781.097	6037.33103
781.284	6046.57604
781.472	6075.61999
781.659	6089.4029
781.847	6022.68688
782.034	6103.76517
782.222	6017.64178
782.409	6053.72366
782.597	6015.01507
782.784	5991.79073
782.971	6033.68585
783.159	6019.73718
783.346	5999.72199
783.533	5996.62746
783.721	5986.71272
783.908	5949.74227
784.095	5919.02231
784.283	5948.05646
784.47	5955.10785
784.657	5953.8646
784.844	5915.85379
785.032	5922.17286
785.219	5897.7514
785.406	5899.78395
785.593	5863.75854
785.78	5890.56295
785.968	5855.38877
786.155	5856.35962
786.342	5819.41988
786.529	5836.73924
786.716	5825.79708
786.903	5847.96417
787.09	5801.74362
787.277	5795.84737
787.464	5767.59941
787.651	5804.02077
787.838	5742.30585
788.025	5769.30308
788.212	5714.83009
788.399	5697.87478
788.586	5669.73227
788.773	5717.29411
788.96	5674.58979
789.147	5678.3903
789.334	5591.36264
789.521	5658.61663
789.707	5582.19956
789.894	5602.70548
790.081	5556.9515
790.268	5561.61825
790.455	5494.81057
790.641	5530.57664
790.828	5504.2712
791.015	5451.70393
791.202	5481.49815
791.388	5448.40734
791.575	5373.15649
791.762	5321.52773
791.948	5369.21048
792.135	5357.83219
792.322	5316.1488
792.508	5316.56197
792.695	5261.31452
792.881	5268.71098
793.068	5214.77654
793.254	5226.52211
793.441	5188.97933
793.627	5176.27563
793.814	5164.16716
794	5150.38553
794.187	5130.21465
794.373	5126.37345
794.56	5064.05611
794.746	5088.036
794.933	5054.02091
795.119	5022.04722
795.305	5067.88391
795.492	4985.01681
795.678	4995.31485
795.864	5041.69888
796.051	4946.97097
796.237	4946.9929
796.423	4903.63895
796.61	4952.96867
796.796	4891.53793
796.982	4913.29692
797.168	4948.13421
797.355	4870.04999
797.541	4860.68477
797.727	4879.58864
797.913	4833.80848
798.099	4877.0216
798.285	4796.66433
798.471	4840.89975
798.658	4750.47857
798.844	4822.20657
799.03	4813.79103
799.216	4792.58018
799.402	4802.1071
799.588	4781.9858
799.774	4787.36343
799.96	4742.01086
800.146	4722.86969
800.332	4739.69597
800.518	4674.28432
800.704	4776.91356
800.89	4747.40781
801.075	4735.0308
801.261	4685.42812
801.447	4695.55823
801.633	4703.31412
801.819	4711.26354
802.005	4692.53806
802.19	4723.98866
802.376	4684.79897
802.562	4718.4923
802.748	4670.61954
802.934	4693.35963
803.119	4633.03129
803.305	4623.64431
803.491	4674.6657
803.676	4653.85275
803.862	4619.15792
804.048	4658.56687
804.233	4609.58458
804.419	4637.85072
804.605	4581.6178
804.79	4580.00191
804.976	4573.83694
805.161	4556.6492
805.347	4558.62494
805.532	4587.98897
805.718	4560.63889
805.903	4557.85969
806.089	4539.88008
806.274	4546.82199
806.46	4515.82181
806.645	4533.43724
806.831	4499.91774
807.016	4544.7083
807.201	4546.3181
807.387	4521.86748
807.572	4512.94276
807.757	4528.79241
807.943	4503.91462
808.128	4545.23171
808.313	4444.61148
808.499	4509.03753
808.684	4480.43177
808.869	4475.2317
809.054	4457.84732
809.24	4505.8575
809.425	4430.47015
809.61	4508.94083
809.795	4476.74988
809.98	4459.71307
810.165	4466.18327
810.35	4451.72862
810.536	4481.92357
810.721	4437.76114
810.906	4392.3397
811.091	4504.09063
811.276	4410.71496
811.461	4444.79087
811.646	4404.57838
811.831	4417.01952
812.016	4375.49971
812.201	4355.5981
812.386	4380.9491
812.571	4371.61132
812.756	4331.57514
812.941	4339.52684
813.125	4333.68723
813.31	4328.23055
813.495	4302.30667
813.68	4261.47895
813.865	4293.08969
814.05	4240.89786
814.234	4249.15504
814.419	4246.98642
814.604	4198.07015
814.789	4208.39993
814.973	4158.70972
815.158	4131.3761
815.343	4088.14578
815.528	4074.61583
815.712	4040.67027
815.897	4041.90858
816.081	3976.27008
816.266	3938.80543
816.451	3915.32331
816.635	3888.12542
816.82	3820.80907
817.004	3806.22648
817.189	3755.82506
817.374	3742.46351
817.558	3682.7203
817.743	3642.66391
817.927	3611.2476
818.111	3590.72525
818.296	3502.86272
818.48	3502.82004
818.665	3436.67316
818.849	3407.1988
819.034	3379.29498
819.218	3313.22054
819.402	3258.33977
819.587	3237.05339
819.771	3195.26142
819.955	3133.10935
820.14	3139.98778
820.324	3090.89855
820.508	3039.55496
820.692	3013.03908
820.877	2956.24723
821.061	2949.9837
821.245	2922.63929
821.429	2891.70911
821.613	2860.8241
821.798	2838.96711
821.982	2808.53639
822.166	2797.19253
822.35	2780.04828
822.534	2761.00997
822.718	2730.2001
822.902	2749.03952
823.086	2714.68615
823.27	2704.81234
823.454	2660.19144
823.638	2687.47307
823.822	2662.88419
824.006	2678.26445
824.19	2600.32756
824.374	2662.25905
824.558	2599.1781
824.742	2562.42783
824.926	2584.89546
825.11	2555.43397
825.294	2548.4436
825.477	2584.31969
825.661	2540.25824
825.845	2536.60948
826.029	2513.61142
826.213	2511.28919
826.396	2533.20568
826.58	2535.67696
826.764	2529.88913
826.948	2535.73716
827.131	2504.56479
827.315	2528.72989
827.499	2558.12596
827.682	2544.90699
827.866	2551.12886
828.05	2550.91266
828.233	2555.45428
828.417	2579.58003
828.6	2549.99492
828.784	2591.7227
828.967	2562.09053
829.151	2607.0732
829.335	2595.71507
829.518	2612.65998
829.701	2581.05321
829.885	2593.38803
830.068	2639.36135
830.252	2600.02212
830.435	2624.67354
830.619	2627.54015
830.802	2575.0709
830.985	2624.23089
831.169	2597.99161
831.352	2575.09574
831.535	2591.01632
831.719	2587.65975
831.902	2589.35403
832.085	2558.36476
832.269	2579.12592
832.452	2579.25745
832.635	2571.97289
832.818	2573.68368
833.002	2557.02967
833.185	2606.40731
833.368	2582.32279
833.551	2590.46114
833.734	2572.53622
833.917	2630.4138
834.1	2590.71293
834.284	2578.66689
834.467	2587.2876
834.65	2580.24141
834.833	2551.83061
835.016	2581.79806
835.199	2554.10475
835.382	2552.86008
835.565	2523.48177
835.748	2572.37117
835.931	2565.39892
836.114	2532.85534
836.297	2569.29138
836.479	2526.64088
836.662	2517.63031
836.845	2568.23841
837.028	2541.97486
837.211	2559.03508
837.394	2536.64096
837.577	2541.09451
837.759	2568.67247
837.942	2567.57811
838.125	2551.38968
838.308	2555.08096
838.49	2530.87749
838.673	2603.1959
838.856	2525.67756
839.039	2595.10941
839.221	2549.83075
839.404	2603.02332
839.587	2577.89961
839.769	2590.54153
839.952	2549.48016
840.134	2570.96101
840.317	2572.83772
840.499	2604.81659
840.682	2595.7665
840.865	2598.2384
841.047	2583.04584
841.23	2626.33986
841.412	2647.8417
841.595	2611.47889
841.777	2604.27991
841.959	2652.16361
842.142	2621.84256
842.324	2685.53599
842.507	2636.59305
842.689	2654.96349
842.871	2676.64303
843.054	2677.62644
843.236	2681.78585
843.418	2685.15261
843.601	2674.38892
843.783	2674.02154
843.965	2683.36062
844.147	2715.42265
844.33	2686.41269
844.512	2702.51232
844.694	2729.73103
844.876	2739.48427
845.059	2709.05141
845.241	2746.45917
845.423	2700.71479
845.605	2712.9295
845.787	2718.06654
845.969	2757.25952
846.151	2724.45934
846.333	2710.33997
846.515	2706.35642
846.697	2723.66956
846.879	2704.70412
847.061	2723.6254
847.243	2710.42613
847.425	2699.57421
847.607	2715.82069
847.789	2736.60471
847.971	2704.86606
848.153	2733.64802
848.335	2707.64376
848.517	2720.196
848.699	2702.77515
848.881	2731.3801
849.062	2695.80703
849.244	2708.67981
849.426	2697.18538
849.608	2708.1671
849.789	2678.30503
849.971	2693.04164
850.153	2677.75677
850.335	2698.06974
850.516	2685.69914
850.698	2701.65244
850.88	2674.82003
851.061	2708.53864
851.243	2668.469
851.425	2680.13211
851.606	2630.45948
851.788	2665.91026
851.969	2641.84374
852.151	2634.83195
852.333	2639.16744
852.514	2633.88586
852.696	2621.95738
852.877	2634.59966
853.059	2608.94733
853.24	2636.93093
853.422	2606.17784
853.603	2606.23662
853.784	2591.37052
853.966	2613.4314
854.147	2581.52441
854.329	2585.48686
854.51	2583.51346
854.691	2582.30885
854.873	2547.49588
855.054	2539.19251
855.235	2549.29554
855.416	2546.03361
855.598	2475.91333
855.779	2517.95867
855.96	2506.18335
856.141	2495.70753
856.323	2479.06804
856.504	2475.13128
856.685	2428.47834
856.866	2425.85511
857.047	2402.07614
857.228	2398.03105
857.409	2371.15477
857.591	2378.32721
857.772	2373.58547
857.953	2402.11924
858.134	2367.84516
858.315	2344.06892
858.496	2353.19085
858.677	2342.49532
858.858	2317.77603
859.039	2307.75896
859.22	2304.97921
859.401	2312.6964
859.582	2285.4449
859.762	2302.96453
859.943	2278.20542
860.124	2304.98725
860.305	2263.94624
860.486	2285.209
860.667	2257.83374
860.848	2284.93392
861.028	2271.91947
861.209	2274.97036
861.39	2255.88688
861.571	2282.98968
861.751	2254.05783
861.932	2239.54818
862.113	2266.99035
862.293	2271.80069
862.474	2238.84009
862.655	2254.69526
862.835	2273.78485
863.016	2234.10755
863.197	2235.48932
863.377	2238.98854
863.558	2206.55615
863.738	2216.30098
863.919	2200.97864
864.099	2247.38032
864.28	2210.80702
864.46	2224.72217
864.641	2217.15334
864.821	2228.02814
865.002	2182.19631
865.182	2210.6548
865.363	2210.88087
865.543	2209.16083
865.723	2217.52288
865.904	2224.42052
866.084	2225.91112
866.264	2219.81703
866.445	2193.10518
866.625	2204.89532
866.805	2188.69517
866.986	2206.27905
867.166	2177.74891
867.346	2193.99237
867.526	2170.83575
867.707	2147.98556
867.887	2153.77936
868.067	2184.8351
868.247	2128.33594
868.427	2136.90466
868.607	2095.88352
868.788	2113.82785
868.968	2091.65594
869.148	2142.02436
869.328	2091.66006
869.508	2092.18132
869.688	2072.75441
869.868	2103.58535
870.048	2051.46394
870.228	2092.24438
870.408	2068.86482
870.588	2048.52681
870.768	2044.16523
870.948	2010.0482
871.128	2053.69984
871.307	2046.2982
871.487	2015.56057
871.667	2010.2536
871.847	2006.67306
872.027	2013.48077
872.207	1989.99347
872.387	2013.98412
872.566	1972.88648
872.746	1984.8351
872.926	1987.12415
873.106	1999.14446
873.285	1960.93564
873.465	1959.69121
873.645	1956.34645
873.824	1978.09538
874.004	1938.59453
874.184	1954.35598
874.363	1915.75918
874.543	1951.07971
874.723	1923.14986
874.902	1929.87123
875.082	1917.58911
875.261	1901.69617
875.441	1891.67869
875.62	1897.44665
875.8	1892.93827
875.979	1891.31788
876.159	1872.86716
876.338	1885.68511
876.518	1871.31143
876.697	1900.72078
876.876	1883.3957
877.056	1888.61076
877.235	1895.26388
877.415	1865.42664
877.594	1878.62053
877.773	1865.72723
877.953	1860.65011
878.132	1866.48741
878.311	1852.79011
878.49	1856.9187
878.67	1840.75993
878.849	1841.43364
879.028	1843.36973
879.207	1819.40639
879.387	1802.36213
879.566	1832.87548
879.745	1795.5876
879.924	1819.82191
880.103	1815.11306
880.282	1816.11201
880.461	1800.02058
880.64	1779.3481
880.819	1789.34369
880.998	1780.14149
881.178	1764.64212
881.357	1792.14975
881.536	1772.47425
881.715	1803.03746
881.893	1737.28596
882.072	1767.89904
882.251	1779.31112
882.43	1740.95189
882.609	1737.97641
882.788	1741.97512
882.967	1732.56181
883.146	1741.74915
883.325	1734.72783
883.503	1718.84946
883.682	1685.53972
883.861	1695.10888
884.04	1689.45962
884.219	1692.21989
884.397	1693.33914
884.576	1711.92068
884.755	1687.16046
884.933	1657.3562
885.112	1669.40103
885.291	1691.65809
885.469	1671.99306
885.648	1658.18732
885.827	1637.89768
886.005	1675.44039
886.184	1630.22207
886.363	1649.00002
886.541	1638.41193
886.72	1651.49468
886.898	1665.17359
887.077	1647.30481
887.255	1614.72195
887.434	1616.53774
887.612	1619.35582
887.791	1619.78725
887.969	1631.2208
888.147	1598.41743
888.326	1613.78374
888.504	1606.48237
888.682	1627.64277
888.861	1601.55669
889.039	1597.71063
889.218	1584.26635
889.396	1611.72383
889.574	1597.25589
889.752	1593.09244
889.931	1583.60407
890.109	1581.0737
890.287	1571.63093
890.465	1578.08174
890.643	1592.01265
890.822	1558.09174
891	1574.28223
891.178	1574.58653
891.356	1561.4028
891.534	1569.1954
891.712	1593.1833
891.89	1546.90792
892.068	1556.51468
892.247	1549.00564
892.425	1570.81444
892.603	1531.00658
892.781	1564.53185
892.959	1514.39632
893.137	1570.37582
893.314	1538.96365
893.492	1523.97532
893.67	1533.14005
893.848	1534.56499
894.026	1535.39681
894.204	1517.16189
894.382	1529.43347
894.56	1540.34962
894.738	1502.04552
894.915	1515.4104
895.093	1499.28584
895.271	1495.93469
895.449	1492.34493
895.626	1500.26704
895.804	1488.9219
895.982	1473.17562
896.16	1467.08278
896.337	1473.19072
896.515	1432.54801
896.693	1431.46234
896.87	1421.00125
897.048	1427.29304
897.225	1411.24871
897.403	1400.89996
897.581	1400.59621
897.758	1393.04336
897.936	1346.03803
898.113	1337.06913
898.291	1329.66466
898.468	1352.84444
898.646	1325.61945
898.823	1322.27951
899.001	1274.32435
899.178	1252.41426
899.356	1245.27726
899.533	1240.77618
899.71	1228.89512
899.888	1199.77455
900.065	1191.813
900.242	1165.56236
900.42	1166.94885
900.597	1157.71315
900.774	1117.81207
900.952	1108.17983
901.129	1076.0443
901.306	1065.77917
901.483	1057.44962
901.661	1048.30708
901.838	1018.66742
902.015	1031.04243
902.192	973.31615
902.369	982.05068
902.546	939.82656
902.723	941.67864
902.901	940.89003
903.078	901.83759
903.255	912.20189
903.432	883.79951
903.609	885.75751
903.786	850.87232
903.963	833.59174
904.14	850.64255
904.317	801.86681
904.494	811.78844
904.671	805.16533
904.848	797.42398
905.024	793.65682
905.201	801.86529
905.378	778.6404
905.555	763.50782
905.732	779.42317
905.909	778.80399
906.086	785.08379
906.262	781.30669
906.439	764.1673
906.616	804.99649
906.793	781.85251
906.969	768.64618
907.146	769.68385
907.323	775.3413
907.5	787.33175
907.676	774.72793
907.853	777.16934
908.03	802.69413
908.206	809.7991
908.383	788.22131
908.559	808.1686
908.736	822.30835
908.912	802.90948
909.089	823.1811
909.266	794.25796
909.442	810.5716
909.619	798.60174
909.795	796.09689
909.972	812.21061
910.148	827.0057
910.324	815.24968
910.501	798.7118
910.677	825.03025
910.854	802.62472
911.03	805.31628
911.206	809.97938
911.383	797.88275
911.559	788.87478
911.735	775.66007
911.912	784.11165
912.088	787.27701
912.264	770.0418
912.44	779.35144
912.617	777.19839
912.793	751.57017
912.969	765.27619
913.145	750.32053
913.321	741.15216
913.498	736.76833
913.674	726.03629
913.85	722.6435
914.026	715.27536
914.202	718.29153
914.378	727.69042
914.554	696.80016
914.73	677.82057
914.906	672.38148
915.082	671.31281
915.258	679.7346
915.434	653.37318
915.61	653.06271
915.786	650.48444
915.962	635.59373
916.138	608.16936
916.314	610.81102
916.49	612.84457
916.665	590.85014
916.841	605.33357
917.017	604.10465
917.193	590.76807
917.369	570.92014
917.545	600.42743
917.72	554.66172
917.896	584.97068
918.072	583.62753
918.247	561.55072
918.423	557.28164
918.599	584.55676
918.775	564.78806
918.95	558.2497
919.126	543.02985
919.301	535.68734
919.477	549.98269
919.653	546.3997
919.828	519.8141
920.004	538.56946
920.179	549.23477
920.355	533.79818
920.53	530.54793
920.706	528.49666
920.881	527.84437
921.057	531.38529
921.232	526.95495
921.408	540.17322
921.583	528.32466
921.759	525.47519
921.934	518.76382
922.109	531.59175
922.285	516.69018
922.46	521.05058
922.635	523.62618
922.811	525.87317
922.986	535.13245
923.161	540.75846
923.336	532.26544
923.512	533.56331
923.687	545.47576
923.862	556.68383
924.037	558.05693
924.212	559.5665
924.388	544.68854
924.563	568.09842
924.738	581.10858
924.913	568.26097
925.088	559.35886
925.263	596.87622
925.438	571.8232
925.613	559.53002
925.788	573.11028
925.963	566.44634
926.138	583.72891
926.313	574.36443
926.488	564.1326
926.663	578.92604
926.838	584.28862
927.013	573.08542
927.188	571.07697
927.363	576.6374
927.538	586.81569
927.713	568.91751
927.888	582.59673
928.062	594.60528
928.237	575.12887
928.412	580.9561
928.587	582.63743
928.761	599.95733
928.936	586.40219
929.111	573.60359
929.286	573.85229
929.46	573.56424
929.635	580.83026
929.81	570.21669
929.984	549.95999
930.159	559.09805
930.334	554.51677
930.508	545.82025
930.683	542.66123
930.857	516.15635
931.032	507.0564
931.206	497.10079
931.381	508.4061
931.556	478.22189
931.73	472.64349
931.904	477.8774
932.079	463.65875
932.253	459.12766
932.428	423.82257
932.602	462.63611
932.777	420.5604
932.951	414.65123
933.125	398.83315
933.3	402.37709
933.474	406.14781
933.648	368.3241
933.823	381.94336
933.997	358.44831
934.171	368.14517
934.345	342.58849
934.52	322.58222
934.694	333.64999
934.868	303.78558
935.042	313.5221
935.217	286.42428
935.391	289.61898
935.565	251.60811
935.739	270.44378
935.913	260.24399
936.087	260.78504
936.261	216.12203
936.435	232.73709
936.609	219.44176
936.783	208.79978
936.957	216.60946
937.131	193.46011
937.305	171.57555
937.479	178.22499
937.653	168.26839
937.827	169.31947
938.001	142.89924
938.175	137.52867
938.349	140.59414
938.523	133.88808
938.697	130.32014
938.87	123.28836
939.044	106.71418
939.218	114.51964
939.392	105.92064
939.566	101.89631
939.739	103.81132
939.913	96.0062
940.087	100.35716
940.261	83.9663
940.434	84.82567
940.608	93.32647
940.782	82.80908
940.955	100.16227
941.129	72.88562
941.302	84.4041
941.476	75.00748
941.65	80.72324
941.823	74.22815
941.997	77.89214
942.17	88.41433
942.344	75.57706
942.517	69.08132
942.691	83.04864
942.864	85.51821
943.038	103.4968
943.211	87.08192
943.385	88.86337
943.558	89.9864
943.731	110.35354
943.905	71.3123
944.078	97.34491
944.251	86.61542
944.425	95.80422
944.598	87.39344
944.771	103.52084
944.945	92.54513
945.118	80.78661
945.291	98.98474
945.464	95.77252
945.638	88.50707
945.811	87.40208
945.984	90.30056
946.157	92.29988
946.33	93.00273
946.503	91.42939
946.677	98.99188
946.85	89.63594
947.023	103.7865
947.196	92.85584
947.369	110.75602
947.542	98.56339
947.715	91.53539
947.888	99.43947
948.061	100.35831
948.234	92.85266
948.407	104.35787
948.58	100.57261
948.753	106.16221
948.926	91.17228
949.099	109.72176
949.271	89.96074
949.444	90.14553
949.617	105.81435
949.79	97.55504
949.963	94.56234
950.136	85.5849
950.308	83.38944
950.481	100.83211
950.654	71.41604
950.827	100.69256
950.999	73.66639
951.172	97.58361
951.345	87.40374
951.517	81.81985
951.69	85.06986
951.863	89.2812
952.035	90.31464
952.208	85.27002
952.381	82.60887
952.553	72.5433
952.726	98.26839
952.898	75.58051
953.071	84.07151
953.243	76.54618
953.416	85.30865
953.588	79.58302
953.761	73.22606
953.933	97.34232
954.106	73.99167
954.278	87.95093
954.45	98.11386
954.623	88.65201
954.795	72.88451
954.967	85.73815
955.14	88.10508
955.312	91.62502
955.484	74.205
955.657	75.44733
955.829	82.83144
956.001	80.67995
956.173	79.00161
956.346	72.21286
956.518	71.43805
956.69	97.44054
956.862	95.34698
957.034	74.99921
957.207	84.71764
957.379	92.6567
957.551	86.04185
957.723	80.2529
957.895	83.83424
958.067	87.8347
958.239	89.20288
958.411	93.41957
958.583	101.80219
958.755	96.09877
958.927	90.75026
959.099	88.07355
959.271	95.66933
959.443	85.50584
959.615	84.39896
959.787	103.47634
959.959	89.75434
960.13	90.5316
960.302	92.85196
960.474	92.16874
960.646	90.62113
960.818	96.9907
960.99	105.72775
961.161	97.89524
961.333	95.32523
961.505	87.16434
961.677	79.7965
961.848	76.55636
962.02	97.22226
962.192	73.32875
962.363	98.54542
962.535	97.99264
962.707	96.55446
962.878	92.89009
963.05	104.60673
963.221	94.10029
963.393	90.49172
963.564	96.1957
963.736	90.83594
963.907	107.40207
964.079	97.86848
964.25	101.32604
964.422	101.43139
964.593	99.20438
964.765	91.18578
964.936	94.17108
965.108	104.72902
965.279	102.57747
965.45	104.47493
965.622	95.88625
965.793	104.59241
965.964	103.47752
966.136	114.0962
966.307	94.21579
966.478	111.59995
966.65	94.98913
966.821	123.44281
966.992	120.99695
967.163	103.11317
967.334	109.72385
967.506	78.09632
967.677	106.79691
967.848	108.15119
968.019	115.09326
968.19	115.31321
968.361	112.936
968.532	112.60071
968.703	106.46688
968.874	121.09189
969.045	109.59071
969.216	110.03958
969.387	114.82754
969.558	123.76781
969.729	119.39907
969.9	127.58214
970.071	132.7791
970.242	127.77018
970.413	127.13051
970.584	128.97099
970.755	133.03416
970.926	135.92922
971.097	142.3893
971.267	126.28618
971.438	143.24738
971.609	132.92524
971.78	142.23216
971.951	150.42006
972.121	114.56383
972.292	145.23655
972.463	150.84444
972.633	145.36932
972.804	133.39155
972.975	146.4619
973.145	149.49569
973.316	165.48615
973.487	148.77475
973.657	160.84785
973.828	167.4263
973.998	161.29369
974.169	174.4579
974.339	171.3387
974.51	136.29806
974.68	167.39409
974.851	162.4006
975.021	165.44298
975.192	176.11905
975.362	158.18889
975.533	168.28868
975.703	175.01891
975.874	166.57001
976.044	183.16746
976.214	174.69958
976.385	171.97074
976.555	180.77829
976.725	164.49286
976.896	177.54675
977.066	168.31725
977.236	182.55948
977.406	157.21522
977.577	184.78273
977.747	189.34484
977.917	183.88667
978.087	178.56616
978.257	172.96883
978.427	161.90047
978.598	161.33868
978.768	161.07412
978.938	188.23979
979.108	180.78715
979.278	164.52203
979.448	161.0498
979.618	173.10293
979.788	157.04358
979.958	165.49682
980.128	158.20563
980.298	155.62651
980.468	156.83339
980.638	185.15969
980.808	154.16223
980.978	171.48237
981.148	164.20798
981.317	151.12256
981.487	148.94399
981.657	154.0509
981.827	153.85557
981.997	164.8287
982.167	156.42713
982.336	142.71213
982.506	146.67738
982.676	145.79989
982.846	149.36571
983.015	152.16918
983.185	149.7941
983.355	162.53031
983.524	151.18479
983.694	146.27127
983.864	153.49194
984.033	152.64226
984.203	146.04798
984.372	140.12101
984.542	147.14162
984.712	149.84334
984.881	144.27531
985.051	146.35774
985.22	164.45607
985.39	145.7012
985.559	148.68082
985.728	142.15305
985.898	149.80937
986.067	157.7269
986.237	168.01384
986.406	155.6318
986.576	137.52244
986.745	167.30617
986.914	164.80064
987.084	144.68308
987.253	163.46216
987.422	154.63032
987.591	156.08364
987.761	176.36821
987.93	166.98365
988.099	156.72385
988.268	184.14312
988.438	153.65199
988.607	165.23971
988.776	163.42695
988.945	153.4514
989.114	157.87102
989.283	139.23423
989.452	165.08161
989.621	173.11795
989.791	165.52117
989.96	155.04874
990.129	160.80417
990.298	160.63433
990.467	157.16616
990.636	154.53242
990.805	156.9305
990.974	183.17161
991.142	152.48247
991.311	172.59283
991.48	173.3137
991.649	157.93642
991.818	173.66583
991.987	178.03607
992.156	138.40959
992.325	164.75394
992.493	181.46763
992.662	190.61585
992.831	162.01661
993	150.53589
993.168	168.08579
993.337	164.44551
993.506	158.60844
993.675	166.66928
993.843	174.88519
994.012	169.00411
994.181	163.93463
994.349	173.30782
994.518	177.24976
994.686	172.41514
994.855	177.79942
995.024	182.6838
995.192	169.8253
995.361	172.41059
995.529	179.13123
995.698	154.07419
995.866	167.39094
996.035	149.20032
996.203	185.56481
996.371	164.3562
996.54	161.40012
996.708	173.63505
996.877	158.87966
997.045	165.24221
997.213	158.27272
997.382	148.22152
997.55	159.25344
997.718	167.04958
997.887	182.26082
998.055	168.09658
998.223	164.00891
998.391	152.57825
998.56	165.31918
998.728	155.77804
998.896	155.94637
999.064	161.8074
999.232	173.11142
999.401	170.09268
999.569	142.87118
999.737	158.03163
999.905	158.29364
1000.073	147.68219
1000.241	144.02041
1000.409	140.25041
1000.577	168.10038
1000.745	154.85184
1000.913	166.44666
1001.081	147.80636
1001.249	155.05636
1001.417	142.75338
1001.585	146.4442
1001.753	161.00234
1001.921	147.37212
1002.089	141.78779
1002.256	154.17388
1002.424	131.52125
1002.592	142.43013
1002.76	156.31696
1002.928	142.77655
1003.096	142.51472
1003.263	136.744
1003.431	144.23876
1003.599	145.47408
1003.767	145.03797
1003.934	134.89627
1004.102	129.19771
1004.27	137.63223
1004.437	127.17644
1004.605	135.35672
1004.773	134.78844
1004.94	140.94699
1005.108	138.95743
1005.275	118.36374
1005.443	129.41416
1005.61	140.60426
1005.778	141.14415
1005.945	129.20553
1006.113	137.70981
1006.28	138.23337
1006.448	129.22511
1006.615	140.55746
1006.783	135.56261
1006.95	136.38317
1007.118	149.30913
1007.285	137.12211
1007.452	145.09839
1007.62	115.37
1007.787	137.05119
1007.954	111.21326
1008.122	121.15928
1008.289	115.83949
1008.456	111.70847
1008.623	121.31251
1008.791	128.91182
1008.958	119.27181
1009.125	114.1661
1009.292	114.05117
1009.459	119.72344
1009.627	132.27217
1009.794	113.16024
1009.961	125.18821
1010.128	97.86291
1010.295	118.51645
1010.462	106.58121
1010.629	122.99602
1010.796	118.88827
1010.963	107.8044
1011.13	108.9131
1011.297	114.51529
1011.464	114.16523
1011.631	116.64809
1011.798	120.53228
1011.965	112.47645
1012.132	96.86629
1012.299	130.57312
1012.466	115.72627
1012.633	120.54737
1012.799	106.91773
1012.966	123.55005
1013.133	109.19493
1013.3	115.76669
1013.467	103.69428
1013.633	102.14262
1013.8	103.49956
1013.967	122.91535
1014.134	97.63767
1014.3	101.68757
1014.467	114.08233
1014.634	96.08855
1014.8	108.03763
1014.967	97.1909
1015.134	98.22353
1015.3	97.40985
1015.467	90.07606
1015.633	97.77887
1015.8	101.56793
1015.966	98.34217
1016.133	117.87002
1016.3	99.42702
1016.466	94.65304
1016.632	104.02608
1016.799	88.40963
1016.965	93.30944
1017.132	100.12494
1017.298	91.87185
1017.465	88.09769
1017.631	97.67735
1017.797	100.89534
1017.964	93.63342
1018.13	91.63024
1018.296	94.18644
1018.463	84.29699
1018.629	103.3766
1018.795	101.34796
1018.961	92.31145
1019.128	85.17757
1019.294	94.30549
1019.46	95.23069
1019.626	94.65915
1019.792	97.90902
1019.959	78.79614
1020.125	95.44911
1020.291	91.52183
1020.457	91.56258
1020.623	88.06685
1020.789	86.27545
1020.955	96.33978
1021.121	87.38215
1021.287	86.39786
1021.453	90.75786
1021.619	82.6029
1021.785	92.30935
1021.951	70.41592
1022.117	86.40707
1022.283	79.25245
1022.449	75.89952
1022.615	84.72441
1022.781	85.45521
1022.946	88.60752
1023.112	73.70234
1023.278	79.67463
1023.444	73.67369
1023.61	85.8697
1023.775	80.26695
1023.941	65.94373
1024.107	79.492
1024.273	74.46472
1024.438	82.30699
1024.604	86.64411
1024.77	75.87039
1024.935	67.39261
1025.101	71.33131
1025.267	75.67687
1025.432	73.0053
1025.598	82.96453
1025.763	96.60115
1025.929	77.48089
1026.095	81.81799
1026.26	75.8975
1026.426	85.08087
1026.591	79.58454
1026.757	82.0646
1026.922	71.44757
1027.087	81.26095
1027.253	76.02879
1027.418	81.1846
1027.584	76.67903
1027.749	65.41904
1027.914	69.88048
1028.08	61.15308
1028.245	71.42962
1028.41	66.87966
1028.576	69.2935
1028.741	69.8709
1028.906	68.74986
1029.072	67.55128
1029.237	78.92635
1029.402	65.74327
1029.567	69.97694
1029.732	70.98881
1029.898	71.78552
1030.063	81.6181
1030.228	76.14448
1030.393	81.06306
1030.558	57.35596
1030.723	65.75982
1030.888	70.00387
1031.053	74.3735
1031.218	52.87434
1031.383	83.16561
1031.548	63.8427
1031.713	65.8715
1031.878	67.64284
1032.043	66.09536
1032.208	56.91691
1032.373	73.24168
1032.538	69.64791
1032.703	62.51545
1032.868	68.89352
1033.033	72.15903
1033.198	69.34341
1033.362	56.70091
1033.527	66.54131
1033.692	54.00825
1033.857	61.1617
1034.021	49.65195
1034.186	66.33315
1034.351	46.19422
1034.516	59.16276
1034.68	38.93051
1034.845	58.94343
1035.01	56.24921
1035.174	62.18989
1035.339	59.27287
1035.504	55.5914
1035.668	58.71375
1035.833	62.18942
1035.997	73.92089
1036.162	59.15644
1036.326	38.48574
1036.491	59.3909
1036.655	63.97533
1036.82	68.44732
1036.984	52.22933
1037.149	61.50747
1037.313	46.20657
1037.478	47.76114
1037.642	57.1516
1037.807	70.79254
1037.971	60.8339
1038.135	58.15153
1038.3	63.86633
1038.464	43.62195
1038.628	33.45185
1038.792	50.77059
1038.957	46.41394
1039.121	55.24362
1039.285	60.72245
1039.449	33.12241
1039.614	44.63252
1039.778	49.67489
1039.942	42.393
1040.106	47.10414
1040.27	51.4478
1040.434	45.76448
1040.599	49.89666
1040.763	31.2185
1040.927	51.22087
1041.091	49.67432
1041.255	41.4009
1041.419	43.51072
1041.583	49.20462
1041.747	39.72195
1041.911	51.24142
1042.075	50.67766
1042.239	50.32843
1042.403	74.26183
1042.567	38.59499
1042.731	60.95674
1042.894	35.13723
1043.058	47.4432
1043.222	41.05587
1043.386	44.63695
1043.55	44.63815
1043.714	49.79559
1043.877	49.45859
1044.041	47.43286
1044.205	52.2387
1044.369	44.19641
1044.532	51.57664
1044.696	43.52186
1044.86	46.87848
1045.023	48.3308
1045.187	33.90132
1045.351	51.448
1045.514	40.84973
1045.678	42.39186
1045.841	41.5133
