Data from Subt2__3__22-17-22-120.txt Node

Date: Tue Oct 07 22:17:22 EDT 2025
User: brett
Spectrometer: USB4F03499
Trigger mode: 4
Integration Time (sec): 1.285500E0
Scans to average: 1
Electric dark correction enabled: true
Nonlinearity correction enabled: true
Boxcar width: 0
XAxis mode: Wavelengths
Number of Pixels in Spectrum: 3648
>>>>>Begin Spectral Data<<<<<
345.386	-428.60112
345.605	-428.60112
345.824	-428.60112
346.044	-469.96157
346.263	-441.45725
346.482	-155.56768
346.701	-228.39458
346.92	125.39017
347.139	51.17109
347.358	-157.8911
347.577	207.04207
347.796	149.18094
348.015	311.48687
348.234	-246.46476
348.453	-192.06133
348.672	77.14911
348.891	52.42018
349.11	-56.07305
349.329	276.49642
349.548	98.51175
349.767	512.2672
349.986	508.50278
350.205	76.06111
350.424	35.46972
350.643	73.7733
350.862	51.26792
351.08	572.5606
351.299	266.87347
351.518	201.90486
351.737	264.54527
351.956	275.80398
352.174	527.94761
352.393	467.70473
352.612	-132.94785
352.831	312.58042
353.049	494.54548
353.268	199.44208
353.487	410.45481
353.705	87.42135
353.924	346.60327
354.143	509.66882
354.361	189.31378
354.58	266.73248
354.798	187.45752
355.017	408.56255
355.236	-48.15779
355.454	-138.75119
355.673	393.1726
355.891	723.43069
356.11	-129.53804
356.328	-22.14387
356.547	450.92032
356.765	188.19323
356.984	323.72332
357.202	100.77723
357.42	199.56304
357.639	477.21779
357.857	216.14566
358.076	12.85973
358.294	429.84285
358.512	436.97174
358.731	512.64125
358.949	-105.73297
359.167	609.9848
359.386	1074.55687
359.604	115.40465
359.822	332.71577
360.04	515.47955
360.259	411.81158
360.477	-71.74873
360.695	362.8686
360.913	706.15644
361.131	736.82934
361.35	381.34111
361.568	215.09931
361.786	577.24134
362.004	562.32833
362.222	189.19238
362.44	438.17983
362.658	559.94704
362.876	771.00631
363.094	343.63298
363.312	321.33406
363.53	772.49775
363.749	574.02344
363.967	391.44583
364.184	133.22508
364.402	583.82186
364.62	489.52124
364.838	103.1267
365.056	363.11328
365.274	451.74854
365.492	500.6407
365.71	88.37789
365.928	284.59126
366.146	666.94613
366.364	710.949
366.581	360.08835
366.799	308.89423
367.017	693.57221
367.235	546.71776
367.453	381.60985
367.67	270.88073
367.888	544.15339
368.106	811.54665
368.323	2062.49695
368.541	433.98964
368.759	556.27329
368.977	951.63308
369.194	459.32594
369.412	516.96402
369.629	727.3326
369.847	585.74492
370.065	561.63003
370.282	415.10514
370.5	784.59705
370.717	849.95051
370.935	583.77934
371.152	454.22348
371.37	741.68445
371.588	784.06734
371.805	405.01071
372.022	625.45929
372.24	730.58664
372.457	900.0815
372.675	475.20659
372.892	429.55591
373.11	850.74874
373.327	752.47642
373.544	493.16057
373.762	520.44211
373.979	975.20451
374.196	1041.64473
374.414	606.86567
374.631	748.66975
374.848	993.72949
375.066	799.61085
375.283	507.2253
375.5	524.02995
375.717	1029.91247
375.935	839.80549
376.152	779.20625
376.369	660.61219
376.586	851.0267
376.803	1032.38651
377.02	772.85045
377.238	660.02796
377.455	771.74926
377.672	841.38072
377.889	571.34947
378.106	496.41972
378.323	838.35369
378.54	763.84859
378.757	561.63728
378.974	605.02718
379.191	1182.72178
379.408	875.89181
379.625	676.98437
379.842	627.08626
380.059	815.54302
380.276	925.1567
380.493	550.46926
380.71	796.337
380.927	1017.31465
381.143	1128.2995
381.36	732.92185
381.577	689.14483
381.794	934.90666
382.011	1170.14665
382.228	713.38886
382.444	787.36603
382.661	1036.50785
382.878	1007.61698
383.095	883.69687
383.311	962.16334
383.528	1138.32954
383.745	912.24927
383.962	767.59174
384.178	766.49609
384.395	1011.92415
384.612	1043.54151
384.828	907.09791
385.045	833.56772
385.261	995.0194
385.478	1165.54375
385.695	673.61119
385.911	800.11162
386.128	1115.2162
386.344	1100.03129
386.561	730.5091
386.777	988.77944
386.994	1167.03711
387.21	1554.20607
387.427	804.45385
387.643	714.95005
387.86	1081.49057
388.076	1074.22492
388.292	1000.42734
388.509	772.32637
388.725	1201.10701
388.942	1129.96389
389.158	764.31399
389.374	941.44152
389.591	1048.85716
389.807	1118.94763
390.023	850.80381
390.239	750.74241
390.456	1113.83347
390.672	1154.27028
390.888	839.89493
391.104	1382.61156
391.321	1232.43632
391.537	1227.68229
391.753	889.34124
391.969	1051.15216
392.185	1302.02342
392.401	1331.4409
392.618	1008.60502
392.834	1167.50301
393.05	1344.17701
393.266	1329.19142
393.482	1302.4035
393.698	1058.94089
393.914	1455.93326
394.13	1365.86158
394.346	1205.70316
394.562	1205.17012
394.778	1257.48942
394.994	1479.58681
395.21	1308.3804
395.426	1209.72751
395.642	1441.51031
395.858	1419.24485
396.073	1199.15758
396.289	1330.27483
396.505	1501.62815
396.721	1653.82389
396.937	1291.81477
397.153	1203.26095
397.369	1518.54498
397.584	1578.88095
397.8	1167.30486
398.016	1342.4733
398.232	1792.37217
398.447	1526.07118
398.663	1316.63153
398.879	1084.38491
399.094	1613.58401
399.31	1788.05977
399.526	1441.84351
399.741	1352.65682
399.957	1674.17019
400.173	1481.89464
400.388	1443.06765
400.604	1277.58239
400.82	1679.66311
401.035	1710.39807
401.251	1372.96301
401.466	1377.87894
401.682	1814.39111
401.897	1825.21184
402.113	1612.57983
402.328	1589.72031
402.544	1902.68706
402.759	1954.70597
402.974	1760.99615
403.19	1818.38248
403.405	2245.47424
403.621	2188.50388
403.836	2038.54351
404.051	1949.41328
404.267	2269.92326
404.482	2412.49029
404.697	2116.6845
404.913	1914.5896
405.128	2350.39204
405.343	2333.95628
405.559	1998.18456
405.774	2363.31771
405.989	2606.32778
406.204	2599.27306
406.42	2529.13917
406.635	2372.29952
406.85	2605.86431
407.065	2653.24999
407.28	2396.06662
407.495	2508.58366
407.71	2926.10596
407.926	2787.82887
408.141	2577.11914
408.356	2723.8403
408.571	2906.65048
408.786	2669.51148
409.001	2658.06949
409.216	2684.22666
409.431	2870.25117
409.646	3041.37861
409.861	2758.89291
410.076	2895.41976
410.291	3030.73294
410.506	2980.16335
410.721	2491.62534
410.936	2756.13133
411.15	2811.28775
411.365	3051.65879
411.58	2950.65151
411.795	2758.21936
412.01	3244.82819
412.225	3336.31827
412.439	2817.81263
412.654	2852.03649
412.869	3128.48774
413.084	3112.34234
413.299	2759.86184
413.513	2793.87756
413.728	3018.06323
413.943	3205.36903
414.157	2869.33488
414.372	2957.25352
414.587	3324.94685
414.801	3445.89112
415.016	3020.54537
415.231	3161.99162
415.445	3332.03808
415.66	3241.17782
415.874	3181.18072
416.089	3024.54866
416.304	3532.68495
416.518	3763.54453
416.733	3524.12293
416.947	3172.56994
417.162	3672.86387
417.376	3591.71448
417.59	3417.40365
417.805	3536.72466
418.019	3699.47478
418.234	3481.22569
418.448	3438.25054
418.663	3387.92914
418.877	3574.0821
419.091	3762.23522
419.306	3516.68838
419.52	3588.69936
419.734	3843.27041
419.949	4050.44296
420.163	3620.32552
420.377	3344.25845
420.591	3784.18154
420.806	4069.45291
421.02	3510.85561
421.234	3594.06667
421.448	4063.6264
421.663	3875.68726
421.877	3605.32678
422.091	3421.42497
422.305	4116.64432
422.519	4063.49595
422.733	3875.35694
422.947	3570.51728
423.161	3939.2759
423.376	3853.53535
423.59	3940.44331
423.804	3833.90641
424.018	4067.08948
424.232	3980.2541
424.446	3971.52437
424.66	3852.54098
424.874	3882.59279
425.088	3909.5471
425.302	5058.97609
425.515	4036.89662
425.729	4237.71224
425.943	4182.03709
426.157	3917.50315
426.371	4034.30919
426.585	4213.03667
426.799	4080.46828
427.013	4240.49874
427.226	4158.17642
427.44	4148.63965
427.654	4545.4202
427.868	4498.44943
428.081	4056.10269
428.295	4261.80421
428.509	4357.17141
428.723	4118.80014
428.936	4025.61463
429.15	4187.69068
429.364	4601.15589
429.577	3992.12231
429.791	4062.16658
430.005	4452.84253
430.218	4267.96659
430.432	4146.07292
430.645	3982.16693
430.859	4263.92668
431.073	4269.25669
431.286	4260.64448
431.5	4220.32286
431.713	4266.04995
431.927	4260.61706
432.14	4220.54381
432.354	4030.54576
432.567	4416.54467
432.781	4298.44773
432.994	4212.15777
433.207	4098.90714
433.421	4422.08807
433.634	4587.7546
433.848	4706.40324
434.061	4196.15718
434.274	4354.21036
434.488	4307.06031
434.701	4578.43052
434.914	4220.19854
435.127	4522.79185
435.341	4751.06959
435.554	4258.04524
435.767	4342.71663
435.98	4592.91836
436.194	4458.49019
436.407	4287.2603
436.62	4686.00741
436.833	4782.89986
437.046	4530.28914
437.259	4518.3409
437.473	4817.88075
437.686	4862.58422
437.899	4960.33125
438.112	4859.89903
438.325	4471.33485
438.538	4788.10969
438.751	5177.7736
438.964	4603.73217
439.177	5044.44508
439.39	4942.51924
439.603	5332.10351
439.816	5022.89987
440.029	5092.55821
440.242	5692.2444
440.455	5634.13591
440.668	5328.09608
440.881	5044.9288
441.094	5401.6532
441.306	5519.74965
441.519	5836.73484
441.732	5606.01069
441.945	5843.55935
442.158	5532.71675
442.37	5445.71333
442.583	5764.8997
442.796	5944.45909
443.009	6005.74996
443.222	5822.67998
443.434	5640.08681
443.647	5770.1001
443.86	6321.6641
444.072	6468.08463
444.285	6169.7705
444.498	6570.69814
444.71	6211.33774
444.923	6081.6245
445.136	5937.78297
445.348	6077.21604
445.561	5981.29344
445.773	6160.97483
445.986	5993.80427
446.198	6379.60567
446.411	6274.10061
446.623	6348.87984
446.836	6189.88138
447.048	6436.14792
447.261	6653.08934
447.473	6432.87174
447.686	6347.99499
447.898	6633.75175
448.11	6843.7753
448.323	10052.11286
448.535	6833.52963
448.748	6710.52438
448.96	6677.60285
449.172	6649.4212
449.385	6383.86422
449.597	6917.08354
449.809	6719.40342
450.021	6716.11549
450.234	6954.90951
450.446	6793.60106
450.658	6846.69727
450.87	6406.69131
451.083	6913.99969
451.295	7062.33775
451.507	6819.78056
451.719	6823.76318
451.931	6948.89837
452.143	7093.0516
452.356	6963.89192
452.568	6689.64779
452.78	6917.09686
452.992	7022.81318
453.204	7449.96173
453.416	6879.19001
453.628	6618.43516
453.84	7252.41099
454.052	7270.67989
454.264	7244.69118
454.476	7047.83022
454.688	7495.60434
454.9	7527.73262
455.112	7040.30238
455.324	6847.223
455.536	7377.38058
455.747	7516.18261
455.959	7320.59606
456.171	7248.15148
456.383	7112.63873
456.595	7378.32719
456.807	6932.82403
457.018	6860.5824
457.23	7410.04205
457.442	7200.40076
457.654	7266.16932
457.865	7193.58445
458.077	7543.78546
458.289	7055.38213
458.501	7012.20704
458.712	7327.57534
458.924	7924.99973
459.136	7318.97861
459.347	6978.2806
459.559	7197.77726
459.77	7679.46956
459.982	7570.13094
460.194	7391.46428
460.405	7108.20758
460.617	7732.66233
460.828	7840.24576
461.04	7673.53561
461.251	7182.53804
461.463	8425.1515
461.674	7948.06848
461.886	7636.42526
462.097	7269.22391
462.309	7854.72087
462.52	7645.71936
462.731	8188.0993
462.943	7883.84591
463.154	7669.02154
463.366	7894.5493
463.577	7831.74698
463.788	7920.11102
464	8335.09716
464.211	8358.70988
464.422	8536.2529
464.634	8471.45767
464.845	8543.25607
465.056	8651.1369
465.267	8454.85789
465.478	7874.72372
465.69	8573.03439
465.901	8416.93183
466.112	8401.8699
466.323	8367.79373
466.534	8911.63797
466.745	9159.24365
466.957	8867.21523
467.168	8616.81192
467.379	8875.43069
467.59	8627.96256
467.801	8317.9759
468.012	8546.28382
468.223	9015.78996
468.434	8826.84504
468.645	8938.72233
468.856	9049.53031
469.067	9308.01483
469.278	9368.21864
469.489	9030.48629
469.7	8639.4825
469.911	8950.68224
470.122	9570.72245
470.333	9562.28155
470.543	8849.78441
470.754	9684.13732
470.965	9712.9081
471.176	9616.06326
471.387	9651.5687
471.598	9396.92862
471.808	9368.45685
472.019	9417.53222
472.23	9508.76863
472.441	9673.46595
472.651	10016.24148
472.862	9704.22512
473.073	9902.06996
473.283	10082.69329
473.494	10069.32071
473.705	9564.66688
473.915	10024.38211
474.126	10750.57091
474.337	10129.07168
474.547	10161.33151
474.758	10167.09662
474.968	10740.27964
475.179	10605.07883
475.389	10462.04544
475.6	10223.56384
475.81	11117.37106
476.021	10928.69651
476.231	10963.73503
476.442	10795.03402
476.652	10940.47475
476.863	11082.55944
477.073	10580.15569
477.284	10711.86428
477.494	11293.58618
477.704	11858.16529
477.915	11737.21503
478.125	11416.14355
478.335	11892.47687
478.546	12361.00184
478.756	11650.86068
478.966	11813.14774
479.177	12015.68467
479.387	12499.20876
479.597	12142.59234
479.807	12136.72061
480.018	12375.46997
480.228	12517.45449
480.438	12397.23253
480.648	12462.43268
480.858	13198.8704
481.068	12766.39372
481.279	12921.34932
481.489	13258.10089
481.699	13155.90489
481.909	13063.13741
482.119	13849.12614
482.329	13787.24677
482.539	13979.76965
482.749	13905.67317
482.959	13745.54902
483.169	14223.76685
483.379	14314.93522
483.589	14568.29532
483.799	14059.92234
484.009	13953.4694
484.219	14454.75451
484.429	14966.74794
484.639	14324.13744
484.849	14402.12983
485.059	15012.60678
485.268	15149.96722
485.478	15126.48931
485.688	14997.9488
485.898	15613.3245
486.108	15445.56718
486.317	15910.44985
486.527	15338.23619
486.737	16270.40837
486.947	15865.39573
487.156	16112.33842
487.366	15792.60712
487.576	15793.66766
487.785	15897.07168
487.995	15879.42528
488.205	15914.60724
488.414	15895.2965
488.624	16091.96112
488.834	15824.48186
489.043	15815.67619
489.253	16056.48072
489.462	16368.5256
489.672	16434.81775
489.882	16516.48836
490.091	16648.50258
490.301	16613.78816
490.51	16534.32619
490.72	16737.44921
490.929	17087.23874
491.138	17071.26834
491.348	16696.58493
491.557	16622.2786
491.767	17252.54526
491.976	17016.1406
492.185	16799.45368
492.395	16642.32417
492.604	17470.50077
492.813	17634.78236
493.023	17397.26019
493.232	16982.92965
493.441	17304.86135
493.651	17465.66555
493.86	16891.16524
494.069	17408.21664
494.278	17607.43993
494.488	17566.0624
494.697	17550.17291
494.906	17279.13914
495.115	18034.44411
495.324	17695.98336
495.533	17608.56864
495.743	18063.79546
495.952	18414.80082
496.161	18467.35731
496.37	18551.27369
496.579	18780.57287
496.788	18990.90771
496.997	19219.06412
497.206	18836.82914
497.415	18943.58308
497.624	18860.5045
497.833	19190.84084
498.042	19237.53873
498.251	19657.46262
498.46	19639.9344
498.669	19548.10179
498.878	19253.97891
499.087	19338.50955
499.296	19886.12475
499.504	19930.16019
499.713	19391.01616
499.922	19349.66708
500.131	19932.50128
500.34	19937.83914
500.549	19817.37154
500.757	19572.12102
500.966	19891.26856
501.175	20074.83056
501.384	20173.55308
501.592	19953.82707
501.801	20453.58814
502.01	20268.09164
502.218	20093.40745
502.427	20155.59911
502.636	20329.05433
502.844	20352.44919
503.053	20120.78141
503.262	20067.92373
503.47	20368.12013
503.679	20133.69265
503.887	20323.65195
504.096	20257.6813
504.304	20033.11022
504.513	20633.79636
504.721	20540.63256
504.93	20344.17087
505.138	20724.58392
505.347	20511.52314
505.555	20216.27873
505.764	20164.72388
505.972	20687.40626
506.18	20243.087
506.389	20319.22099
506.597	20398.70967
506.806	20344.42261
507.014	20430.77038
507.222	20319.09503
507.431	20164.67597
507.639	20159.30644
507.847	20450.70672
508.055	20483.99749
508.264	20465.59183
508.472	21028.8123
508.68	20326.01845
508.888	20599.70065
509.096	20406.62874
509.305	20855.94517
509.513	20534.95005
509.721	20373.89306
509.929	20555.80642
510.137	20696.69049
510.345	20738.25387
510.553	20549.28132
510.762	20362.68991
510.97	20971.15489
511.178	20900.03065
511.386	21264.12834
511.594	20796.0028
511.802	21128.92644
512.01	20974.68839
512.218	20922.85127
512.426	20932.85998
512.634	21583.08091
512.842	20967.77019
513.049	21080.76858
513.257	20898.80851
513.465	21564.56575
513.673	21380.43885
513.881	21585.45514
514.089	21265.21429
514.297	21643.04738
514.504	21268.0904
514.712	21674.15376
514.92	21366.21945
515.128	21756.01915
515.336	21651.44014
515.543	21729.41563
515.751	21506.66242
515.959	21818.11105
516.166	21390.50256
516.374	21505.58515
516.582	21522.46022
516.789	21556.93783
516.997	21628.79319
517.205	21765.95629
517.412	21368.20255
517.62	22030.42645
517.827	21857.78775
518.035	21497.68745
518.243	21544.9652
518.45	21794.66239
518.658	21380.32712
518.865	21527.28312
519.073	21083.19882
519.28	21879.07816
519.488	21428.54688
519.695	21263.81511
519.902	20827.17649
520.11	21272.45934
520.317	21378.91523
520.525	21383.57028
520.732	21050.91135
520.939	21395.16764
521.147	20978.9997
521.354	21205.93849
521.561	21120.79118
521.769	21187.76935
521.976	21087.5879
522.183	21040.92843
522.391	20848.52153
522.598	21092.65298
522.805	20866.02977
523.012	21232.14811
523.219	21190.75309
523.427	21334.85948
523.634	21145.06996
523.841	21359.54399
524.048	20958.44119
524.255	21304.94149
524.462	21529.22373
524.669	21196.85589
524.877	21370.22403
525.084	21280.89062
525.291	21115.64493
525.498	21213.35102
525.705	21297.50476
525.912	21556.89582
526.119	21463.6964
526.326	21424.03142
526.533	21430.69983
526.74	21777.19711
526.947	22010.4051
527.153	21794.9484
527.36	21683.32345
527.567	21927.89692
527.774	21912.7674
527.981	21783.21831
528.188	21907.95906
528.395	22075.54555
528.602	22024.78367
528.808	22399.73969
529.015	21878.70789
529.222	22376.55071
529.429	22199.19113
529.635	21996.76381
529.842	22372.28845
530.049	22474.88841
530.256	22405.19664
530.462	22463.12783
530.669	22154.70831
530.876	22595.60026
531.082	22465.75614
531.289	22195.3001
531.495	22382.37169
531.702	22757.27288
531.909	22432.96164
532.115	22811.37284
532.322	22698.79567
532.528	22767.57599
532.735	22556.10907
532.941	22321.01017
533.148	22305.287
533.354	22547.1837
533.561	22659.3666
533.767	22261.43829
533.974	22223.85265
534.18	22557.65692
534.387	22519.09348
534.593	22353.04743
534.799	22253.94995
535.006	22652.98874
535.212	22519.94171
535.418	22453.35278
535.625	22389.88153
535.831	22642.19845
536.037	22682.01748
536.244	22459.28743
536.45	22468.78117
536.656	22804.12382
536.862	22934.87472
537.068	22651.09344
537.275	22682.80357
537.481	23156.28723
537.687	22956.9066
537.893	23225.82488
538.099	23163.60216
538.305	23090.02827
538.512	23264.52013
538.718	22971.46506
538.924	23033.91771
539.13	22951.76383
539.336	22756.30171
539.542	22992.63261
539.748	22995.24329
539.954	23018.81004
540.16	23127.73781
540.366	22694.53019
540.572	22999.51887
540.778	22897.98046
540.984	22968.13486
541.19	22884.31749
541.396	22386.14906
541.602	22771.74711
541.807	22852.17325
542.013	22846.24653
542.219	22480.92848
542.425	22925.97367
542.631	22710.47231
542.837	22761.29782
543.042	22539.00207
543.248	22985.91302
543.454	23007.06001
543.66	22432.97386
543.865	22653.48363
544.071	22942.37477
544.277	22648.4738
544.483	22628.56872
544.688	22485.65908
544.894	22910.07782
545.1	22814.4241
545.305	22796.79287
545.511	22645.0774
545.716	22671.03677
545.922	22451.37201
546.128	22506.57458
546.333	22361.74333
546.539	22746.85259
546.744	22667.87583
546.95	22752.20134
547.155	22379.28081
547.361	22963.55033
547.566	22509.99262
547.772	22856.20183
547.977	22419.51648
548.182	22631.24013
548.388	22380.72848
548.593	22623.69855
548.799	22504.72974
549.004	22763.55494
549.209	22736.28122
549.415	22666.39325
549.62	22439.21493
549.825	22795.0978
550.031	22610.45898
550.236	22307.49153
550.441	22571.21096
550.646	22581.62473
550.852	22872.50398
551.057	22889.11392
551.262	22944.75728
551.467	22837.71216
551.672	22748.04833
551.878	22837.72153
552.083	22676.49592
552.288	22948.16675
552.493	22746.42681
552.698	22752.22259
552.903	22681.76493
553.108	22925.70948
553.313	22964.8341
553.518	22844.51939
553.723	22772.6017
553.928	23241.21594
554.133	23074.44542
554.338	22847.81045
554.543	23008.31749
554.748	23102.67879
554.953	23035.44761
555.158	22804.3682
555.363	22890.29658
555.568	23066.60734
555.773	23292.06348
555.978	23095.46763
556.182	22821.81934
556.387	22916.47265
556.592	23054.26001
556.797	23128.49602
557.002	22927.85112
557.206	23296.08392
557.411	23137.75609
557.616	22996.48739
557.821	23141.19405
558.025	23425.84105
558.23	23210.02155
558.435	23083.14082
558.64	23111.57828
558.844	23288.30428
559.049	23091.79946
559.253	23166.1848
559.458	23009.89223
559.663	23420.84746
559.867	23131.12059
560.072	23246.25981
560.276	22984.45557
560.481	23055.46982
560.685	23208.89162
560.89	22953.8125
561.094	23297.20745
561.299	23321.99842
561.503	22816.3982
561.708	23129.48348
561.912	22778.32905
562.117	23061.74046
562.321	22959.65978
562.525	22960.9719
562.73	22809.05042
562.934	22875.61275
563.139	23054.84419
563.343	22979.19371
563.547	22916.08105
563.752	23060.00191
563.956	23069.40057
564.16	22885.63693
564.364	22582.79412
564.569	23095.16459
564.773	22854.08168
564.977	22887.40564
565.181	22761.7845
565.385	22693.02904
565.59	22813.0578
565.794	22617.77663
565.998	22719.9492
566.202	22755.1
566.406	23007.16892
566.61	22446.23686
566.814	22733.21238
567.018	22921.9767
567.222	22798.46793
567.426	22415.59565
567.63	22496.90248
567.834	22676.84899
568.038	22728.12369
568.242	22326.4688
568.446	22400.68083
568.65	22869.39909
568.854	22932.09808
569.058	22652.08992
569.262	22350.05217
569.466	22828.32268
569.67	22513.74521
569.874	22667.76155
570.078	22574.06398
570.281	22600.51989
570.485	22615.19231
570.689	22696.57424
570.893	22322.31463
571.097	22734.00761
571.3	22447.11194
571.504	22392.87809
571.708	22277.60635
571.912	22307.611
572.115	22393.55898
572.319	22284.69335
572.523	22213.49602
572.726	22623.03028
572.93	22217.80646
573.133	22346.18547
573.337	22297.76598
573.541	22471.45396
573.744	22102.53634
573.948	21880.53657
574.151	21928.90641
574.355	22353.11049
574.558	22122.25352
574.762	22102.58658
574.965	21799.2746
575.169	22236.3859
575.372	22189.03957
575.576	21751.82774
575.779	21915.76118
575.983	22107.43673
576.186	21992.26312
576.389	22010.94002
576.593	21754.67245
576.796	22150.12598
577	21697.56493
577.203	21779.21281
577.406	21683.84634
577.609	21993.99434
577.813	21839.14738
578.016	21736.61758
578.219	21843.30837
578.423	21985.99523
578.626	21788.31412
578.829	21855.88579
579.032	21503.29858
579.235	22010.43103
579.438	21986.10063
579.642	21688.4713
579.845	21533.49038
580.048	21762.7786
580.251	21453.25093
580.454	21750.8933
580.657	21540.17164
580.86	21812.98042
581.063	21473.54259
581.266	21573.97878
581.469	21531.20439
581.672	21736.99876
581.875	21793.75742
582.078	21766.66848
582.281	21346.274
582.484	21739.12089
582.687	22074.36902
582.89	21626.42824
583.093	21457.30029
583.296	21708.48353
583.499	22299.02235
583.702	21403.052
583.904	21363.52024
584.107	21653.2839
584.31	21635.52908
584.513	21584.3365
584.716	21489.9387
584.918	21781.35868
585.121	21695.20182
585.324	21416.35564
585.527	21500.44679
585.729	21707.40594
585.932	21601.43823
586.135	21652.05907
586.337	21554.72136
586.54	21663.6039
586.743	21714.96885
586.945	21495.05173
587.148	21545.28744
587.35	21793.37514
587.553	21274.56077
587.755	21464.07894
587.958	21484.50775
588.161	21645.52706
588.363	21677.49427
588.566	21352.25061
588.768	21491.66926
588.971	21698.3434
589.173	21414.97462
589.375	21410.36219
589.578	21183.08261
589.78	21657.41593
589.983	21365.6548
590.185	21615.34934
590.387	20904.03411
590.59	21540.91789
590.792	21067.31168
590.994	20724.80134
591.197	20698.70678
591.399	20847.76082
591.601	20670.01399
591.803	20538.47611
592.006	20108.19226
592.208	20413.37668
592.41	20549.355
592.612	20267.80882
592.815	20164.74561
593.017	20300.40131
593.219	20168.13083
593.421	19629.66525
593.623	19762.80008
593.825	19999.0879
594.027	19785.03443
594.229	19655.21268
594.432	19195.33254
594.634	19678.95473
594.836	19542.99829
595.038	19301.83962
595.24	19496.70462
595.442	19609.80663
595.644	19146.63036
595.846	18967.00507
596.048	19076.21467
596.249	19038.93645
596.451	18854.6523
596.653	18782.83008
596.855	18676.11936
597.057	18910.6918
597.259	19083.90921
597.461	18640.93167
597.663	18462.14298
597.864	18883.15962
598.066	18451.68846
598.268	18380.18777
598.47	18361.81823
598.671	18495.38743
598.873	18296.54092
599.075	18253.46153
599.277	18527.48646
599.478	18447.92718
599.68	18831.19147
599.882	18564.82504
600.083	18629.41941
600.285	19024.04346
600.487	18691.80588
600.688	18839.58052
600.89	18581.21357
601.091	18978.57057
601.293	18769.09035
601.494	18752.05978
601.696	18623.55497
601.898	19118.62306
602.099	19095.59166
602.301	19117.77165
602.502	18826.04945
602.703	19231.60053
602.905	19086.89846
603.106	19069.10995
603.308	18832.56739
603.509	19167.12424
603.711	18789.32266
603.912	19092.29966
604.113	18936.24964
604.315	19338.50955
604.516	19485.99995
604.717	19137.39723
604.919	19215.58521
605.12	19215.88794
605.321	19433.32604
605.522	19244.95189
605.724	19138.40948
605.925	19402.36972
606.126	19446.67209
606.327	19345.87203
606.528	19385.14714
606.729	19821.57931
606.931	19731.28735
607.132	19583.76881
607.333	19375.18896
607.534	19832.83864
607.735	19737.10612
607.936	19375.04769
608.137	19823.37248
608.338	19717.15687
608.539	19668.38129
608.74	19564.92474
608.941	19595.82616
609.142	19865.44269
609.343	19800.07219
609.544	19579.25019
609.745	19472.77477
609.946	19996.32687
610.147	19604.50896
610.348	19724.73185
610.549	19594.44224
610.75	19914.49758
610.95	19811.95177
611.151	19698.28106
611.352	19461.45086
611.553	20070.52608
611.754	19569.69718
611.954	19865.86111
612.155	19396.28618
612.356	19895.15253
612.557	19900.85005
612.757	19573.35656
612.958	19520.6154
613.159	19799.53949
613.359	19746.54799
613.56	19475.72385
613.761	19552.63921
613.961	19737.63895
614.162	19670.02296
614.362	19616.82427
614.563	19645.4712
614.764	19756.49138
614.964	19482.57717
615.165	19540.8124
615.365	19372.24264
615.566	19860.14576
615.766	19461.62121
615.967	19398.71974
616.167	19149.96036
616.368	19136.02255
616.568	19867.72402
616.768	19190.65813
616.969	19285.48059
617.169	19733.82823
617.37	19009.98676
617.57	19239.0199
617.77	19039.3243
617.971	19200.45142
618.171	19149.85588
618.371	18894.43605
618.571	18858.8435
618.772	19037.23221
618.972	18960.07297
619.172	19088.36592
619.372	18848.59262
619.573	19106.20015
619.773	19022.40853
619.973	18786.2951
620.173	18689.97782
620.373	19123.25311
620.573	18840.05776
620.774	18890.74894
620.974	18674.07993
621.174	18795.34302
621.374	18837.57204
621.574	18861.02576
621.774	18934.25866
621.974	18841.24096
622.174	18646.45336
622.374	18832.37557
622.574	18738.25434
622.774	18760.40296
622.974	18964.47499
623.174	18731.11563
623.374	18723.70967
623.574	19040.45319
623.774	18796.06255
623.973	18993.02478
624.173	18658.00403
624.373	19418.71603
624.573	18928.83239
624.773	18708.01493
624.973	18803.58779
625.172	18926.68219
625.372	18722.04184
625.572	18808.59075
625.772	18602.43949
625.971	18612.44527
626.171	18641.07172
626.371	18654.90844
626.57	18238.27535
626.77	18629.15882
626.97	18746.72669
627.169	18401.12823
627.369	18465.19255
627.569	18847.08257
627.768	18446.76782
627.968	18366.8087
628.167	18213.38017
628.367	18842.63054
628.566	18532.81489
628.766	18471.0236
628.965	18422.40269
629.165	18887.87786
629.364	18355.9544
629.564	18130.93561
629.763	18153.36803
629.963	18411.21256
630.162	18264.21208
630.362	17994.8558
630.561	18348.0457
630.76	18249.07124
630.96	18022.54022
631.159	17941.58594
631.358	17811.78201
631.558	18096.48707
631.757	18067.05294
631.956	17841.16808
632.155	17718.24938
632.355	17840.3951
632.554	17730.66042
632.753	17802.81636
632.952	17515.00749
633.152	17830.31612
633.351	17714.2139
633.55	17698.80152
633.749	17386.15143
633.948	17755.53653
634.147	17454.18964
634.346	17452.38829
634.545	17230.16711
634.744	17552.32885
634.944	17381.06501
635.143	17443.83967
635.342	17449.82468
635.541	17546.78404
635.74	17276.41472
635.939	17348.26569
636.138	17312.3382
636.336	17597.02331
636.535	17406.83057
636.734	17255.44761
636.933	17298.61923
637.132	17558.55221
637.331	17297.96799
637.53	17491.13797
637.729	17047.37552
637.928	17457.61944
638.126	17320.096
638.325	17230.07393
638.524	17243.43501
638.723	17264.60906
638.921	17690.813
639.12	17414.6835
639.319	17180.01613
639.518	17479.59503
639.716	17404.40725
639.915	17138.321
640.114	17250.47893
640.312	17592.38097
640.511	17443.41155
640.71	17520.86515
640.908	17127.57727
641.107	17471.46728
641.305	17414.25907
641.504	17191.81093
641.702	17138.93204
641.901	17651.57615
642.099	17309.03254
642.298	17079.16718
642.496	17300.20007
642.695	17373.39789
642.893	17192.07125
643.092	17232.0303
643.29	17165.47973
643.489	17182.87989
643.687	17094.91778
643.885	17262.71504
644.084	16969.73245
644.282	17236.88512
644.48	17331.94067
644.679	17235.62648
644.877	16945.79516
645.075	17402.10241
645.274	17135.5585
645.472	16904.78859
645.67	17060.31727
645.868	17044.93925
646.067	17038.97574
646.265	16847.45723
646.463	16720.78551
646.661	17014.71871
646.859	17034.57207
647.057	16845.83861
647.256	16671.08413
647.454	16889.2253
647.652	16754.18088
647.85	16825.8918
648.048	16606.07643
648.246	16686.04059
648.444	16332.46874
648.642	16410.07873
648.84	16182.17674
649.038	16404.31037
649.236	16720.42105
649.434	16203.63381
649.632	16113.28361
649.83	16532.10361
650.028	16243.01162
650.226	16059.35776
650.423	16002.54954
650.621	15875.68478
650.819	15950.33627
651.017	15753.44483
651.215	15804.00157
651.413	16017.55595
651.61	15813.85821
651.808	15650.11716
652.006	15500.99807
652.204	15764.06002
652.401	15795.47319
652.599	15584.20009
652.797	15470.62626
652.995	15650.24139
653.192	15248.19142
653.39	15474.10929
653.588	15258.1183
653.785	15504.5813
653.983	15265.03902
654.18	15268.2159
654.378	15159.78233
654.576	15475.5033
654.773	15043.67224
654.971	15340.42553
655.168	14912.56657
655.366	15352.41855
655.563	15177.89911
655.761	14747.185
655.958	14694.73096
656.156	15184.69935
656.353	14811.34033
656.55	14879.99506
656.748	15056.27461
656.945	14825.0039
657.143	14610.77081
657.34	14669.07412
657.537	14624.63997
657.735	14795.07255
657.932	14698.35763
658.129	14220.80294
658.326	14311.75002
658.524	14875.50246
658.721	14488.94303
658.918	14519.61656
659.115	14131.17477
659.313	14631.01762
659.51	14369.58169
659.707	14423.17221
659.904	14091.84123
660.101	14737.4571
660.298	14149.07448
660.496	14344.30025
660.693	14568.62025
660.89	14355.90761
661.087	14325.14524
661.284	14040.17647
661.481	14190.643
661.678	14506.2281
661.875	14534.78936
662.072	14282.69707
662.269	14129.00152
662.466	14379.98454
662.663	14086.14461
662.86	14020.80596
663.057	14212.92125
663.254	14274.98441
663.45	14222.06195
663.647	13980.62361
663.844	14023.95228
664.041	14086.49274
664.238	14152.7507
664.435	13922.3886
664.631	13694.05834
664.828	14261.63487
665.025	14098.22719
665.222	13821.383
665.419	13974.87086
665.615	14295.77451
665.812	14224.49187
666.009	14076.66225
666.205	14143.82902
666.402	14275.14107
666.599	14271.57461
666.795	14148.61396
666.992	14190.40739
667.188	14642.08238
667.385	14569.55816
667.582	14452.3168
667.778	14316.26844
667.975	14766.23884
668.171	14516.50616
668.368	14438.35833
668.564	14658.60306
668.761	14691.47689
668.957	14543.16175
669.154	14595.31173
669.35	14528.16549
669.547	14599.73374
669.743	14543.77834
669.939	14404.04349
670.136	14581.47174
670.332	14531.09257
670.528	14421.90867
670.725	14551.36352
670.921	14527.97485
671.117	14456.2589
671.314	14309.91951
671.51	14188.6751
671.706	14326.12062
671.902	14681.61628
672.099	14441.42735
672.295	14210.33879
672.491	14397.18231
672.687	14297.36637
672.883	14407.2161
673.08	14442.44438
673.276	14395.46272
673.472	14406.32
673.668	14418.22317
673.864	14294.01031
674.06	13917.14885
674.256	14522.87985
674.452	14396.62237
674.648	14024.76236
674.844	13947.95899
675.04	14359.88786
675.236	14155.21379
675.432	14140.53881
675.628	13980.75963
675.824	14350.52999
676.02	14073.16676
676.216	14252.00949
676.412	14115.89502
676.608	14196.74539
676.804	14091.3831
676.999	14177.49339
677.195	13619.08816
677.391	14045.50181
677.587	13937.0161
677.783	13891.08768
677.978	13771.40083
678.174	14261.81732
678.37	14066.85541
678.566	13896.35145
678.761	13749.20304
678.957	14009.53524
679.153	13781.33815
679.348	13819.45074
679.544	13711.70074
679.74	14110.51902
679.935	13937.04531
680.131	13847.67135
680.327	13498.33793
680.522	13692.79297
680.718	13546.07138
680.913	13575.59946
681.109	13560.33649
681.304	13768.09719
681.5	13634.44442
681.695	13711.67516
681.891	13466.45991
682.086	13670.48306
682.282	13795.00322
682.477	18029.86167
682.672	13458.74068
682.868	13589.60061
683.063	13703.45648
683.259	13873.16907
683.454	13714.62606
683.649	13701.55503
683.845	13446.37619
684.04	13395.52712
684.235	13154.42331
684.43	13588.06413
684.626	13517.36517
684.821	13448.12052
685.016	13216.40224
685.211	15425.79936
685.407	13284.02095
685.602	13346.17919
685.797	13178.49976
685.992	13251.96668
686.187	13329.82115
686.382	13268.55407
686.577	12972.40904
686.773	13246.63483
686.968	13045.81681
687.163	13094.98116
687.358	13111.2948
687.553	13317.8772
687.748	13089.87989
687.943	13319.50389
688.138	12874.33279
688.333	13262.07348
688.528	13257.56698
688.723	12711.30014
688.918	12728.30502
689.112	12747.3906
689.307	12671.5269
689.502	12322.87894
689.697	12119.95612
689.892	12668.27031
690.087	12243.25847
690.282	12086.69009
690.476	12098.14573
690.671	12379.66953
690.866	11998.58386
691.061	11999.89463
691.255	11704.894
691.45	12101.31836
691.645	11826.53253
691.84	11782.3983
692.034	11573.3337
692.229	12032.71004
692.424	11591.83444
692.618	11485.41297
692.813	11334.28702
693.007	11669.7357
693.202	11413.58486
693.397	11251.5684
693.591	11149.21065
693.786	11420.61119
693.98	11062.66266
694.175	10962.42871
694.369	10887.72455
694.564	11097.89246
694.758	10968.07749
694.953	10949.09968
695.147	10897.53542
695.342	10904.71936
695.536	10879.32126
695.73	10448.92889
695.925	10191.52492
696.119	10596.97722
696.313	10350.80799
696.508	10131.6055
696.702	10252.75714
696.896	10450.55488
697.091	10402.10063
697.285	10305.39109
697.479	10168.56827
697.673	10364.5251
697.868	10423.26415
698.062	10588.88884
698.256	10050.12504
698.45	10522.01012
698.644	10490.4957
698.839	10386.50871
699.033	10378.08044
699.227	10613.76376
699.421	10422.73131
699.615	10471.04707
699.809	10424.909
700.003	10540.4741
700.197	10453.42454
700.391	10404.99407
700.585	10278.71918
700.779	10776.12153
700.973	10617.83363
701.167	10381.14212
701.361	10346.63186
701.555	10508.92499
701.749	10232.7584
701.943	10263.29521
702.137	10431.93222
702.331	10425.93207
702.525	10454.66087
702.718	10263.01875
702.912	10007.62769
703.106	10651.98646
703.3	10160.29124
703.494	9992.65018
703.687	10067.5242
703.881	10494.95122
704.075	10498.8713
704.269	10228.54486
704.462	10278.79792
704.656	10301.73246
704.85	10248.16106
705.043	10044.90545
705.237	10185.57436
705.431	10389.71914
705.624	10247.29073
705.818	10172.19274
706.012	10178.21295
706.205	10438.82366
706.399	10340.75559
706.592	10324.64397
706.786	10324.47477
706.979	10402.96702
707.173	10172.70996
707.366	10170.39542
707.56	9999.55382
707.753	10090.04569
707.947	10006.39612
708.14	9786.83635
708.333	9699.40087
708.527	10120.80619
708.72	9992.19997
708.914	9862.80884
709.107	9798.97639
709.3	10207.14655
709.494	10103.36774
709.687	9885.44972
709.88	9872.3485
710.073	10085.20146
710.267	10032.31684
710.46	9908.33194
710.653	9801.0758
710.846	10139.16512
711.04	10289.95713
711.233	10031.98268
711.426	9980.68121
711.619	10309.39292
711.812	10336.715
712.005	9933.78659
712.198	9898.04976
712.391	10407.06144
712.585	10279.95163
712.778	10094.35944
712.971	9988.1969
713.164	10275.88979
713.357	10152.54345
713.55	10023.60723
713.743	9934.97645
713.936	10086.39565
714.129	10142.94599
714.322	10091.35471
714.514	9980.53492
714.707	10137.65134
714.9	10070.72374
715.093	9980.26205
715.286	9929.40377
715.479	10359.10017
715.672	10173.74021
715.864	9780.23067
716.057	9976.28585
716.25	10064.39547
716.443	10129.07168
716.636	9976.54919
716.828	9818.44458
717.021	10228.28072
717.214	10152.87458
717.406	10131.39294
717.599	9746.51614
717.792	13171.8946
717.984	9882.81601
718.177	9805.31565
718.37	9698.81856
718.562	9822.0433
718.755	9812.38615
718.947	9497.17473
719.14	9416.75462
719.333	9533.46201
719.525	9477.35622
719.718	9151.9941
719.91	9239.87714
720.103	8982.81166
720.295	8984.62576
720.487	8733.14707
720.68	8571.26275
720.872	8579.55825
721.065	8450.31725
721.257	8323.88313
721.449	8074.52669
721.642	8326.27338
721.834	8099.60416
722.026	7787.46179
722.219	7864.57309
722.411	7731.33948
722.603	7696.13061
722.796	7653.27073
722.988	7577.50735
723.18	7896.61761
723.372	7526.78702
723.565	7218.37336
723.757	7284.46211
723.949	7370.99467
724.141	7137.92758
724.333	7309.36297
724.525	7114.50629
724.717	7029.91799
724.91	7057.47125
725.102	7005.18989
725.294	6610.50262
725.486	6643.60385
725.678	6600.34972
725.87	6328.30203
726.062	6326.17607
726.254	6342.99751
726.446	6379.85259
726.638	6244.71694
726.83	6139.55612
727.022	6215.48073
727.213	6270.46145
727.405	6314.62823
727.597	6154.32971
727.789	6468.47029
727.981	6199.20362
728.173	6241.17315
728.365	5981.3162
728.556	6524.51699
728.748	6273.85993
728.94	6247.91863
729.132	6140.13738
729.324	6330.45088
729.515	6179.71235
729.707	6165.26561
729.899	6315.25849
730.09	6702.96453
730.282	6535.37433
730.474	6482.63189
730.665	6196.15688
730.857	6618.14785
731.049	6433.52985
731.24	6390.37849
731.432	6260.4216
731.623	6392.54104
731.815	6397.39802
732.006	6271.72168
732.198	6118.21022
732.389	6388.62204
732.581	6180.20993
732.772	5961.00672
732.964	5852.28444
733.155	6112.53381
733.347	6120.62987
733.538	5874.27835
733.729	5965.98117
733.921	6208.98438
734.112	6056.96929
734.304	6045.50753
734.495	6056.59841
734.686	6034.14995
734.877	6284.40246
735.069	6189.8644
735.26	6103.34974
735.451	6378.61791
735.643	6345.36116
735.834	6298.06752
736.025	6132.3834
736.216	6529.34115
736.407	6296.19074
736.599	6485.63259
736.79	6260.5469
736.981	6355.14348
737.172	6626.11816
737.363	6478.11753
737.554	6387.86954
737.745	6769.6838
737.936	6434.6261
738.127	6438.03718
738.318	6503.62967
738.509	6734.97891
738.7	6822.35187
738.891	6642.24002
739.082	6571.49324
739.273	6927.23298
739.464	7089.88398
739.655	6766.9175
739.846	6686.66582
740.037	7156.07019
740.228	6905.23991
740.419	7002.37567
740.609	7106.61147
740.8	7195.10497
740.991	7143.21551
741.182	7061.15874
741.373	7100.87849
741.563	7452.48917
741.754	7217.30306
741.945	7231.93856
742.136	7277.61957
742.326	7416.05692
742.517	7387.21092
742.708	7363.52754
742.898	7224.53877
743.089	7499.44135
743.28	7396.31972
743.47	7487.81233
743.661	7155.51626
743.851	7339.14709
744.042	7571.59306
744.233	7387.25753
744.423	7297.36741
744.614	7477.84586
744.804	7554.58122
744.995	7134.8777
745.185	7245.262
745.376	7500.33837
745.566	7448.97303
745.756	7343.01615
745.947	7315.11141
746.137	7473.12535
746.328	7334.86568
746.518	7426.98128
746.708	7230.44591
746.899	7377.17109
747.089	7692.63054
747.279	7070.96874
747.47	7261.84929
747.66	7437.00406
747.85	7452.43917
748.04	7289.94399
748.231	7548.8509
748.421	7540.13999
748.611	7561.65199
748.801	7281.57405
748.991	7334.33128
749.182	7814.31278
749.372	7631.00844
749.562	7431.85736
749.752	7284.93386
749.942	7438.95019
750.132	7532.73928
750.322	7303.44607
750.512	7389.276
750.702	7693.53323
750.892	7476.03206
751.082	7321.54976
751.272	7123.90902
751.462	7608.8141
751.652	7373.59045
751.842	7557.36624
752.032	7057.3416
752.222	7400.38272
752.412	7570.4738
752.602	7390.43068
752.792	7277.01232
752.981	7444.67387
753.171	7298.71539
753.361	7240.53254
753.551	7136.22306
753.741	7450.4154
753.93	7491.62654
754.12	7343.19159
754.31	7144.64741
754.5	7408.2904
754.689	7280.61397
754.879	7209.08639
755.069	7029.77678
755.258	7222.71973
755.448	7195.93936
755.638	7257.90132
755.827	7213.86381
756.017	7294.37349
756.206	7319.4535
756.396	7158.53675
756.586	6799.15468
756.775	7204.91552
756.965	7241.64247
757.154	7179.84072
757.344	6967.51853
757.533	7054.42387
757.723	7347.65718
757.912	6969.94187
758.101	6888.39674
758.291	7210.3933
758.48	7000.24731
758.67	6765.16541
758.859	6748.3776
759.048	7134.35012
759.238	7003.63512
759.427	6827.64058
759.616	6777.19936
759.806	7118.28756
759.995	6990.08969
760.184	6669.46172
760.373	6754.16309
760.563	6843.23139
760.752	6758.16603
760.941	6690.97781
761.13	6540.51141
761.319	6719.5025
761.509	6441.27388
761.698	6280.75591
761.887	6135.16729
762.076	6217.8661
762.265	6060.97482
762.454	6015.68218
762.643	5805.20061
762.832	5815.99564
763.021	5893.03911
763.21	5695.8727
763.399	5484.11006
763.588	5894.83319
763.777	5481.78798
763.966	5284.52494
764.155	5105.14564
764.344	5435.79074
764.533	5052.97062
764.722	4844.51576
764.911	4767.31965
765.1	4899.05695
765.288	4795.80001
765.477	4529.90943
765.666	4287.13085
765.855	4526.04781
766.044	4532.60575
766.232	4186.65284
766.421	3932.88241
766.61	4163.43434
766.799	3936.43239
766.987	3840.22458
767.176	3683.18798
767.365	3929.49444
767.553	3803.78491
767.742	3729.43179
767.931	3548.97742
768.119	3667.64772
768.308	3633.42575
768.497	3341.58532
768.685	3323.1054
768.874	3411.24993
769.062	3179.96271
769.251	3271.32464
769.439	2973.4963
769.628	3382.74193
769.816	3552.80171
770.005	3285.341
770.193	3306.11513
770.382	3527.69864
770.57	3672.37675
770.758	3741.53731
770.947	3689.31006
771.135	4139.40661
771.323	4001.36915
771.512	3995.61027
771.7	3888.08486
771.888	4357.85161
772.077	4116.34726
772.265	4371.41831
772.453	4201.70783
772.642	4589.23735
772.83	4422.13985
773.018	4825.69484
773.206	4518.2226
773.394	4682.84883
773.583	4759.47129
773.771	4776.69181
773.959	5012.54535
774.147	4963.59544
774.335	5023.6872
774.523	5140.51986
774.711	5084.14275
774.899	5182.83791
775.087	5303.60724
775.275	5279.44254
775.463	5068.99329
775.651	5626.66419
775.839	5465.8667
776.027	5406.82458
776.215	5292.63207
776.403	5592.35606
776.591	5530.95122
776.779	5412.5467
776.967	5406.65177
777.155	5479.05427
777.343	5464.6831
777.531	5410.66425
777.718	5513.28482
777.906	5635.35033
778.094	5700.8794
778.282	5515.23525
778.47	5445.30456
778.657	5792.51559
778.845	5589.04289
779.033	5667.55958
779.22	5628.72816
779.408	5657.81059
779.596	5872.14307
779.783	5449.51825
779.971	5510.3743
780.159	5561.73119
780.346	5551.4006
780.534	5405.69507
780.722	5447.5783
780.909	5590.87679
781.097	5517.34382
781.284	5409.8559
781.472	5349.15953
781.659	5655.67391
781.847	5596.34517
782.034	5523.49156
782.222	5408.83293
782.409	5495.09706
782.597	5441.91948
782.784	5413.15523
782.971	6008.48928
783.159	5640.76231
783.346	5425.6347
783.533	5296.01755
783.721	5391.65877
783.908	5445.13591
784.095	5169.46495
784.283	5229.05398
784.47	5270.99098
784.657	5440.06648
784.844	5346.5241
785.032	5248.21952
785.219	5264.55056
785.406	5461.34426
785.593	5356.47354
785.78	5159.12939
785.968	5210.96202
786.155	5298.78468
786.342	5219.58518
786.529	5124.25554
786.716	5182.99912
786.903	5305.59101
787.09	5020.07715
787.277	5040.6458
787.464	5074.00113
787.651	5306.02663
787.838	5155.36791
788.025	5142.60466
788.212	4978.07207
788.399	5151.68997
788.586	5100.63402
788.773	5115.45959
788.96	4890.25084
789.147	5113.06303
789.334	4908.76452
789.521	5037.61607
789.707	4916.92071
789.894	4939.69761
790.081	4790.9453
790.268	4868.34356
790.455	4757.87922
790.641	5433.08255
790.828	4993.71072
791.015	4899.95994
791.202	4754.84684
791.388	4966.42559
791.575	4913.05753
791.762	4735.67451
791.948	4562.8681
792.135	4965.63108
792.322	4725.00036
792.508	4780.98529
792.695	4478.46607
792.881	4628.32154
793.068	4680.82233
793.254	4407.67103
793.441	4566.07401
793.627	4772.06105
793.814	4541.72401
794	4349.41633
794.187	4338.70087
794.373	4621.01662
794.56	4702.58371
794.746	4604.10426
794.933	4419.18059
795.119	4517.58125
795.305	4570.21181
795.492	4301.91826
795.678	4278.38518
795.864	4491.741
796.051	4493.4031
796.237	4248.0631
796.423	4235.85797
796.61	4437.89341
796.796	4277.98223
796.982	4211.34154
797.168	4324.2064
797.355	4554.30937
797.541	4360.45069
797.727	4415.2102
797.913	4164.70933
798.099	4398.43739
798.285	4260.14724
798.471	4486.0987
798.658	4150.98531
798.844	4324.10112
799.03	4331.60854
799.216	4370.53177
799.402	4176.59753
799.588	4435.75961
799.774	4479.55111
799.96	4334.5372
800.146	4439.72263
800.332	4332.24356
800.518	4263.43171
800.704	4295.02524
800.89	4184.50016
801.075	4331.4697
801.261	4232.31237
801.447	4190.45284
801.633	4234.79039
801.819	4359.60223
802.005	4251.7447
802.19	4265.08198
802.376	4236.00455
802.562	4302.68677
802.748	4515.37028
802.934	4543.81193
803.119	4169.91965
803.305	4173.7372
803.491	4308.92776
803.676	4154.22253
803.862	4184.67122
804.048	4329.31885
804.233	4305.16758
804.419	4142.82027
804.605	4114.92603
804.79	4250.5392
804.976	4364.66719
805.161	4060.2229
805.347	3955.6705
805.532	4240.32692
805.718	4120.13067
805.903	4166.78009
806.089	4148.83128
806.274	4268.37101
806.46	4419.8908
806.645	4193.21489
806.831	3909.24645
807.016	4062.46939
807.201	4430.61231
807.387	3989.76366
807.572	4067.844
807.757	4210.00773
807.943	4164.84552
808.128	4077.15707
808.313	4204.06784
808.499	4230.79902
808.684	4235.3973
808.869	4011.22461
809.054	4121.18656
809.24	4110.38888
809.425	4167.20734
809.61	4054.25643
809.795	3920.61769
809.98	4135.64047
810.165	4115.11479
810.35	4342.22242
810.536	3965.48595
810.721	4193.50243
810.906	3892.96413
811.091	4116.85183
811.276	3898.75791
811.461	4069.99664
811.646	4140.26312
811.831	3818.31608
812.016	3904.37697
812.201	4099.43128
812.386	3862.57153
812.571	3782.45573
812.756	3772.67399
812.941	3951.61434
813.125	4184.42384
813.31	3785.00015
813.495	3958.20688
813.68	3917.53073
813.865	3938.97401
814.05	3838.38519
814.234	3635.75993
814.419	3893.93734
814.604	3844.50197
814.789	3865.22886
814.973	3767.67947
815.158	4004.23635
815.343	3760.94057
815.528	3701.01677
815.712	3612.0735
815.897	3590.59804
816.081	3624.76336
816.266	3586.97283
816.451	3446.16977
816.635	3615.6724
816.82	3568.12765
817.004	3351.6736
817.189	3284.12939
817.374	3485.95157
817.558	3503.54106
817.743	3165.40316
817.927	3321.47075
818.111	3413.80902
818.296	3328.55824
818.48	3139.08128
818.665	3118.9336
818.849	3230.38156
819.034	3134.81953
819.218	3062.80619
819.402	2972.67985
819.587	2984.27694
819.771	2996.09377
819.955	3001.88248
820.14	2973.09772
820.324	2838.20503
820.508	2905.38226
820.692	2781.39388
820.877	2674.7577
821.061	2935.51531
821.245	2731.07988
821.429	2622.01653
821.613	2766.85908
821.798	2647.39712
821.982	2731.52623
822.166	2359.76911
822.35	2368.78571
822.534	2467.45664
822.718	2609.72531
822.902	2498.7364
823.086	2476.13174
823.27	2676.54664
823.454	2477.48187
823.638	2355.08731
823.822	2422.23826
824.006	2444.87775
824.19	2534.93564
824.374	2304.03979
824.558	2370.86758
824.742	2379.14175
824.926	2490.17672
825.11	2246.23239
825.294	2289.0078
825.477	2374.54275
825.661	2400.81072
825.845	2254.88854
826.029	2291.10383
826.213	2614.38994
826.396	2444.84196
826.58	2394.48924
826.764	2407.64359
826.948	2403.80613
827.131	2405.49154
827.315	2313.63666
827.499	2213.78812
827.682	2674.21937
827.866	2502.16842
828.05	2389.74471
828.233	2395.64207
828.417	2577.58396
828.6	2778.91437
828.784	2373.37268
828.967	2635.01208
829.151	2779.12123
829.335	2561.49709
829.518	2426.1331
829.701	2510.76696
829.885	2630.4221
830.068	2574.14945
830.252	2351.43299
830.435	2299.2988
830.619	2533.13298
830.802	2496.76184
830.985	2461.46474
831.169	2308.20405
831.352	2504.88916
831.535	2434.43472
831.719	2424.42236
831.902	2399.94133
832.085	2446.88309
832.269	2410.59656
832.452	2342.59641
832.635	2221.97037
832.818	2603.85847
833.002	2522.36781
833.185	2661.87938
833.368	2369.47319
833.551	2519.72697
833.734	2512.36251
833.917	2389.39933
834.1	2338.04303
834.284	2544.42123
834.467	2556.67815
834.65	2334.30746
834.833	2301.48775
835.016	2569.45703
835.199	2526.81355
835.382	2360.61246
835.565	2274.09248
835.748	2511.38318
835.931	2535.09277
836.114	2266.48953
836.297	2455.07928
836.479	2562.69351
836.662	2673.75611
836.845	2426.61675
837.028	2244.15638
837.211	2434.36173
837.394	2534.8739
837.577	2459.99175
837.759	2300.56911
837.942	2641.00375
838.125	2580.49198
838.308	2319.84616
838.49	2204.11698
838.673	6271.25665
838.856	2440.18471
839.039	2443.95533
839.221	2290.90328
839.404	2741.8996
839.587	2639.5286
839.769	2211.1161
839.952	2292.11474
840.134	2468.99406
840.317	2437.24906
840.499	2619.15848
840.682	2464.95727
840.865	2496.94231
841.047	2741.09931
841.23	2434.84519
841.412	2408.17682
841.595	2736.42299
841.777	2664.13617
841.959	2380.34402
842.142	2445.35817
842.324	2619.24527
842.507	2827.71749
842.689	2468.57795
842.871	2413.5729
843.054	2820.39457
843.236	2517.49436
843.418	2486.32922
843.601	2512.7203
843.783	2535.46077
843.965	2574.03483
844.147	2483.95833
844.33	2537.64512
844.512	2689.16548
844.694	2630.37312
844.876	2469.80298
845.059	2455.50165
845.241	2685.06243
845.423	2597.8094
845.605	2508.38479
845.787	2532.45383
845.969	2846.74626
846.151	2705.35061
846.333	2362.0988
846.515	2384.42608
846.697	2533.3646
846.879	2720.40203
847.061	2402.01294
847.243	2444.95261
847.425	2550.28349
847.607	2446.63404
847.789	2318.44374
847.971	2314.48042
848.153	2624.9586
848.335	2679.15982
848.517	2417.75661
848.699	2368.13213
848.881	2552.16156
849.062	2680.44574
849.244	2523.26569
849.426	2232.85205
849.608	2458.31954
849.789	2584.41879
849.971	2635.72403
850.153	2364.46577
850.335	2442.28528
850.516	2655.84713
850.698	2429.33573
850.88	2393.44196
851.061	2834.98157
851.243	2703.21082
851.425	2327.25432
851.606	2264.46642
851.788	2561.6406
851.969	2528.98697
852.151	2289.83387
852.333	2247.01247
852.514	2496.005
852.696	2399.23116
852.877	2320.41249
853.059	2301.55811
853.24	2803.71917
853.422	2680.33026
853.603	2179.13306
853.784	2269.44717
853.966	2534.64576
854.147	2385.33928
854.329	2160.44788
854.51	2428.58254
854.691	2423.58446
854.873	2582.9773
855.054	2251.42196
855.235	2207.02856
855.416	2387.02211
855.598	2295.32463
855.779	2263.88876
855.96	2291.174
856.141	2287.82781
856.323	2320.34938
856.504	2034.4601
856.685	2021.36476
856.866	2318.29634
857.047	2475.22458
857.228	2078.13516
857.409	2124.10473
857.591	2224.07178
857.772	2774.15272
857.953	2134.22133
858.134	1940.83115
858.315	2112.62934
858.496	2281.75303
858.677	2006.39608
858.858	2144.77035
859.039	2150.47968
859.22	2258.38656
859.401	2064.1575
859.582	1860.75464
859.762	2301.62674
859.943	2039.33881
860.124	2051.08866
860.305	2262.18322
860.486	2262.80383
860.667	2206.50543
860.848	2089.11062
861.028	1892.15838
861.209	2003.82641
861.39	2096.4877
861.571	1919.87617
861.751	1946.89184
861.932	2538.09915
862.113	2151.74145
862.293	1870.61772
862.474	2174.56015
862.655	2119.85978
862.835	2171.11869
863.016	2278.33069
863.197	2100.50631
863.377	2128.55705
863.558	1958.01659
863.738	2092.79703
863.919	1936.77246
864.099	2248.47909
864.28	2163.42088
864.46	1915.67112
864.641	1952.14056
864.821	2252.06901
865.002	2143.90669
865.182	1937.9007
865.363	2021.18599
865.543	2103.51841
865.723	2168.12961
865.904	2119.58059
866.084	1874.41759
866.264	2306.37641
866.445	2216.53927
866.625	1944.97792
866.805	1930.0799
866.986	1968.96161
867.166	2223.68986
867.346	1875.84504
867.526	1904.17951
867.707	2035.17553
867.887	2354.18167
868.067	1943.15033
868.247	1862.89363
868.427	2177.94717
868.607	2041.9932
868.788	1907.82844
868.968	1881.21723
869.148	2420.35767
869.328	1935.04864
869.508	1683.88741
869.688	1791.6563
869.868	2038.73462
870.048	2001.75932
870.228	1791.11999
870.408	1867.64786
870.588	2000.81909
870.768	2090.08285
870.948	1728.26842
871.128	1945.21478
871.307	2042.23515
871.487	1964.46767
871.667	1656.18832
871.847	1700.51215
872.027	1985.82876
872.207	2059.73614
872.387	1809.90873
872.566	1615.80723
872.746	1972.23725
872.926	2108.6229
873.106	1653.12087
873.285	1835.79639
873.465	2083.95917
873.645	1915.24222
873.824	1678.89986
874.004	1631.87481
874.184	1729.49215
874.363	1995.30007
874.543	1635.58895
874.723	1510.08948
874.902	1921.85601
875.082	1753.04485
875.261	1805.30598
875.441	1861.17208
875.62	1826.88553
875.8	1840.0654
875.979	1702.98683
876.159	1790.71765
876.338	1996.30592
876.518	1852.62774
876.697	1731.31868
876.876	1706.82526
877.056	1748.98401
877.235	1843.68705
877.415	1609.2253
877.594	1587.51567
877.773	1724.77258
877.953	1763.13901
878.132	1698.86091
878.311	1599.69357
878.49	1759.76401
878.67	1866.30684
878.849	1725.1062
879.028	1524.88933
879.207	1652.20723
879.387	1894.48425
879.566	1610.61937
879.745	1568.8065
879.924	2094.38823
880.103	1843.70925
880.282	1676.04246
880.461	1736.78186
880.64	1774.06851
880.819	1929.78893
880.998	1493.87152
881.178	1618.11733
881.357	1874.48386
881.536	1922.772
881.715	1493.90486
881.893	1500.11854
882.072	1733.01744
882.251	1734.82744
882.43	1501.90994
882.609	1504.34522
882.788	1823.98962
882.967	1730.1718
883.146	1560.03654
883.325	1482.44851
883.503	1557.53517
883.682	1626.47374
883.861	1538.94927
884.04	1477.08548
884.219	1523.98628
884.397	1719.55919
884.576	1576.95217
884.755	1560.18864
884.933	1696.04962
885.112	1566.60792
885.291	1582.66912
885.469	1473.65441
885.648	1607.68151
885.827	1679.08079
886.005	1330.13194
886.184	1595.43849
886.363	1535.33527
886.541	1543.44968
886.72	1415.67164
886.898	1390.37961
887.077	1682.21854
887.255	1655.48733
887.434	1582.35603
887.612	1450.51504
887.791	1542.88732
887.969	1778.72061
888.147	1613.05483
888.326	1482.83409
888.504	1739.72918
888.682	1738.98675
888.861	1458.51811
889.039	1576.09994
889.218	1710.33133
889.396	1737.57304
889.574	1317.40489
889.752	1490.33511
889.931	1753.72041
890.109	1640.05561
890.287	1404.34249
890.465	1306.82914
890.643	1600.59053
890.822	1974.73997
891	1483.41348
891.178	1419.66852
891.356	1589.86823
891.534	1711.72847
891.712	1400.15417
891.89	1476.39788
892.068	1592.22092
892.247	1569.98705
892.425	1442.68431
892.603	1324.6139
892.781	1675.36575
892.959	1569.27158
893.137	1411.72513
893.314	1434.95249
893.492	1476.98685
893.67	1606.57707
893.848	1695.60619
894.026	1455.95298
894.204	1559.5727
894.382	1551.36222
894.56	1329.76759
894.738	1517.74155
894.915	1593.57593
895.093	1626.89658
895.271	1447.00458
895.449	1478.85031
895.626	1644.15597
895.804	1536.13814
895.982	1673.14352
896.16	1451.257
896.337	1544.75546
896.515	1434.10792
896.693	1292.12601
896.87	1287.65144
897.048	1579.48884
897.225	1499.31934
897.403	1203.40818
897.581	1357.94197
897.758	1571.31349
897.936	1527.71953
898.113	1235.2341
898.291	1351.28578
898.468	1592.89701
898.646	1564.44455
898.823	1306.8916
899.001	1240.58184
899.178	1500.34902
899.356	1395.45522
899.533	1199.19849
899.71	1173.61344
899.888	1601.66786
900.065	1328.87913
900.242	1150.18718
900.42	1104.6476
900.597	1311.19097
900.774	1421.40151
900.952	943.23825
901.129	978.18068
901.306	1187.03217
901.483	1280.0571
901.661	1127.78576
901.838	894.89077
902.015	1316.3035
902.192	1380.88316
902.369	880.56131
902.546	947.22354
902.723	1190.62001
902.901	1286.91819
903.078	895.32515
903.255	929.18323
903.432	1171.32253
903.609	1024.36232
903.786	901.34635
903.963	832.64632
904.14	1215.60228
904.317	1058.86743
904.494	704.86437
904.671	881.47199
904.848	867.17235
905.024	935.69548
905.201	772.87811
905.378	762.8244
905.555	1030.28796
905.732	1195.97687
905.909	666.56094
906.086	933.6359
906.262	1034.17719
906.439	997.11301
906.616	877.90081
906.793	1039.71458
906.969	865.95996
907.146	1026.68163
907.323	667.56879
907.5	748.83712
907.676	1124.78572
907.853	975.9914
908.03	687.04724
908.206	896.57926
908.383	1473.05793
908.559	1060.90408
908.736	976.7459
908.912	801.31498
909.089	1267.41293
909.266	1093.41423
909.442	892.75933
909.619	833.59741
909.795	967.39799
909.972	1012.16761
910.148	836.18276
910.324	765.8564
910.501	870.83545
910.677	931.14635
910.854	788.3791
911.03	810.59132
911.206	917.1199
911.383	1046.23821
911.559	753.06088
911.735	903.06307
911.912	1183.28817
912.088	1010.97162
912.264	1077.88295
912.44	1006.9631
912.617	1143.54033
912.793	1065.41814
912.969	745.87782
913.145	918.18431
913.321	1013.71897
913.498	977.59961
913.674	711.21095
913.85	696.48218
914.026	1177.20203
914.202	1057.77553
914.378	680.34681
914.554	806.67691
914.73	1026.16715
914.906	1001.69467
915.082	651.95081
915.258	651.38301
915.434	1049.55741
915.61	1018.05506
915.786	681.89603
915.962	777.86828
916.138	816.03035
916.314	809.48704
916.49	845.3443
916.665	618.21554
916.841	814.1211
917.017	823.34877
917.193	515.14243
917.369	691.53926
917.545	961.38712
917.72	874.53309
917.896	700.86968
918.072	714.38614
918.247	837.13314
918.423	849.57281
918.599	584.0988
918.775	599.60226
918.95	953.19664
919.126	925.99174
919.301	682.35831
919.477	670.92854
919.653	734.16472
919.828	973.56335
920.004	825.28363
920.179	658.52327
920.355	4194.87953
920.53	816.28793
920.706	613.16845
920.881	683.98192
921.057	804.95365
921.232	828.40425
921.408	562.71732
921.583	589.3143
921.759	811.74773
921.934	747.75572
922.109	572.4565
922.285	600.1069
922.46	763.07523
922.635	824.67444
922.811	616.07035
922.986	457.27244
923.161	1054.86596
923.336	768.30804
923.512	515.87412
923.687	692.9699
923.862	879.5259
924.037	947.9822
924.212	924.39983
924.388	690.98636
924.563	771.00631
924.738	871.34265
924.913	625.42076
925.088	681.10678
925.263	820.40113
925.438	809.42919
925.613	763.93056
925.788	514.54419
925.963	904.01905
926.138	719.5247
926.313	639.04036
926.488	662.69525
926.663	983.75661
926.838	914.38391
927.013	563.10835
927.188	532.25138
927.363	917.27985
927.538	1002.11369
927.713	655.38773
927.888	523.92203
928.062	1090.93157
928.237	936.42909
928.412	625.12438
928.587	592.57019
928.761	1023.4119
928.936	791.14431
929.111	685.99256
929.286	782.19095
929.46	722.13239
929.635	869.07117
929.81	437.52084
929.984	641.24088
930.159	837.28126
930.334	839.30367
930.508	692.64352
930.683	547.82727
930.857	802.51153
931.032	770.57122
931.206	513.82555
931.381	515.94953
931.556	802.99909
931.73	819.38171
931.904	548.79546
932.079	407.71818
932.253	859.88669
932.428	625.21124
932.602	661.51823
932.777	367.9926
932.951	713.8496
933.125	822.79396
933.3	667.76126
933.474	507.89813
933.648	600.84093
933.823	630.28943
933.997	574.69743
934.171	557.15767
934.345	595.34741
934.52	527.22744
934.694	412.81768
934.868	339.66777
935.042	479.1957
935.217	513.45245
935.391	328.73266
935.565	307.97386
935.739	557.70865
935.913	625.82142
936.087	626.94978
936.261	131.22561
936.435	670.90439
936.609	500.65909
936.783	116.36903
936.957	-26.58313
937.131	515.62959
937.305	543.54258
937.479	265.88524
937.653	166.93287
937.827	492.8882
938.001	154.84077
938.175	81.60627
938.349	122.12813
938.523	490.0089
938.697	254.38804
938.87	24.16463
939.044	-39.08144
939.218	439.12978
939.392	569.95274
939.566	-40.23906
939.739	-202.13075
939.913	235.6932
940.087	57.94244
940.261	-82.05296
940.434	-35.68358
940.608	423.93001
940.782	506.18999
940.955	34.28963
941.129	-96.76615
941.302	359.14765
941.476	33.18212
941.65	88.43917
941.823	-71.88014
941.997	418.45971
942.17	177.07271
942.344	23.04927
942.517	212.55612
942.691	419.75967
942.864	113.21192
943.038	-108.03906
943.211	29.81946
943.385	279.0021
943.558	358.04662
943.731	-38.86589
943.905	28.64691
944.078	66.91165
944.251	310.36981
944.425	76.09057
944.598	-66.1721
944.771	98.56482
944.945	97.36053
945.118	-105.70413
945.291	63.52471
945.464	242.22534
945.638	230.00869
945.811	306.07388
945.984	165.7233
946.157	139.91174
946.33	162.40295
946.503	-106.93594
946.677	-2.91717
946.85	468.55672
947.023	306.8228
947.196	-144.3965
947.369	-169.43671
947.542	170.43359
947.715	94.90456
947.888	190.4127
948.061	-137.41679
948.234	125.352
948.407	265.60395
948.58	65.92109
948.753	51.13389
948.926	575.46422
949.099	207.43312
949.271	215.33564
949.444	90.5521
949.617	281.37559
949.79	259.29465
949.963	255.69027
950.136	-113.63518
950.308	361.45674
950.481	110.97416
950.654	271.23684
950.827	-168.32731
950.999	448.23377
951.172	244.21597
951.345	257.8415
951.517	100.65767
951.69	181.90544
951.863	466.17917
952.035	174.76326
952.208	-156.66466
952.381	292.81168
952.553	281.29079
952.726	237.59253
952.898	-172.84523
953.071	251.8569
953.243	457.27244
953.416	-99.22679
953.588	143.15818
953.761	242.33565
953.933	12.87357
954.106	207.40164
954.278	-191.57911
954.45	557.56541
954.623	148.79562
954.795	-154.67735
954.967	17.40827
955.14	34.32407
955.312	441.66079
955.484	170.5117
955.657	42.23068
955.829	296.98426
956.001	590.27097
956.173	-114.86596
956.346	237.78145
956.518	223.37642
956.69	248.17333
956.862	-44.70997
957.034	100.69612
957.207	-7.42202
957.379	332.54158
957.551	33.20011
957.723	228.43816
957.895	114.33275
958.067	209.58744
958.239	164.73337
958.411	-151.19326
958.583	665.33702
958.755	458.31622
958.927	-2.91683
959.099	191.55475
959.271	-0.65757
959.443	59.22391
959.615	-13.07794
959.787	393.46854
959.959	-33.40441
960.13	201.75918
960.302	271.4316
960.474	-54.85322
960.646	343.92837
960.818	408.79093
960.99	16.25547
961.161	-95.73138
961.333	303.51853
961.505	439.84404
961.677	451.15129
961.848	122.10943
962.02	306.10851
962.192	109.89957
962.363	173.64204
962.535	164.48419
962.707	28.69566
962.878	355.08705
963.05	327.04794
963.221	154.68681
963.393	352.38257
963.564	377.88932
963.736	273.40162
963.907	134.59433
964.079	388.35101
964.25	419.52604
964.422	71.30218
964.593	208.75259
964.765	356.1095
964.936	439.50207
965.108	195.21959
965.279	131.11991
965.45	517.05846
965.622	252.19794
965.793	-50.42554
965.964	331.53735
966.136	259.0095
966.307	12.90814
966.478	402.56055
966.65	105.35848
966.821	399.13372
966.992	494.45399
967.163	134.43461
967.334	152.52866
967.506	234.37609
967.677	331.6243
967.848	-104.68292
968.019	223.17246
968.19	177.50003
968.361	110.9656
968.532	99.62912
968.703	153.52892
968.874	382.11596
969.045	701.56996
969.216	-74.17601
969.387	230.14022
969.558	167.04083
969.729	379.19872
969.9	106.35742
970.071	155.79765
970.242	345.36863
970.413	431.79687
970.584	158.04281
970.755	202.93377
970.926	371.73427
971.097	350.19288
971.267	329.14499
971.438	45.62816
971.609	431.46215
971.78	191.33842
971.951	230.19298
972.121	224.29301
972.292	396.73285
972.463	401.10761
972.633	181.6275
972.804	339.46377
972.975	361.91578
973.145	254.37846
973.316	272.51988
973.487	81.63451
973.657	409.6762
973.828	449.7913
973.998	189.46453
974.169	145.74805
974.339	446.30538
974.51	512.84786
974.68	533.55168
974.851	164.81495
975.021	273.32969
975.192	264.47545
975.362	158.00669
975.533	173.92669
975.703	495.41874
975.874	373.25762
976.044	201.92793
976.214	160.40414
976.385	644.35607
976.555	381.80877
976.725	199.67693
976.896	270.03698
977.066	360.9218
977.236	494.0893
977.406	358.51437
977.577	176.17269
977.747	561.22126
977.917	387.05024
978.087	358.08654
978.257	93.986
978.427	513.73155
978.598	414.59944
978.768	177.05927
978.938	245.706
979.108	319.06625
979.278	233.9524
979.448	223.89552
979.618	191.74369
979.788	502.04609
979.958	485.07972
980.128	197.15646
980.298	225.36224
980.468	348.6015
980.638	214.95357
980.808	309.32244
980.978	107.42841
981.148	548.6947
981.317	481.7659
981.487	186.17097
981.657	278.38915
981.827	379.56537
981.997	205.37884
982.167	144.53077
982.336	163.91199
982.506	402.9937
982.676	442.69092
982.846	295.34678
983.015	312.33484
983.185	276.78697
983.355	436.79518
983.524	189.34959
983.694	97.44292
983.864	435.00547
984.033	314.03997
984.203	55.76597
984.372	67.00164
984.542	336.79089
984.712	467.22142
984.881	164.68331
985.051	257.60853
985.22	423.02122
985.39	292.71198
985.559	238.72991
985.728	329.24337
985.898	412.83298
986.067	350.4799
986.237	207.50408
986.406	259.97171
986.576	523.42846
986.745	234.67063
986.914	209.82644
987.084	213.14238
987.253	484.29046
987.422	486.29752
987.591	277.82148
987.761	151.39938
987.93	452.33488
988.099	534.49091
988.268	649.4346
988.438	346.81054
988.607	472.48538
988.776	373.60257
988.945	295.85546
989.114	100.71925
989.283	355.19345
989.452	408.97985
989.621	334.49884
989.791	61.2657
989.96	349.62612
990.129	519.12455
990.298	204.00056
990.467	-15.33363
990.636	390.85533
990.805	362.82794
990.974	99.64442
991.142	186.29184
991.311	656.67032
991.48	446.90665
991.649	129.91169
991.818	186.18516
991.987	489.79172
992.156	456.54914
992.325	279.04409
992.493	237.60151
992.662	3776.15583
992.831	623.47449
993	255.19045
993.168	-1.78722
993.337	404.48473
993.506	419.57269
993.675	32.0325
993.843	192.70432
994.012	361.80738
994.181	497.15131
994.349	168.28518
994.518	104.23668
994.686	305.6834
994.855	588.46131
995.024	110.85484
995.192	101.93369
995.361	557.21868
995.529	488.48278
995.698	127.80711
995.866	173.68815
996.035	586.5285
996.203	397.60172
996.371	254.30185
996.54	232.268
996.708	438.42411
996.877	370.67476
997.045	130.14599
997.213	125.65485
997.382	459.00586
997.55	486.72971
997.718	283.94419
997.887	30.94047
998.055	365.22564
998.223	219.86068
998.391	218.72309
998.56	42.17851
998.728	772.60186
998.896	264.37595
999.064	19.63546
999.232	172.06741
999.401	500.92661
999.569	370.64709
999.737	78.2692
999.905	78.24209
1000.073	279.12822
1000.241	515.14243
1000.409	176.09863
1000.577	387.1795
1000.745	450.09206
1000.913	490.06331
1001.081	72.56599
1001.249	179.30888
1001.417	371.2788
1001.585	364.35244
1001.753	251.18327
1001.921	81.66597
1002.089	265.72424
1002.256	489.32359
1002.424	122.14218
1002.592	118.88803
1002.76	409.37236
1002.928	527.63634
1003.096	-124.10749
1003.263	-81.97294
1003.431	457.72931
1003.599	274.86202
1003.767	47.79556
1003.934	-80.8798
1004.102	580.56368
1004.27	302.49244
1004.437	117.49205
1004.605	-28.92045
1004.773	336.55362
1004.94	640.21497
1005.108	124.40494
1005.275	-31.16671
1005.443	512.26596
1005.61	358.51437
1005.778	114.41217
1005.945	-2.91729
1006.113	437.74844
1006.28	230.93669
1006.448	9.49826
1006.615	16.26111
1006.783	422.72361
1006.95	209.69873
1007.118	6.1112
1007.285	-211.41995
1007.452	619.72759
1007.62	283.39899
1007.787	154.63377
1007.954	-31.196
1008.122	363.05434
1008.289	298.63846
1008.456	14.01391
1008.623	-17.60366
1008.791	397.18762
1008.958	459.47813
1009.125	-190.98548
1009.292	-80.89243
1009.459	323.37305
1009.627	257.00476
1009.794	-151.07437
1009.961	24.12928
1010.128	469.18244
1010.295	356.94548
1010.462	132.41657
1010.629	-110.31697
1010.796	366.35132
1010.963	208.71277
1011.13	-188.59276
1011.297	198.27668
1011.464	134.59433
1011.631	497.92819
1011.798	-18.67232
1011.965	63.59294
1012.132	350.53227
1012.299	390.53531
1012.466	9.48872
1012.633	-111.49772
1012.799	373.53501
1012.966	401.34404
1013.133	-60.64428
1013.3	-247.56323
1013.467	444.97954
1013.633	548.33312
1013.8	43.34506
1013.967	170.59006
1014.134	432.30359
1014.3	272.33477
1014.467	-94.5011
1014.634	100.74628
1014.8	521.95266
1014.967	267.47944
1015.134	-48.09571
1015.3	-221.65792
1015.467	500.47543
1015.633	256.8487
1015.8	135.59922
1015.966	28.74838
1016.133	504.95054
1016.3	356.68092
1016.466	-285.52536
1016.632	172.4229
1016.799	197.29835
1016.965	255.79692
1017.132	175.82453
1017.298	-86.56468
1017.465	289.12707
1017.631	337.65525
1017.797	-39.02675
1017.964	11.74031
1018.13	193.73703
1018.296	411.61319
1018.463	-93.36865
1018.629	52.31688
1018.795	362.78731
1018.961	333.79456
1019.128	21.88773
1019.294	102.96813
1019.46	309.24109
1019.626	48.92331
1019.792	-169.39647
1019.959	-39.01166
1020.125	21.88773
1020.291	201.74388
1020.457	-34.54904
1020.623	154.622
1020.789	116.50242
1020.955	253.26923
1021.121	-0.65846
1021.287	189.13544
1021.453	326.11507
1021.619	298.0011
1021.785	142.38305
1021.951	42.252
1022.117	273.64929
1022.283	68.03129
1022.449	149.06687
1022.615	50.10899
1022.781	654.8823
1022.946	206.08594
1023.112	79.3342
1023.278	-4.04038
1023.444	220.84748
1023.61	407.20692
1023.775	-270.30162
1023.941	-117.09997
1024.107	109.92083
1024.273	14.00848
1024.438	-267.36579
1024.604	2.72449
1024.77	2835.19066
1024.935	68.06254
1025.101	-11.95473
1025.267	126.5373
1025.432	240.95955
1025.598	390.20835
1025.763	17.39814
1025.929	-204.72684
1026.095	260.83549
1026.26	417.65708
1026.426	-212.7011
1026.591	70.38598
1026.757	413.70107
1026.922	552.44371
1027.087	0.47041
1027.253	-23.24058
1027.418	372.84908
1027.584	216.13752
1027.749	-284.39608
1027.914	114.12286
1028.08	122.18437
1028.245	38.85298
1028.41	-263.67118
1028.576	-163.88026
1028.741	505.02461
1028.906	243.0698
1029.072	-8.56648
1029.237	-277.30898
1029.402	175.95116
1029.567	250.50542
1029.732	-114.99254
1029.898	-73.04355
1030.063	317.96215
1030.228	-37.95656
1030.393	87.29283
1030.558	-130.67112
1030.723	350.49299
1030.888	23.0439
1031.053	-238.99662
1031.218	-162.74354
1031.383	136.57693
1031.548	174.75002
1031.713	-272.13508
1031.878	-78.62006
1032.043	43.32832
1032.208	294.24193
1032.373	-204.74315
1032.538	10.60896
1032.703	290.14672
1032.868	27.50346
1033.033	-208.02464
1033.198	-306.33673
1033.362	130.1109
1033.527	462.1101
1033.692	-135.17745
1033.857	-253.54348
1034.021	254.6093
1034.186	463.49736
1034.351	25.28072
1034.516	-75.28193
1034.68	143.39161
1034.845	-5.17362
1035.01	-345.34225
1035.174	-65.10229
1035.339	62.40945
1035.504	82.76977
1035.668	264.39583
1035.833	-303.60005
1035.997	36.61939
1036.162	343.78686
1036.326	-391.56218
1036.491	-305.25578
1036.655	362.84149
1036.82	-19.83445
1036.984	-192.87085
1037.149	51.1378
1037.313	110.82092
1037.478	278.89731
1037.642	54.52926
1037.807	-350.55136
1037.971	158.06691
1038.135	55.6715
1038.3	-92.19295
1038.464	179.34975
1038.628	234.32282
1038.792	55.68432
1038.957	-262.75229
1039.121	-270.15183
1039.285	435.1986
1039.449	8.36377
1039.614	-238.5589
1039.778	-318.74089
1039.942	211.56472
1040.106	109.70955
1040.27	-162.69183
1040.434	-278.32655
1040.599	91.80668
1040.763	15.13815
1040.927	-270.4735
1041.091	90.76148
1041.255	106.43914
1041.419	219.7772
1041.583	-10.80816
1041.747	-201.0981
1041.911	82.73794
1042.075	229.68656
1042.239	-345.90948
1042.403	-266.49725
1042.567	394.77052
1042.731	238.1402
1042.894	-286.71205
1043.058	-271.46154
1043.222	23.04927
1043.386	198.32916
1043.55	-1.78687
1043.714	-318.61266
1043.877	55.75302
1044.041	362.9093
1044.205	-160.17235
1044.369	-201.2576
1044.532	28.6812
1044.696	37.63046
1044.86	-314.12071
1045.023	-130.54872
1045.187	176.93191
1045.351	333.68223
1045.514	-320.11596
1045.678	141.03363
1045.841	315.42445
