Data from Subt1__0__18-43-26-501.txt Node

Date: Tue Oct 07 18:43:26 EDT 2025
User: brett
Spectrometer: USB4F03499
Trigger mode: 4
Integration Time (sec): 1.230000E-3
Scans to average: 1
Electric dark correction enabled: true
Nonlinearity correction enabled: true
Boxcar width: 0
XAxis mode: Wavelengths
Number of Pixels in Spectrum: 3648
>>>>>Begin Spectral Data<<<<<
345.386	-44.46132
345.605	-44.46132
345.824	-44.46132
346.044	22.09179
346.263	-19.65329
346.482	17.58486
346.701	-0.47017
346.92	27.74351
347.139	-39.97413
347.358	-7.24082
347.577	-8.37105
347.796	7.43048
348.015	-1.59828
348.234	44.65881
348.453	-24.14923
348.672	23.21853
348.891	-38.85072
349.11	-10.62923
349.329	6.29681
349.548	-17.38972
349.767	-0.47046
349.986	-47.87584
350.205	-17.40657
350.424	-10.62512
350.643	38.99736
350.862	-8.36328
351.08	4.04217
351.299	-21.91437
351.518	14.1883
351.737	-47.8499
351.956	-2.72506
352.174	5.16992
352.393	-67.02621
352.612	1.78532
352.831	-9.4966
353.049	15.31732
353.268	1.78732
353.487	-0.46962
353.705	-23.01854
353.924	-15.13961
354.143	41.26218
354.361	-2.72643
354.58	0.65819
354.798	-45.599
355.017	47.99627
355.236	33.37141
355.454	-27.54636
355.673	23.23021
355.891	38.96886
356.11	46.90801
356.328	-8.37008
356.547	-1.59767
356.765	-6.11156
356.984	29.97512
357.202	-20.76846
357.42	-43.31078
357.639	-24.15016
357.857	9.68297
358.076	-6.11156
358.294	27.71353
358.512	4.04311
358.731	16.45165
358.949	24.34891
359.167	-0.46971
359.386	-28.65518
359.604	-9.48927
359.822	33.35982
360.04	11.94382
360.259	77.32513
360.477	6.29753
360.695	35.61926
360.913	-15.12384
361.131	-8.36457
361.35	51.43612
361.568	15.31555
361.786	-30.91955
362.004	19.81726
362.222	20.96086
362.44	-12.86886
362.658	-27.53572
362.876	37.86753
363.094	16.44656
363.312	-18.51878
363.53	-17.39174
363.749	24.35079
363.967	26.59286
364.184	24.34421
364.402	5.16713
364.62	43.50958
364.838	43.47444
365.056	-50.13908
365.274	52.49666
365.492	-10.61528
365.71	-42.16635
365.928	41.27175
366.146	67.12503
366.364	5.16593
366.581	-14.00767
366.799	-6.10849
367.017	9.68072
367.235	24.34797
367.453	41.26218
367.67	32.21418
367.888	-38.81615
368.106	64.86939
368.323	24.31146
368.541	22.08411
368.759	11.92815
368.977	26.57241
369.194	66.03013
369.412	70.51964
369.629	61.50276
369.847	9.66882
370.065	19.81574
370.282	53.65766
370.5	45.73852
370.717	72.77607
370.935	37.81814
371.152	56.94988
371.37	96.43091
371.588	90.85474
371.805	50.18895
372.022	56.99349
372.24	77.29538
372.457	31.08895
372.675	98.62397
372.892	109.87625
373.11	75.02691
373.327	96.43091
373.544	60.36789
373.762	46.81799
373.979	53.61228
374.196	59.20161
374.414	108.90688
374.631	63.79799
374.848	99.71766
375.066	55.91083
375.283	86.26531
375.5	60.35401
375.717	67.08908
375.935	129.20381
376.152	143.77699
376.369	102.0784
376.586	33.29468
376.803	73.87601
377.02	53.58764
377.238	70.49801
377.455	38.98384
377.672	41.20669
377.889	67.16371
378.106	120.00323
378.323	111.11076
378.54	72.70646
378.757	74.96947
378.974	73.85339
379.191	156.17038
379.408	90.74672
379.625	59.17678
379.842	79.4976
380.059	133.42781
380.276	86.2521
380.493	87.41016
380.71	78.34883
380.927	63.7661
381.143	125.70737
381.36	115.43351
381.577	137.99167
381.794	68.18513
382.011	130.05965
382.228	139.04586
382.444	152.6114
382.661	123.39749
382.878	165.93579
383.095	150.40035
383.311	145.80776
383.528	150.48091
383.745	128.91723
383.962	87.3333
384.178	145.84663
384.395	141.29076
384.612	140.163
384.828	114.3409
385.045	149.25449
385.261	142.48365
385.478	149.22604
385.695	160.43261
385.911	177.31411
386.128	154.78011
386.344	85.06249
386.561	150.32009
386.777	134.51977
386.994	108.73573
387.21	112.06835
387.427	107.58322
387.643	76.08525
387.86	147.04228
388.076	97.49604
388.292	195.34763
388.509	126.72007
388.725	191.92392
388.942	132.44155
389.158	144.6963
389.374	175.05032
389.591	113.14854
389.807	140.18433
390.023	155.76634
390.239	139.02472
390.456	164.84576
390.672	147.00859
390.888	185.08177
391.104	187.18928
391.321	191.64082
391.537	185.0117
391.753	177.0524
391.969	208.63865
392.185	246.85466
392.401	268.19002
392.618	230.95832
392.834	219.69056
393.05	301.33662
393.266	229.74406
393.482	268.93425
393.698	248.86833
393.914	302.97601
394.13	230.88879
394.346	249.04664
394.562	212.80689
394.778	251.19034
394.994	247.5732
395.21	262.26774
395.426	241.05595
395.642	293.50994
395.858	294.93609
396.073	278.89643
396.289	308.32272
396.505	313.73163
396.721	275.54587
396.937	288.99988
397.153	314.89508
397.369	286.71298
397.584	362.02152
397.8	297.07098
398.016	267.9273
398.232	353.93364
398.447	368.34335
398.663	340.60137
398.879	349.39511
399.094	439.46177
399.31	366.23737
399.526	323.86189
399.741	389.30538
399.957	381.58432
400.173	358.20685
400.388	455.75893
400.604	380.37234
400.82	442.55201
401.035	504.91523
401.251	560.76993
401.466	423.89744
401.682	579.79071
401.897	582.7313
402.113	635.8649
402.328	654.90774
402.544	705.61975
402.759	741.35375
402.974	762.79686
403.19	772.95342
403.405	831.65028
403.621	928.48662
403.836	949.06329
404.051	1032.35811
404.267	1131.23865
404.482	1033.46379
404.697	974.809
404.913	1045.10942
405.128	1310.8866
405.343	1014.82504
405.559	1246.087
405.774	1233.61995
405.989	1410.9255
406.204	1343.6379
406.42	1342.3745
406.635	1369.55325
406.85	1325.50256
407.065	1428.07604
407.28	1519.88166
407.495	1499.67722
407.71	1471.13606
407.926	1402.64934
408.141	1633.1993
408.356	1602.58781
408.571	1613.75759
408.786	1439.65939
409.001	1602.48373
409.216	1691.82699
409.431	1650.56977
409.646	1637.12689
409.861	1636.10517
410.076	1567.55064
410.291	1646.48733
410.506	1669.35673
410.721	1551.64828
410.936	1666.09576
411.15	1520.92068
411.365	1656.58468
411.58	1783.861
411.795	1651.26316
412.01	1795.1851
412.225	1646.48733
412.439	1693.06616
412.654	1837.16691
412.869	1681.99522
413.084	1693.82197
413.299	1804.56801
413.513	1551.26243
413.728	1803.63657
413.943	1787.38639
414.157	1897.42545
414.372	1854.40895
414.587	1907.04902
414.801	1991.73656
415.016	1994.85654
415.231	2021.0477
415.445	1894.76636
415.66	1995.68639
415.874	2086.33505
416.089	1988.91294
416.304	2214.42233
416.518	2102.11632
416.733	2157.43779
416.947	2023.89229
417.162	2020.60902
417.376	2152.19822
417.59	2280.84102
417.805	2249.15846
418.019	2203.8973
418.234	2180.8542
418.448	2113.41748
418.663	2150.00247
418.877	2196.83879
419.091	2350.43182
419.306	2152.86478
419.52	2173.09031
419.734	2189.59972
419.949	2361.05376
420.163	2322.08759
420.377	2267.84749
420.591	2350.4892
420.806	2338.51206
421.02	2243.84079
421.234	2371.67553
421.448	2416.9668
421.663	2313.22693
421.877	2332.02041
422.091	2273.0511
422.305	2299.7909
422.519	2272.54373
422.733	2543.54541
422.947	2383.80432
423.161	2359.38053
423.376	2385.16271
423.59	2472.38958
423.804	2430.72085
424.018	2484.23337
424.232	2419.98904
424.446	2601.34217
424.66	2625.08564
424.874	2486.87957
425.088	2350.77582
425.302	2464.12266
425.515	2513.94286
425.729	2655.84094
425.943	2567.22746
426.157	2557.23058
426.371	2556.33089
426.585	2599.98628
426.799	2602.62232
427.013	2904.95769
427.226	2904.52423
427.44	2621.13563
427.654	2509.02763
427.868	2588.20095
428.081	2635.00868
428.295	2698.07436
428.509	2582.25836
428.723	2527.09278
428.936	2675.45021
429.15	2545.95498
429.364	2605.77715
429.577	2455.0987
429.791	2626.75213
430.005	2807.76341
430.218	2616.33534
430.432	2552.3452
430.645	2451.17125
430.859	2563.16903
431.073	2579.17278
431.286	2747.06556
431.5	2763.07868
431.713	2489.52562
431.927	2522.4094
432.14	2711.847
432.354	2628.06327
432.567	2596.54042
432.781	2689.79192
432.994	2692.94032
433.207	2762.45805
433.421	2878.63988
433.634	2721.3509
433.848	2902.89679
434.061	2722.39447
434.274	2562.1167
434.488	2601.5475
434.701	2616.06238
434.914	2572.03975
435.127	2779.54973
435.341	2846.75111
435.554	2837.01326
435.767	2998.63749
435.98	2951.67457
436.194	2815.25544
436.407	2747.68239
436.62	3136.81976
436.833	3066.17646
437.046	3026.16763
437.259	2831.52215
437.473	3060.85973
437.686	3157.72103
437.899	2990.11388
438.112	3234.81905
438.325	3161.46339
438.538	3122.24027
438.751	3365.31844
438.964	3302.31997
439.177	3260.21195
439.39	3304.8492
439.603	3444.70207
439.816	3426.29536
440.029	3700.39128
440.242	3838.10665
440.455	3847.10616
440.668	3667.8076
440.881	3500.58697
441.094	3450.06506
441.306	3638.57879
441.519	4020.90594
441.732	3903.882
441.945	4027.68803
442.158	3742.61595
442.37	3682.63493
442.583	3980.51248
442.796	4272.32889
443.009	4057.73982
443.222	3873.48048
443.434	3785.17375
443.647	4271.32123
443.86	4351.77969
444.072	4592.87987
444.285	4318.71969
444.498	4437.38603
444.71	4260.79643
444.923	4476.82422
445.136	4174.4157
445.348	4207.08625
445.561	4229.2433
445.773	4265.41673
445.986	3876.74581
446.198	4452.64056
446.411	4461.35414
446.623	4636.07997
446.836	4440.81432
447.048	4546.47889
447.261	4683.18398
447.473	4806.65339
447.686	4610.35045
447.898	4668.8497
448.11	4828.01738
448.323	5142.95511
448.535	4857.59926
448.748	4626.65753
448.96	4609.66095
449.172	4787.41278
449.385	4420.23853
449.597	4762.41986
449.809	4757.59441
450.021	4988.37773
450.234	4993.35115
450.446	4646.52097
450.658	4877.89603
450.87	4845.92197
451.083	4921.80859
451.295	4988.80507
451.507	4980.35054
451.719	4920.56742
451.931	5069.37695
452.143	5105.7658
452.356	4876.02391
452.568	5053.63166
452.78	5018.12841
452.992	5200.18277
453.204	5383.59836
453.416	5207.98718
453.628	4816.24891
453.84	5120.36055
454.052	4976.86172
454.264	5425.2954
454.476	5189.92267
454.688	5657.4118
454.9	5494.92409
455.112	5281.21533
455.324	5002.1139
455.536	5312.81089
455.747	5521.83076
455.959	5503.72257
456.171	5562.44873
456.383	5280.28418
456.595	5118.48289
456.807	5309.38929
457.018	5161.42329
457.23	5503.38978
457.442	5350.58446
457.654	5568.47233
457.865	5413.68623
458.077	5322.96728
458.289	5182.4164
458.501	5374.298
458.712	5812.14278
458.924	5914.17467
459.136	5578.59769
459.347	5406.07155
459.559	5324.32766
459.77	5859.66743
459.982	5714.64774
460.194	5966.52695
460.405	5381.57651
460.617	5620.48578
460.828	5791.35486
461.04	5859.23269
461.251	5519.58822
461.463	6256.84111
461.674	6099.86561
461.886	5838.68473
462.097	5804.99438
462.309	6015.17797
462.52	5665.97531
462.731	6359.08295
462.943	5710.13035
463.154	5661.23689
463.366	5687.03923
463.577	6014.76014
463.788	6108.50564
464	6345.91602
464.211	6380.65058
464.422	6781.2282
464.634	6467.38661
464.845	6487.05521
465.056	6556.00203
465.267	6468.6477
465.478	6123.24217
465.69	6628.3083
465.901	6402.59221
466.112	6466.51292
466.323	6553.10725
466.534	6658.4836
466.745	6801.51917
466.957	6829.63647
467.168	6758.07866
467.379	6741.92045
467.59	6428.0357
467.801	6369.99316
468.012	6728.93854
468.223	6785.72419
468.434	6650.8423
468.645	7139.6596
468.856	7219.04345
469.067	7089.58277
469.278	7075.56128
469.489	7083.17921
469.7	6743.58666
469.911	6859.83695
470.122	7470.08351
470.333	7642.90663
470.543	6987.31235
470.754	7345.57177
470.965	7309.69105
471.176	7387.38806
471.387	7593.78531
471.598	7512.00857
471.808	7256.70472
472.019	7572.66373
472.23	7402.091
472.441	7336.15754
472.651	7647.88958
472.862	7514.2342
473.073	7776.09607
473.283	7738.5823
473.494	7482.84874
473.705	7714.91564
473.915	7669.15599
474.126	8213.2614
474.337	7779.97201
474.547	8173.07561
474.758	8223.08981
474.968	8162.99921
475.179	8194.16663
475.389	8065.81158
475.6	8310.94064
475.81	8658.2377
476.021	8503.18977
476.231	8648.54665
476.442	8527.90389
476.652	8442.15642
476.863	8513.51943
477.073	8545.92195
477.284	8667.88362
477.494	8695.3016
477.704	9294.15904
477.915	9426.81495
478.125	8776.03549
478.335	8999.30245
478.546	9476.8798
478.756	9389.78075
478.966	9490.67691
479.177	9476.8732
479.387	9516.88343
479.597	9709.09003
479.807	9592.73913
480.018	9657.63177
480.228	9653.90271
480.438	9819.74861
480.648	10115.01714
480.858	10028.22126
481.068	9749.48691
481.279	10131.87738
481.489	10444.30066
481.699	10519.12605
481.909	10280.52162
482.119	10980.25376
482.329	10984.17544
482.539	10957.98701
482.749	10732.83018
482.959	10922.8537
483.169	11347.06916
483.379	11196.56964
483.589	11539.89369
483.799	11517.98188
484.009	11139.29543
484.219	11408.97936
484.429	11462.31865
484.639	11374.05327
484.849	11697.95654
485.059	11925.58694
485.268	12056.24673
485.478	12182.207
485.688	11831.56248
485.898	11895.89426
486.108	11980.90372
486.317	12218.80159
486.527	12354.63191
486.737	12874.00597
486.947	12518.10708
487.156	12737.01303
487.366	12561.23558
487.576	12415.30928
487.785	12337.63548
487.995	12657.91806
488.205	12604.40797
488.414	12776.67051
488.624	12648.5777
488.834	12881.94829
489.043	12566.82758
489.253	12633.81057
489.462	12711.56136
489.672	13163.35204
489.882	13069.59829
490.091	13122.45327
490.301	12986.08819
490.51	13122.23296
490.72	13222.83252
490.929	13442.63358
491.138	13561.29487
491.348	13404.46382
491.557	13420.75887
491.767	13645.86956
491.976	13508.10701
492.185	13479.79161
492.395	13501.34866
492.604	13825.052
492.813	13772.54237
493.023	14020.25723
493.232	13794.46288
493.441	13695.92344
493.651	14004.58726
493.86	13736.37735
494.069	13978.28175
494.278	14096.84013
494.488	14088.50053
494.697	14226.38821
494.906	13973.05975
495.115	14319.22265
495.324	14243.71643
495.533	14479.15033
495.743	14464.15709
495.952	14709.97048
496.161	14550.68087
496.37	14998.12573
496.579	14942.60244
496.788	14884.55066
496.997	15136.26813
497.206	14914.87166
497.415	14871.29118
497.624	15181.73502
497.833	15266.40188
498.042	15407.50938
498.251	15540.61543
498.46	15400.83229
498.669	15243.90758
498.878	15204.75152
499.087	15332.77072
499.296	15670.89419
499.504	15649.37622
499.713	15700.54753
499.922	15618.76431
500.131	15744.52546
500.34	15635.30119
500.549	15784.31627
500.757	15538.30377
500.966	15818.41703
501.175	15610.74186
501.384	16006.30741
501.592	15724.07826
501.801	15972.23482
502.01	15683.21738
502.218	15748.2913
502.427	15856.07059
502.636	15996.55439
502.844	15876.72549
503.053	15728.32527
503.262	15767.36094
503.47	15941.06892
503.679	15714.42639
503.887	15793.0552
504.096	15758.66205
504.304	15680.10375
504.513	15896.9968
504.721	15708.56061
504.93	15500.06818
505.138	15782.09782
505.347	15546.91487
505.555	15609.78719
505.764	15609.655
505.972	15702.54428
506.18	15527.88294
506.389	15471.96314
506.597	15294.09242
506.806	15632.95794
507.014	15479.20071
507.222	15666.2919
507.431	15423.23978
507.639	15459.35036
507.847	15704.27212
508.055	15537.6279
508.264	15426.38138
508.472	15464.7273
508.68	15365.51311
508.888	15586.22089
509.096	15477.37362
509.305	15508.87269
509.513	15300.46068
509.721	15499.18683
509.929	15378.14085
510.137	15386.86735
510.345	15366.79582
510.553	15330.12331
510.762	15355.93786
510.97	15367.97488
511.178	15406.77869
511.386	15693.74077
511.594	15620.7562
511.802	15598.08478
512.01	15540.35191
512.218	15674.01349
512.426	15509.47099
512.634	15737.08304
512.842	15669.48434
513.049	15832.89333
513.257	15648.49651
513.465	15950.13936
513.673	15831.77331
513.881	15987.08275
514.089	15905.28927
514.297	15829.6397
514.504	15684.55617
514.712	16027.3698
514.92	15941.46108
515.128	16195.09164
515.336	16095.2597
515.543	15980.44998
515.751	16048.12642
515.959	16022.79836
516.166	15769.14452
516.374	16075.60971
516.582	16012.83433
516.789	16067.35879
516.997	16034.22943
517.205	16273.57553
517.412	16060.60834
517.62	16238.16395
517.827	16022.98805
518.035	16128.40828
518.243	16037.58924
518.45	15931.12799
518.658	15859.76522
518.865	15812.31878
519.073	15939.04843
519.28	15890.14271
519.488	15800.89233
519.695	15763.56807
519.902	15844.79784
520.11	15672.26165
520.317	15849.70672
520.525	15724.60387
520.732	15518.23903
520.939	15644.90637
521.147	15430.57269
521.354	15702.20821
521.561	15667.21608
521.769	15572.35128
521.976	15420.51818
522.183	15573.97117
522.391	15472.52573
522.598	15448.28758
522.805	15565.16876
523.012	15612.90425
523.219	15513.85162
523.427	15753.02042
523.634	15632.02854
523.841	15645.11246
524.048	15437.4448
524.255	15588.08068
524.462	15590.46857
524.669	15439.98316
524.877	15493.27374
525.084	15309.49573
525.291	15478.01934
525.498	15486.86024
525.705	15453.08197
525.912	15611.97483
526.119	15456.29866
526.326	15634.30522
526.533	15663.6402
526.74	16019.96412
526.947	15668.54806
527.153	15686.41641
527.36	15569.49539
527.567	15612.52569
527.774	15607.41459
527.981	15862.97756
528.188	15568.95582
528.395	15860.23829
528.602	15676.98378
528.808	15684.61608
529.015	15599.08073
529.222	15901.64062
529.429	15495.6009
529.635	15628.25428
529.842	15583.17438
530.049	15538.04115
530.256	15524.34594
530.462	15730.73606
530.669	15620.28673
530.876	15742.59039
531.082	15545.78681
531.289	15593.25377
531.495	15716.02155
531.702	15689.59161
531.909	15578.1389
532.115	15780.31046
532.322	15605.20451
532.528	15561.15541
532.735	15595.11133
532.941	15610.65091
533.148	15511.88677
533.354	15443.85832
533.561	15600.81149
533.767	15429.05296
533.974	15597.50226
534.18	15428.41826
534.387	15515.77638
534.593	15444.17327
534.799	15428.68362
535.006	15560.19315
535.212	15419.39549
535.418	15465.52503
535.625	15481.17519
535.831	15435.94483
536.037	15138.7423
536.244	15341.47084
536.45	15078.20836
536.656	15178.67505
536.862	15434.12827
537.068	15398.02417
537.275	15231.82581
537.481	15483.29136
537.687	15476.9418
537.893	15721.00173
538.099	15466.26742
538.305	15504.2978
538.512	15447.93306
538.718	15370.62278
538.924	15406.12894
539.13	15316.51099
539.336	15468.57739
539.542	15248.08528
539.748	15321.63123
539.954	15060.02851
540.16	15380.22816
540.366	15503.18691
540.572	15265.87155
540.778	15270.06772
540.984	15167.98659
541.19	15440.84735
541.396	14947.97416
541.602	15270.51656
541.807	15177.14425
542.013	15307.89887
542.219	14915.07486
542.425	15120.09314
542.631	15012.79276
542.837	14835.40415
543.042	14903.21501
543.248	14964.82227
543.454	14890.27116
543.66	14926.54847
543.865	14879.11248
544.071	14874.60159
544.277	14834.73715
544.483	14837.45559
544.688	14855.23034
544.894	14856.50686
545.1	14836.45771
545.305	14746.12968
545.511	14663.68167
545.716	14672.91548
545.922	14592.92263
546.128	14678.13612
546.333	14632.64968
546.539	14785.64881
546.744	14606.32694
546.95	14752.94996
547.155	14438.03267
547.361	14638.48461
547.566	14394.6654
547.772	14525.82015
547.977	14645.31438
548.182	14474.09461
548.388	14431.73928
548.593	14542.39084
548.799	14386.70973
549.004	14272.07163
549.209	14266.85136
549.415	14473.98737
549.62	14284.09245
549.825	14414.69946
550.031	14323.4253
550.236	14339.06668
550.441	14509.96786
550.646	14372.2647
550.852	14506.19543
551.057	14433.26902
551.262	14560.42635
551.467	14360.08277
551.672	14279.51175
551.878	14511.24389
552.083	14080.01324
552.288	14446.33131
552.493	14168.299
552.698	14340.43412
552.903	14354.88777
553.108	14561.24181
553.313	14281.10201
553.518	14237.7507
553.723	14344.36297
553.928	14260.19263
554.133	14224.30161
554.338	14373.25014
554.543	14457.71613
554.748	14140.00357
554.953	14297.97564
555.158	14433.45006
555.363	14330.02772
555.568	14302.84511
555.773	14516.13244
555.978	14460.25437
556.182	14407.97693
556.387	14335.52731
556.592	14249.25575
556.797	14469.12975
557.002	14327.40269
557.206	14372.99216
557.411	14330.62305
557.616	14303.40439
557.821	14530.75671
558.025	14488.71652
558.23	14240.71106
558.435	14329.69349
558.64	14137.33377
558.844	14334.07697
559.049	14443.50764
559.253	14304.37955
559.458	14157.95622
559.663	14383.3275
559.867	14116.52834
560.072	14268.06719
560.276	13992.19245
560.481	14116.60305
560.685	14162.16971
560.89	14060.74386
561.094	14113.69832
561.299	14020.55811
561.503	13862.46948
561.708	13859.67947
561.912	13728.46843
562.117	14030.3103
562.321	13776.17164
562.525	13797.60482
562.73	13876.19328
562.934	13978.32294
563.139	13697.26745
563.343	14007.12269
563.547	13826.1282
563.752	13808.26873
563.956	13531.93558
564.16	13786.13844
564.364	13575.62122
564.569	13563.31243
564.773	13595.89382
564.977	13614.58275
565.181	13665.57817
565.385	13547.13375
565.59	13564.63793
565.794	13564.08176
565.998	13441.04947
566.202	13461.91042
566.406	13326.81932
566.61	13383.42246
566.814	13281.3735
567.018	13423.30336
567.222	13220.01042
567.426	13291.86546
567.63	13136.45611
567.834	13212.06536
568.038	13116.27478
568.242	13137.5725
568.446	12987.5467
568.65	13133.15637
568.854	13159.19577
569.058	13139.42318
569.262	13088.77996
569.466	12836.73065
569.67	12845.66913
569.874	12872.29021
570.078	12879.42364
570.281	12907.2223
570.485	12630.62002
570.689	12754.33714
570.893	12576.66408
571.097	12702.90524
571.3	12499.61038
571.504	12604.18483
571.708	12527.35735
571.912	12587.71679
572.115	12395.72384
572.319	12356.48924
572.523	12363.69814
572.726	12371.18591
572.93	12181.9786
573.133	12088.35555
573.337	12141.02855
573.541	12230.19961
573.744	11889.04065
573.948	12068.15201
574.151	11893.77515
574.355	11870.68912
574.558	12050.48629
574.762	11916.23133
574.965	11881.39309
575.169	11874.55113
575.372	11765.57563
575.576	11828.3091
575.779	11635.74786
575.983	11792.29101
576.186	11408.34557
576.389	11640.84452
576.593	11465.01135
576.796	11571.65126
577	11485.70356
577.203	11627.85296
577.406	11466.14946
577.609	11377.24363
577.813	11293.5515
578.016	11321.5269
578.219	11353.94495
578.423	11355.42493
578.626	11355.61964
578.829	11201.53316
579.032	11034.11281
579.235	11297.69119
579.438	11333.12267
579.642	11180.38716
579.845	11060.71173
580.048	11111.74195
580.251	10951.58708
580.454	11113.36005
580.657	10977.21264
580.86	11026.05287
581.063	10716.66711
581.266	11170.7916
581.469	11088.41249
581.672	10884.71853
581.875	10924.81317
582.078	11079.31704
582.281	11105.81762
582.484	10884.48256
582.687	11139.36408
582.89	11101.9103
583.093	10793.78407
583.296	11036.17432
583.499	10991.2523
583.702	11083.9387
583.904	10899.70882
584.107	11148.93917
584.31	10945.23114
584.513	11251.1603
584.716	10955.94393
584.918	11121.30918
585.121	11141.17105
585.324	11328.7746
585.527	11165.93382
585.729	11291.33217
585.932	11061.1632
586.135	11243.09105
586.337	11146.2745
586.54	11362.32719
586.743	11199.82455
586.945	11206.90245
587.148	11244.4502
587.35	11248.6893
587.553	11014.62132
587.755	11171.24164
587.958	11259.13648
588.161	11302.32178
588.363	11206.93812
588.566	11318.86765
588.768	11282.50625
588.971	11218.43461
589.173	11205.2573
589.375	11166.38017
589.578	11139.87788
589.78	11116.45211
589.983	11043.94457
590.185	11060.21752
590.387	10791.71044
590.59	10934.68706
590.792	10776.47705
590.994	10716.1096
591.197	10483.14829
591.399	10500.82459
591.601	10483.41312
591.803	10319.58837
592.006	10274.99655
592.208	10392.53914
592.41	10036.56813
592.612	10052.82687
592.815	10081.03485
593.017	10098.25978
593.219	9904.16387
593.421	9955.77846
593.623	9743.44538
593.825	9674.36725
594.027	9580.56281
594.229	9659.66275
594.432	9425.8854
594.634	9536.85978
594.836	9340.70777
595.038	9492.57679
595.24	9231.33884
595.442	9297.99474
595.644	9137.93233
595.846	9212.29574
596.048	8988.37997
596.249	9002.41574
596.451	9054.58081
596.653	8880.97857
596.855	8789.64658
597.057	8821.29823
597.259	8577.45186
597.461	8833.00035
597.663	8676.1225
597.864	8594.16226
598.066	8748.78288
598.268	8536.04916
598.47	8570.76937
598.671	8561.17658
598.873	8432.4818
599.075	8578.1164
599.277	8604.6184
599.478	8680.58341
599.68	8614.24808
599.882	8729.67204
600.083	8597.14344
600.285	8776.09425
600.487	8727.33048
600.688	8667.18019
600.89	8676.50067
601.091	8754.60893
601.293	8768.0328
601.494	8795.23877
601.696	8780.62402
601.898	8967.29192
602.099	8795.69187
602.301	8788.1033
602.502	8841.9739
602.703	9055.53145
602.905	8918.71101
603.106	9114.06017
603.308	8930.95365
603.509	8939.21692
603.711	8881.93618
603.912	9112.43804
604.113	8972.89573
604.315	9151.56031
604.516	9067.05882
604.717	9083.4642
604.919	9111.93918
605.12	9247.99419
605.321	9264.51808
605.522	9224.83696
605.724	9215.40856
605.925	9217.93975
606.126	9399.33679
606.327	9365.46057
606.528	9470.55964
606.729	9286.1986
606.931	9431.31687
607.132	9507.91315
607.333	9392.71089
607.534	9528.23279
607.735	9553.32221
607.936	9516.11242
608.137	9564.41642
608.338	9660.74985
608.539	9583.10484
608.74	9580.19986
608.941	9655.38132
609.142	9662.31756
609.343	9627.97078
609.544	9800.28178
609.745	9544.57585
609.946	9698.66789
610.147	9727.66709
610.348	9640.81262
610.549	9542.091
610.75	9724.50532
610.95	9682.8483
611.151	9816.36249
611.352	9752.02015
611.553	9853.06654
611.754	9774.28679
611.954	9915.52038
612.155	9634.41087
612.356	9788.24108
612.557	9714.26974
612.757	9763.87097
612.958	9793.93015
613.159	9894.22378
613.359	9752.8234
613.56	9795.07286
613.761	9765.527
613.961	9896.43909
614.162	9644.4183
614.362	9901.39864
614.563	9752.37356
614.764	9892.06326
614.964	9707.41841
615.165	9790.61257
615.365	9804.50033
615.566	9674.18108
615.766	9656.33385
615.967	9735.39037
616.167	9474.03152
616.368	9612.26484
616.568	9602.49181
616.768	9593.29433
616.969	9738.94922
617.169	9673.37515
617.37	9708.94696
617.57	9797.75136
617.77	9593.09801
617.971	9439.9882
618.171	9448.32201
618.371	9533.88314
618.571	9586.47486
618.772	9500.33023
618.972	9601.21468
619.172	9523.98979
619.372	9499.74319
619.573	9495.72633
619.773	9520.77491
619.973	9562.29642
620.173	9443.00461
620.373	9560.58326
620.573	9452.48006
620.774	9606.14522
620.974	9455.7189
621.174	9378.94952
621.374	9504.2973
621.574	9545.07424
621.774	9481.61218
621.974	9483.27885
622.174	9294.90319
622.374	9485.17282
622.574	9464.44329
622.774	9406.695
622.974	9349.95076
623.174	9466.23655
623.374	9428.65555
623.574	9458.65192
623.774	9328.65526
623.973	9511.96409
624.173	9358.0914
624.373	9438.80535
624.573	9311.41593
624.773	9463.0484
624.973	9357.70054
625.172	9371.74757
625.372	9459.38842
625.572	9434.64629
625.772	9335.10336
625.971	9152.50705
626.171	9167.71397
626.371	9333.74602
626.57	9233.51048
626.77	9253.33256
626.97	9216.94709
627.169	9223.75464
627.369	9243.60658
627.569	9307.04109
627.768	9120.57383
627.968	9286.78371
628.167	9182.2447
628.367	9240.7777
628.566	9153.05485
628.766	9040.85986
628.965	9039.55725
629.165	9056.25215
629.364	8899.87629
629.564	9124.40057
629.763	8952.7096
629.963	8812.62194
630.162	8853.57793
630.362	8912.86088
630.561	8687.29577
630.76	8680.15103
630.96	8657.32606
631.159	8712.29345
631.358	8588.88184
631.558	8620.7753
631.757	8506.13293
631.956	8625.63622
632.155	8502.32919
632.355	8496.48817
632.554	8395.25085
632.753	8418.57678
632.952	8479.61832
633.152	8477.70921
633.351	8231.55783
633.55	8268.15684
633.749	8245.778
633.948	8260.07187
634.147	8240.44615
634.346	8191.65829
634.545	8081.6073
634.744	8086.84114
634.944	8011.47238
635.143	8063.22391
635.342	7981.87676
635.541	8115.37399
635.74	8056.19337
635.939	8070.72725
636.138	7973.207
636.336	8058.31596
636.535	7996.67495
636.734	8061.10101
636.933	8098.05207
637.132	8094.93423
637.331	7975.97357
637.53	8113.90627
637.729	8008.02449
637.928	8204.04227
638.126	8084.05602
638.325	8119.4113
638.524	8082.13108
638.723	8079.01706
638.921	8092.14877
639.12	8147.40182
639.319	8141.76413
639.518	8226.59281
639.716	8168.09477
639.915	8135.92733
640.114	8191.41322
640.312	8274.75736
640.511	8135.72856
640.71	8414.24754
640.908	8150.25371
641.107	8312.38078
641.305	8162.99631
641.504	8387.83229
641.702	8232.02731
641.901	8249.46057
642.099	8219.91494
642.298	8342.14109
642.496	8285.26232
642.695	8270.14585
642.893	8254.84407
643.092	8325.44131
643.29	8332.81867
643.489	8263.25185
643.687	8233.06123
643.885	8252.64543
644.084	8280.88738
644.282	8397.64092
644.48	8423.51645
644.679	8505.4075
644.877	8315.49725
645.075	8364.10298
645.274	8279.30788
645.472	8330.75354
645.67	8324.19377
645.868	8330.88724
646.067	8249.85981
646.265	8339.09606
646.463	8211.93899
646.661	8378.04873
646.859	8403.4724
647.057	8283.73797
647.256	8234.27766
647.454	8295.22036
647.652	8266.83905
647.85	8215.25084
648.048	8243.29686
648.246	8179.89963
648.444	8058.58119
648.642	8184.54646
648.84	8082.33073
649.038	7999.46122
649.236	7920.02345
649.434	7992.76265
649.632	7725.3178
649.83	8001.2618
650.028	7796.69427
650.226	7699.95836
650.423	7702.09472
650.621	7677.65368
650.819	7617.23125
651.017	7605.58423
651.215	7526.44177
651.413	7511.37405
651.61	7479.79506
651.808	7404.13275
652.006	7413.11073
652.204	7429.15415
652.401	7348.99897
652.599	7285.26093
652.797	7186.03938
652.995	7198.85322
653.192	7091.76243
653.39	7285.56863
653.588	7188.98572
653.785	7089.96795
653.983	7052.09861
654.18	7010.35376
654.378	7031.15321
654.576	7013.65422
654.773	7048.45563
654.971	7089.97239
655.168	6886.11177
655.366	7036.53392
655.563	6754.81602
655.761	6949.18425
655.958	6978.85644
656.156	6943.94989
656.353	6911.5181
656.55	6892.28879
656.748	6848.1864
656.945	6803.37035
657.143	6828.10477
657.34	6861.4405
657.537	6737.26163
657.735	6723.89696
657.932	6586.36698
658.129	6661.48734
658.326	6623.42746
658.524	6703.80375
658.721	6694.76582
658.918	6789.681
659.115	6642.94984
659.313	6644.31758
659.51	6659.86486
659.707	6687.93074
659.904	6643.68897
660.101	6643.09581
660.298	6774.57896
660.496	6605.52153
660.693	6623.41714
660.89	6596.26136
661.087	6627.84766
661.284	6657.86232
661.481	6590.52028
661.678	6711.95809
661.875	6662.10885
662.072	6688.61545
662.269	6672.38714
662.466	6741.22153
662.663	6776.48307
662.86	6817.06909
663.057	6607.01944
663.254	6692.87961
663.45	6878.77488
663.647	6731.17895
663.844	6586.37131
664.041	6673.76939
664.238	6773.44674
664.435	6800.87975
664.631	6814.22771
664.828	6764.17527
665.025	6845.47179
665.222	6973.59996
665.419	6818.1435
665.615	6977.70211
665.812	6902.47184
666.009	6984.95462
666.205	7022.67331
666.402	6981.69127
666.599	6956.66827
666.795	7042.86141
666.992	6848.13039
667.188	7113.87508
667.385	7051.4532
667.582	7162.64906
667.778	7109.91491
667.975	7202.92592
668.171	7180.51896
668.368	7168.02921
668.564	7248.93721
668.761	7215.33845
668.957	7177.44119
669.154	7244.07583
669.35	7111.43186
669.547	7288.29943
669.743	7342.05912
669.939	7307.26461
670.136	7257.79127
670.332	7316.68787
670.528	7181.71674
670.725	7228.34827
670.921	7264.5723
671.117	7229.62089
671.314	7227.05909
671.51	7378.49554
671.706	7221.28561
671.902	7235.85061
672.099	7285.43902
672.295	7168.58339
672.491	7167.64188
672.687	7322.46251
672.883	7222.67453
673.08	7321.5361
673.276	7310.77934
673.472	7216.99139
673.668	7135.52594
673.864	7242.77238
674.06	7082.81308
674.256	7169.31675
674.452	7117.25926
674.648	7130.23218
674.844	7152.08685
675.04	7272.28544
675.236	7117.51788
675.432	7109.65995
675.628	7117.8064
675.824	7015.57802
676.02	7056.6748
676.216	7131.79877
676.412	7068.47325
676.608	7055.26051
676.804	6984.52761
676.999	7098.66785
677.195	6832.61587
677.391	7078.65432
677.587	6986.98092
677.783	7058.48157
677.978	6878.32793
678.174	7131.92826
678.37	6980.14269
678.566	7101.46978
678.761	6901.45208
678.957	6956.58409
679.153	6842.08957
679.348	7026.15723
679.544	6892.90379
679.74	7036.17691
679.935	6801.85959
680.131	6945.2533
680.327	6960.02156
680.522	6841.10791
680.718	6784.38132
680.913	6924.15865
681.109	6766.34904
681.304	6831.46913
681.5	6802.20614
681.695	6832.53325
681.891	6906.96209
682.086	6800.84085
682.282	6741.05991
682.477	6917.60774
682.672	6849.30857
682.868	6689.62412
683.063	6743.96901
683.259	6868.54084
683.454	6786.53416
683.649	6686.77009
683.845	6617.21149
684.04	6632.43989
684.235	6717.18187
684.43	6762.16394
684.626	6656.86103
684.821	6777.70285
685.016	6502.8406
685.211	6738.43853
685.407	6516.00524
685.602	6628.08708
685.797	6493.94536
685.992	6605.19131
686.187	6493.0695
686.382	6575.7376
686.577	6493.06967
686.773	6630.17507
686.968	6440.69406
687.163	6460.99465
687.358	6298.53631
687.553	6561.33402
687.748	6502.84985
687.943	6518.17131
688.138	6305.46706
688.333	6309.42022
688.528	6213.20707
688.723	6283.33647
688.918	6212.43523
689.112	5985.08056
689.307	6007.96593
689.502	5911.76329
689.697	5805.33653
689.892	5889.22367
690.087	5693.37773
690.282	5719.1599
690.476	5689.82409
690.671	5554.78528
690.866	5533.88403
691.061	5486.15638
691.255	5364.42281
691.45	5438.10124
691.645	5127.29498
691.84	5323.43663
692.034	5148.11403
692.229	5058.94696
692.424	5005.49217
692.618	5101.26981
692.813	4912.11458
693.007	4961.98241
693.202	4840.80161
693.397	4943.92331
693.591	4656.81543
693.786	4687.31821
693.98	4631.173
694.175	4645.89923
694.369	4612.17004
694.564	4646.70732
694.758	4485.25706
694.953	4529.07575
695.147	4428.2191
695.342	4396.72359
695.536	4269.54189
695.73	4355.69241
695.925	4092.72375
696.119	4275.51998
696.313	3946.5889
696.508	4148.4991
696.702	4052.92493
696.896	4043.14826
697.091	3940.7893
697.285	4046.45094
697.479	4024.82985
697.673	4010.43829
697.868	4053.74842
698.062	4030.93958
698.256	4045.80903
698.45	4042.96651
698.644	3906.03662
698.839	4110.26105
699.033	3896.52425
699.227	4120.0182
699.421	4031.7522
699.615	4067.08643
699.809	4083.79284
700.003	4098.56812
700.197	4009.08975
700.391	4121.64389
700.585	4061.41767
700.779	4127.07876
700.973	4004.03811
701.167	4068.19767
701.361	4117.64945
701.555	4124.71892
701.749	3969.71306
701.943	4115.18608
702.137	3993.53368
702.331	3959.48571
702.525	4020.44585
702.718	4143.17687
702.912	4065.01198
703.106	4067.98885
703.3	3938.43505
703.494	4081.63863
703.687	3925.7387
703.881	4023.44832
704.075	3986.47518
704.269	4045.61718
704.462	4028.31134
704.656	4005.38556
704.85	3923.02542
705.043	4081.03253
705.237	3915.22715
705.431	3968.70762
705.624	3975.19697
705.818	3971.17381
706.012	3951.21282
706.205	4142.56445
706.399	3924.54283
706.592	4101.64526
706.786	3901.3687
706.979	3964.12291
707.173	3966.75297
707.366	3967.17854
707.56	3893.99363
707.753	3910.51373
707.947	3949.48277
708.14	3966.05087
708.333	3811.0769
708.527	3972.99749
708.72	3841.18049
708.914	3908.07101
709.107	3841.66613
709.3	3866.31763
709.494	3822.20795
709.687	3905.96939
709.88	3956.53219
710.073	3920.66823
710.267	3789.41327
710.46	3875.182
710.653	3875.97295
710.846	3960.34238
711.04	3927.99478
711.233	3894.32889
711.426	3851.46561
711.619	4029.69852
711.812	3918.48406
712.005	4044.52889
712.198	3955.95052
712.391	4052.08185
712.585	3962.5191
712.778	3877.43703
712.971	3916.29358
713.164	4110.57207
713.357	3899.74892
713.55	4025.01206
713.743	4013.90354
713.936	4091.50965
714.129	3962.3976
714.322	4076.52229
714.514	3999.22372
714.707	4086.35837
714.9	3990.01872
715.093	4078.66167
715.286	3913.0404
715.479	4029.21891
715.672	4026.3799
715.864	4033.5436
716.057	3915.48909
716.25	4025.75561
716.443	4024.7673
716.636	3993.12694
716.828	4020.44585
717.021	3983.83994
717.214	3930.64459
717.406	4032.99297
717.599	3876.30949
717.792	3900.36276
717.984	3790.63731
718.177	3909.91631
718.37	3765.00427
718.562	3810.38971
718.755	3622.76035
718.947	3700.10206
719.14	3564.91806
719.333	3505.9659
719.525	3368.4652
719.718	3511.03931
719.91	3194.02893
720.103	3274.87277
720.295	3160.58921
720.487	3218.80896
720.68	3066.5842
720.872	3086.91469
721.065	2860.58917
721.257	2877.37211
721.449	2687.46414
721.642	2721.09921
721.834	2583.68914
722.026	2516.86095
722.219	2435.81869
722.411	2497.77507
722.603	2318.72012
722.796	2351.34721
722.988	2231.74048
723.18	2210.47367
723.372	2122.15073
723.565	2126.21581
723.757	1986.16388
723.949	2006.2028
724.141	1912.14527
724.333	2052.2722
724.525	1806.32891
724.717	1926.06704
724.91	1666.30292
725.102	1750.12673
725.294	1680.2117
725.486	1654.16443
725.678	1499.29083
725.87	1624.75523
726.062	1453.81263
726.254	1587.27405
726.446	1431.4483
726.638	1489.72879
726.83	1291.43522
727.022	1455.02214
727.213	1315.78092
727.405	1447.11868
727.597	1246.02813
727.789	1318.85282
727.981	1240.85074
728.173	1322.83017
728.365	1240.09327
728.556	1321.52457
728.748	1159.46152
728.94	1282.19766
729.132	1335.91867
729.324	1274.85746
729.515	1220.66874
729.707	1271.48104
729.899	1252.50097
730.09	1348.91743
730.282	1220.7931
730.474	1356.37087
730.665	1243.3504
730.857	1299.10741
731.049	1272.78048
731.24	1351.12846
731.432	1212.8982
731.623	1336.77946
731.815	1286.31799
732.006	1310.33644
732.198	1094.42645
732.389	1193.66059
732.581	1162.31222
732.772	1166.14782
732.964	1032.04988
733.155	1097.17022
733.347	1098.03542
733.538	1168.36343
733.729	1120.38824
733.921	1289.79061
734.112	1090.36412
734.304	1239.29779
734.495	1175.37149
734.686	1236.20893
734.877	1112.49577
735.069	1316.54968
735.26	1222.4271
735.451	1378.9958
735.643	1231.70095
735.834	1432.63731
736.025	1350.58985
736.216	1493.36142
736.407	1396.90277
736.599	1433.93016
736.79	1437.15173
736.981	1492.62062
737.172	1472.3222
737.363	1636.74138
737.554	1567.39705
737.745	1607.67252
737.936	1619.29083
738.127	1711.20208
738.318	1622.86925
738.509	1817.78586
738.7	1583.69376
738.891	1795.79605
739.082	1663.61306
739.273	1868.18579
739.464	1685.36245
739.655	1856.66503
739.846	1813.48564
740.037	1942.47454
740.228	1840.93452
740.419	1904.24885
740.609	1889.44476
740.8	2050.71841
740.991	2002.56812
741.182	2103.85197
741.373	2108.34678
741.563	2252.22483
741.754	2029.87241
741.945	2265.65873
742.136	2120.5474
742.326	2263.55209
742.517	2166.38883
742.708	2340.34015
742.898	2231.22453
743.089	2275.37545
743.28	2245.75638
743.47	2410.25435
743.661	2219.54141
743.851	2392.00526
744.042	2242.44312
744.233	2427.51703
744.423	2356.05773
744.614	2502.09705
744.804	2328.28208
744.995	2454.33608
745.185	2295.33391
745.376	2492.41648
745.566	2445.79011
745.756	2513.38893
745.947	2445.35161
746.137	2542.65668
746.328	2540.24426
746.518	2665.09867
746.708	2541.36585
746.899	2624.95714
747.089	2573.49153
747.279	2616.8279
747.47	2526.11424
747.66	2678.36693
747.85	2689.86969
748.04	2651.20446
748.231	2662.26617
748.421	2814.69279
748.611	2571.74383
748.801	2759.28984
748.991	2547.84311
749.182	2715.96667
749.372	2611.03476
749.562	2677.78141
749.752	2691.3864
749.942	2722.55141
750.132	2676.65957
750.322	2765.60318
750.512	2648.46073
750.702	2772.85181
750.892	2777.85354
751.082	2758.77474
751.272	2674.70549
751.462	2804.70175
751.652	2843.84487
751.842	2833.45358
752.032	2654.20362
752.222	2783.2552
752.412	2774.77945
752.602	2818.87977
752.792	2743.10846
752.981	2828.72643
753.171	2681.20007
753.361	2833.45412
753.551	2681.47284
753.741	2741.01109
753.93	2570.69131
754.12	2756.3262
754.31	2639.72443
754.5	2699.74056
754.689	2605.2262
754.879	2656.64991
755.069	2532.05894
755.258	2678.59487
755.448	2673.96959
755.638	2748.84619
755.827	2619.98233
756.017	2666.45768
756.206	2506.38539
756.396	2705.92265
756.586	2574.81861
756.775	2681.04451
756.965	2486.97627
757.154	2698.69141
757.344	2491.50986
757.533	2538.59619
757.723	2630.36907
757.912	2598.46998
758.101	2513.84984
758.291	2636.44588
758.48	2446.40629
758.67	2601.62315
758.859	2416.05551
759.048	2599.84833
759.238	2326.88524
759.427	2505.24204
759.616	2515.17342
759.806	2610.59498
759.995	2414.69721
760.184	2547.98179
760.373	2361.40726
760.563	2517.43037
760.752	2338.9302
760.941	2486.80582
761.13	2320.81132
761.319	2348.44562
761.509	2241.85977
761.698	2349.73018
761.887	2107.54272
762.076	2187.26954
762.265	1996.86709
762.454	1979.50977
762.643	1826.13796
762.832	1864.68503
763.021	1736.74359
763.21	1716.61888
763.399	1681.65193
763.588	1629.61728
763.777	1431.49571
763.966	1470.16454
764.155	1311.66071
764.344	1380.07765
764.533	1194.50389
764.722	1202.0094
764.911	1006.29911
765.1	1054.2828
765.288	863.91158
765.477	964.25042
765.666	759.43927
765.855	904.42885
766.044	648.56333
766.232	654.03508
766.421	526.09571
766.61	660.67124
766.799	458.63806
766.987	512.95912
767.176	395.03033
767.365	466.6413
767.553	350.56226
767.742	357.09253
767.931	245.46648
768.119	282.67058
768.308	284.77844
768.497	261.23814
768.685	193.96824
768.874	242.26612
769.062	207.47907
769.251	241.04688
769.439	176.08519
769.628	183.73156
769.816	189.45102
770.005	265.56159
770.193	200.60595
770.382	242.02922
770.57	244.46764
770.758	336.15096
770.947	288.12061
771.135	353.76246
771.323	345.14107
771.512	457.52657
771.7	350.3537
771.888	454.93488
772.077	511.2099
772.265	534.22578
772.453	533.17538
772.642	582.32979
772.83	522.90363
773.018	634.43884
773.206	636.87795
773.394	763.70711
773.583	668.76237
773.771	798.77138
773.959	816.15563
774.147	1005.75542
774.335	875.76837
774.523	956.15874
774.711	994.14634
774.899	1155.24704
775.087	1141.74296
775.275	1175.17074
775.463	1162.68568
775.651	1294.42852
775.839	1189.32132
776.027	1368.17559
776.215	1299.80557
776.403	1404.99854
776.591	1361.49309
776.779	1470.89267
776.967	1272.70874
777.155	1574.68708
777.343	1453.4512
777.531	1583.29013
777.718	1449.47328
777.906	1617.64874
778.094	1433.67034
778.282	1600.35199
778.47	1520.55917
778.657	1638.20185
778.845	1518.45316
779.033	1635.78582
779.22	1528.07933
779.408	1611.79326
779.596	1529.65703
779.783	1723.43965
779.971	1571.39467
780.159	1660.49993
780.346	1542.85348
780.534	1807.65948
780.722	1508.93455
780.909	1684.709
781.097	1514.72059
781.284	1633.79548
781.472	1546.99192
781.659	1608.41286
781.847	1428.48536
782.034	1660.33847
782.222	1544.93919
782.409	1673.1284
782.597	1586.05266
782.784	1566.21843
782.971	1525.79812
783.159	1696.95129
783.346	1486.0982
783.533	1541.97814
783.721	1673.05497
783.908	1615.54058
784.095	1369.0748
784.283	1560.27667
784.47	1450.69921
784.657	1549.04436
784.844	1441.04301
785.032	1489.72879
785.219	1397.58146
785.406	1602.52863
785.593	1431.4483
785.78	1467.60607
785.968	1392.53383
786.155	1567.50083
786.342	1344.94793
786.529	1562.83327
786.716	1351.53676
786.903	1472.51631
787.09	1425.67724
787.277	1462.00193
787.464	1343.64102
787.651	1384.56449
787.838	1319.5793
788.025	1419.94997
788.212	1327.56601
788.399	1396.02277
788.586	1233.2876
788.773	1392.59371
788.96	1258.29162
789.147	1370.61487
789.334	1145.089
789.521	1288.1882
789.707	1224.59386
789.894	1247.24107
790.081	1233.36937
790.268	1299.59792
790.455	1236.42107
790.641	1231.11443
790.828	1164.05137
791.015	1236.71559
791.202	1085.81419
791.388	1135.36289
791.575	1017.92465
791.762	1122.72059
791.948	1029.58119
792.135	1180.32944
792.322	1003.6478
792.508	992.75232
792.695	961.53874
792.881	989.19777
793.068	918.56096
793.254	1090.51461
793.441	946.17634
793.627	981.37496
793.814	879.90885
794	969.67606
794.187	835.50667
794.373	928.32399
794.56	806.96634
794.746	922.81443
794.933	840.28704
795.119	853.1581
795.305	824.94344
795.492	838.20964
795.678	848.15018
795.864	840.28961
796.051	807.90593
796.237	848.78033
796.423	725.13219
796.61	855.4314
796.796	767.44761
796.982	795.44468
797.168	811.15075
797.355	783.34792
797.541	736.49308
797.727	799.11202
797.913	716.54628
798.099	815.20119
798.285	673.97894
798.471	748.53366
798.658	691.1266
798.844	783.85013
799.03	664.18019
799.216	710.77766
799.402	671.35649
799.588	747.00493
799.774	673.50826
799.96	724.00426
800.146	719.60666
800.332	712.00771
800.518	677.71247
800.704	662.9338
800.89	617.04928
801.075	767.22818
801.261	719.85397
801.447	662.06815
801.633	625.93955
801.819	745.38892
802.005	645.57686
802.19	736.17667
802.376	671.97667
802.562	748.64087
802.748	573.87493
802.934	696.39293
803.119	534.32192
803.305	649.64382
803.491	612.64813
803.676	673.17682
803.862	562.37168
804.048	675.02051
804.233	606.12176
804.419	699.77658
804.605	560.74945
804.79	730.19461
804.976	613.62066
805.161	612.80282
805.347	572.85115
805.532	626.00759
805.718	569.19745
805.903	547.13166
806.089	497.15083
806.274	557.46614
806.46	598.44157
806.645	650.84174
806.831	511.55025
807.016	635.65814
807.201	630.58993
807.387	635.95696
807.572	522.61724
807.757	604.73011
807.943	579.68489
808.128	588.13715
808.313	490.6919
808.499	615.87656
808.684	554.92576
808.869	633.9991
809.054	528.73836
809.24	610.36976
809.425	497.46066
809.61	576.81931
809.795	543.88738
809.98	592.62726
810.165	546.38277
810.35	594.25252
810.536	513.69279
810.721	602.25668
810.906	519.57661
811.091	582.43524
811.276	502.34882
811.461	493.53422
811.646	526.48097
811.831	568.48348
812.016	540.64193
812.201	605.83601
812.386	468.51886
812.571	497.42413
812.756	460.50492
812.941	514.95167
813.125	515.57528
813.31	512.43482
813.495	408.47648
813.68	482.85013
813.865	493.93115
814.05	496.16861
814.234	397.02184
814.419	545.67435
814.604	436.43323
814.789	474.79995
814.973	301.5624
815.158	446.54167
815.343	326.06995
815.528	355.87252
815.712	337.29202
815.897	399.89838
816.081	263.09027
816.266	368.12483
816.451	329.29511
816.635	264.40438
816.82	266.76917
817.004	277.86274
817.189	232.1124
817.374	310.42888
817.558	198.44901
817.743	233.20526
817.927	185.0327
818.111	190.83146
818.296	151.32182
818.48	200.72706
818.665	135.565
818.849	178.42237
819.034	125.58252
819.218	148.07511
819.402	113.19589
819.587	143.59012
819.771	67.03795
819.955	136.7748
820.14	91.85003
820.324	136.94706
820.508	148.12591
820.692	112.12821
820.877	77.21253
821.061	62.56608
821.245	36.69695
821.429	78.41488
821.613	86.29508
821.798	81.74707
821.982	56.95206
822.166	87.47402
822.35	52.50675
822.534	52.50675
822.718	113.31272
822.902	73.8845
823.086	33.33417
823.27	61.45804
823.454	38.98984
823.638	50.23506
823.822	36.75343
824.006	34.4603
824.19	65.99719
824.374	60.39571
824.558	38.99886
824.742	24.32359
824.926	59.25832
825.11	25.45202
825.294	6.29075
825.477	62.67652
825.661	18.69561
825.845	35.60005
826.029	102.11766
826.213	58.13026
826.396	19.82489
826.58	10.8042
826.764	15.31201
826.948	89.66694
827.131	28.86034
827.315	-12.8768
827.499	93.06672
827.682	53.64526
827.866	63.7563
828.05	59.26287
828.233	26.59183
828.417	34.46162
828.6	98.72993
828.784	59.2424
828.967	61.5004
829.151	73.90151
829.335	35.58502
829.518	50.27954
829.701	19.80207
829.885	55.89575
830.068	50.19278
830.252	43.49617
830.435	29.94748
830.619	66.00985
830.802	9.68222
830.985	36.72794
831.169	31.07582
831.352	54.75265
831.535	61.49568
831.719	44.60549
831.902	38.9584
832.085	57.03514
832.269	38.97934
832.452	24.3096
832.635	-9.49367
832.818	55.90006
833.002	20.93186
833.185	84.06405
833.368	42.37945
833.551	97.42913
833.734	36.7082
833.917	56.99568
834.1	33.34954
834.284	46.86465
834.467	25.46672
834.65	76.14934
834.833	82.9449
835.016	106.60652
835.199	57.011
835.382	97.49604
835.565	11.91582
835.748	106.54517
835.931	75.05863
836.114	41.21932
836.297	26.59491
836.479	71.66435
836.662	40.11186
836.845	76.14934
837.028	76.17567
837.211	5.16713
837.394	54.71488
837.577	114.47222
837.759	116.73048
837.942	103.19937
838.125	-4.97303
838.308	61.50512
838.49	43.47111
838.673	90.71552
838.856	62.63795
839.039	55.885
839.221	71.59845
839.404	79.51587
839.587	31.07225
839.769	94.18101
839.952	51.39244
840.134	95.3426
840.317	41.21774
840.499	52.45644
840.682	52.4886
840.865	55.90006
841.047	68.26339
841.23	86.33822
841.412	38.97785
841.595	18.68125
841.777	44.57133
841.959	85.1503
842.142	59.22198
842.324	62.64758
842.507	47.9613
842.689	70.47104
842.871	73.89584
843.054	86.2587
843.236	87.46728
843.418	99.72908
843.601	75.00102
843.783	73.85904
843.965	59.26287
844.147	80.56082
844.33	87.39341
844.512	103.18353
844.694	76.06784
844.876	143.75492
845.059	61.49333
845.241	91.82901
845.423	82.8559
845.605	56.94119
845.787	121.20566
845.969	70.4522
846.151	90.72591
846.333	85.15356
846.515	123.43527
846.697	109.88884
846.879	115.45109
847.061	99.75576
847.243	86.18955
847.425	72.68982
847.607	87.32331
847.789	92.97765
847.971	106.56559
848.153	107.70675
848.335	58.11687
848.517	65.90157
848.699	121.16388
848.881	107.62428
849.062	73.8845
849.244	145.93017
849.426	52.4886
849.608	137.01535
849.789	111.01283
849.971	127.89201
850.153	87.35331
850.335	54.7086
850.516	64.8297
850.698	151.52915
850.88	64.81733
851.061	56.94988
851.243	126.65738
851.425	112.15394
851.606	70.50612
851.788	109.89305
851.969	44.57815
852.151	68.15918
852.333	144.74042
852.514	60.34708
852.696	67.10961
852.877	78.439
853.059	75.00964
853.24	59.2606
853.422	65.94925
853.603	112.20552
853.784	71.58751
853.966	70.51423
854.147	52.48256
854.329	113.25636
854.51	46.86465
854.691	78.2921
854.873	46.8359
855.054	92.98476
855.235	53.57536
855.416	87.40346
855.598	79.52197
855.779	71.63409
855.96	55.84643
856.141	112.05982
856.323	27.68589
856.504	92.99542
856.685	60.38874
856.866	82.90985
857.047	41.22091
857.228	63.75141
857.409	14.1698
857.591	75.00389
857.772	33.33417
857.953	51.37465
858.134	52.45644
858.315	44.57985
858.496	78.42995
858.677	96.44942
858.858	63.73675
859.039	88.62372
859.22	42.33226
859.401	31.07701
859.582	40.09644
859.762	69.38617
859.943	80.62236
860.124	67.17664
860.305	25.44615
860.486	45.71921
860.667	11.9222
860.848	75.00964
861.028	35.60965
861.209	62.64035
861.39	109.90987
861.571	86.20927
861.751	64.86442
861.932	70.57393
862.113	-3.8492
862.293	62.59715
862.474	10.79756
862.655	78.36381
862.835	41.23674
863.016	54.77582
863.197	53.60612
863.377	20.9431
863.558	9.67998
863.738	32.20923
863.919	67.15338
864.099	69.39416
864.28	32.22658
864.46	49.11866
864.641	111.16638
864.821	56.99787
865.002	68.34758
865.182	129.1491
865.363	64.89927
865.543	46.85745
865.723	52.49464
865.904	95.2294
866.084	72.70923
866.264	-9.48818
866.445	42.37455
866.625	70.50341
866.805	79.51283
866.986	45.71921
867.166	88.53174
867.346	68.31329
867.526	33.32394
867.707	17.56722
867.887	67.14048
868.067	103.20333
868.247	27.70927
868.427	31.09014
868.607	40.08722
868.788	47.976
868.968	58.15038
869.148	41.24786
869.328	68.26339
869.508	41.2304
869.688	45.71046
869.868	47.99442
870.048	33.33289
870.228	58.09239
870.408	90.87576
870.588	59.28568
870.768	28.8392
870.948	11.9277
871.128	49.15461
871.307	15.31025
871.487	88.56573
871.667	14.19707
871.847	67.13276
872.027	35.60965
872.207	27.68907
872.387	44.60207
872.566	44.61749
872.746	66.04792
872.926	42.35987
873.106	42.35662
873.285	52.5371
873.465	27.69863
873.645	53.60817
873.824	72.80405
874.004	-46.69567
874.184	72.82929
874.363	32.22658
874.543	42.33874
874.723	44.58839
874.902	44.63984
875.082	60.45864
875.261	31.08656
875.441	8.54547
875.62	22.08411
875.8	-10.61324
875.979	35.60965
876.159	-10.6112
876.338	-15.12559
876.518	4.03999
876.697	23.20064
876.876	-24.14179
877.056	15.32442
877.235	35.59048
877.415	50.29313
877.594	25.44127
877.773	124.60228
877.953	70.56305
878.132	60.39571
878.311	22.08837
878.49	39.01392
878.67	23.21405
878.849	78.44806
879.028	-10.61406
879.207	79.62921
879.387	6.29632
879.566	-7.24223
879.745	33.33929
879.924	70.62304
880.103	-17.379
880.282	27.72849
880.461	24.34515
880.64	-0.46955
880.819	11.93919
880.998	-15.13026
881.178	2.91362
881.357	68.28962
881.536	-10.60957
881.715	-19.63282
881.893	-62.54296
882.072	-12.88477
882.251	16.45228
882.43	44.61749
882.609	25.46967
882.788	-17.38436
882.967	94.22446
883.146	50.31844
883.325	61.54298
883.503	-17.3857
883.682	2.91587
883.861	-4.97436
884.04	-43.30745
884.219	14.18066
884.397	14.19487
884.576	-3.85186
884.755	5.16653
884.933	0.65776
885.112	-27.51876
885.291	-1.59705
885.469	13.07414
885.648	-11.74777
885.827	49.13188
886.005	-4.98202
886.184	-18.49315
886.363	-7.23328
886.541	24.34515
886.72	27.74889
886.898	-11.74687
887.077	42.38272
887.255	6.29293
887.434	19.82031
887.612	0.65748
887.791	28.86927
887.969	60.45162
888.147	-3.85439
888.326	-6.10755
888.504	15.31084
888.682	70.58754
888.861	29.97743
889.039	54.77793
889.218	43.5247
889.396	-0.47009
889.574	27.71673
889.752	22.08411
889.931	32.24523
890.109	8.55172
890.287	9.68185
890.465	16.46312
890.643	27.73492
890.822	35.60965
891	19.82871
891.178	0.65753
891.356	6.29583
891.534	-33.19432
891.712	29.97512
891.89	25.47852
892.068	0.65827
892.247	-2.72548
892.425	54.77582
892.603	35.62476
892.781	-15.12036
892.959	-32.03312
893.137	-8.3649
893.314	11.94243
893.492	-36.59305
893.67	28.84808
893.848	23.20957
894.026	-2.72601
894.204	-14.00497
894.382	-0.47017
894.56	2.91216
894.738	11.93137
894.915	7.4276
895.093	25.47065
895.271	-9.48453
895.449	-7.23802
895.626	7.42388
895.804	0.65738
895.982	-8.36813
896.16	11.93321
896.337	-21.89152
896.515	29.98437
896.693	8.55238
896.87	36.72794
897.048	9.67886
897.225	33.37528
897.403	-14.0028
897.581	55.92809
897.758	5.16713
897.936	48.01659
898.113	-6.11108
898.291	-1.59816
898.468	-30.9303
898.646	-6.10543
898.823	16.43643
899.001	-17.38369
899.178	-11.74325
899.356	9.67923
899.533	-39.96174
899.71	-18.51735
899.888	-18.50664
900.065	-34.33005
900.242	-16.26394
900.42	-3.85468
900.597	-41.05125
900.774	35.61788
900.952	-73.84326
901.129	13.05949
901.306	-23.03988
901.483	-1.59791
901.661	-1.59927
901.838	-26.41053
902.015	5.17192
902.192	-62.51392
902.369	14.20146
902.546	-29.80387
902.723	19.83637
902.901	-9.49367
903.078	-12.88427
903.255	-1.59983
903.432	-1.59699
903.609	-0.47022
903.786	22.0807
903.963	-18.53817
904.14	5.16832
904.317	-2.72464
904.494	-18.50807
904.671	43.52975
904.848	8.55106
905.024	35.6482
905.201	-6.10849
905.378	-28.65739
905.555	13.06504
905.732	16.44974
905.909	-11.74415
906.086	-69.30381
906.262	7.42732
906.439	-14.00605
906.616	11.93459
906.793	11.93827
906.969	-70.44178
907.146	-12.8763
907.323	24.34891
907.5	-6.11156
907.676	6.29753
907.853	-57.99266
908.03	-50.10996
908.206	-19.65101
908.383	7.4233
908.559	-32.06528
908.736	-3.85305
908.912	58.17728
909.089	9.69123
909.266	-0.46982
909.442	27.71353
909.619	-9.49074
909.795	-30.94347
909.972	9.68334
910.148	-36.57179
910.324	-19.64417
910.501	5.17152
910.677	-9.4955
910.854	17.57806
911.03	18.69633
911.206	-14.00713
911.383	-44.47335
911.559	13.06705
911.735	-51.23517
911.912	-35.45116
912.088	41.27175
912.264	20.96734
912.44	34.51749
912.617	-51.21934
912.793	-50.12159
912.969	-8.36522
913.145	-17.38168
913.321	-11.74551
913.498	48.05371
913.674	-46.73898
913.85	-68.17142
914.026	57.02197
914.202	-9.4933
914.378	-48.97326
914.554	-16.25892
914.73	20.96086
914.906	-46.76619
915.082	-56.83737
915.258	-50.14103
915.434	-15.14313
915.61	-28.68508
915.786	-21.90843
915.962	14.19707
916.138	-32.06528
916.314	-51.22923
916.49	-38.85525
916.665	-15.12967
916.841	22.09606
917.017	-3.85752
917.193	-15.13551
917.369	-4.98452
917.545	5.17212
917.72	-2.72517
917.896	-38.82365
918.072	-53.45839
918.247	32.23403
918.423	-6.11156
918.599	16.4491
918.775	-24.16042
918.95	-29.81426
919.126	-46.73355
919.301	-27.53041
919.477	-10.61569
919.653	-6.11156
919.828	-7.24054
920.004	-15.14196
920.179	-27.52829
920.355	-19.64949
920.53	-21.89827
920.706	-29.78891
920.881	-2.72506
921.057	-35.4443
921.232	16.44656
921.408	6.29511
921.583	-41.0276
921.759	-39.9463
921.934	-39.93705
922.109	11.93919
922.285	-27.53678
922.46	19.82871
922.635	-10.63006
922.811	25.46475
922.986	-53.50796
923.161	-70.40908
923.336	-33.1879
923.512	-17.39712
923.687	-4.98394
923.862	19.84097
924.037	-10.62882
924.212	-36.54359
924.388	-8.36071
924.563	-61.41793
924.738	-4.98086
924.913	-60.21364
925.088	-6.11298
925.263	24.34233
925.438	-34.33405
925.613	-25.28023
925.788	-28.6607
925.963	-39.95711
926.138	-51.26494
926.313	-30.91716
926.488	-54.59527
926.663	7.42818
926.838	-1.59859
927.013	-19.6419
927.188	4.04499
927.363	-28.68842
927.538	-2.72422
927.713	-9.49147
927.888	-19.65101
928.062	-32.04793
928.237	2.91384
928.412	7.42818
928.587	0.65784
928.761	18.72019
928.936	-14.01038
929.111	-41.06548
929.286	27.72849
929.46	-27.53572
929.635	-8.36071
929.81	17.58486
929.984	1.78781
930.159	24.33857
930.334	19.85329
930.508	-25.28609
930.683	-45.57084
930.857	-14.00443
931.032	-38.81017
931.206	-6.1125
931.381	-45.61312
931.556	-32.04299
931.73	-33.19432
931.904	-58.01733
932.079	-23.02031
932.253	-43.34087
932.428	-15.12967
932.602	-41.08134
932.777	-11.75004
932.951	-28.66955
933.125	18.7057
933.3	14.20202
933.474	7.42273
933.648	13.07161
933.823	-14.01255
933.997	-25.30666
934.171	-8.36361
934.345	-44.4768
934.52	9.67327
934.694	-18.51449
934.868	-19.64645
935.042	-63.57705
935.217	19.82871
935.391	-8.36457
935.565	-25.28121
935.739	-4.98298
935.913	-30.92791
936.087	52.5635
936.261	-37.67597
936.435	-38.81615
936.609	19.82107
936.783	-0.47027
936.957	-19.63735
937.131	10.80462
937.305	-26.41053
937.479	-44.46132
937.653	40.14747
937.827	-18.51092
938.001	19.82184
938.175	18.70282
938.349	-46.73717
938.523	-38.83266
938.697	-70.42269
938.87	-12.88577
939.044	-15.11803
939.218	-55.77786
939.392	16.45801
939.566	8.55469
939.739	14.19817
939.913	-4.9799
940.087	-17.39982
940.261	2.91373
940.434	-37.71969
940.608	26.60827
940.782	20.94391
940.955	-10.62717
941.129	-33.17892
941.302	-39.97568
941.476	-45.55331
941.65	-3.85305
941.823	-14.00497
941.997	-19.6571
942.17	-23.04256
942.344	-8.36425
942.517	-16.2539
942.691	4.04389
942.864	-86.15198
943.038	-6.11725
943.211	-39.94167
943.385	-21.90419
943.558	8.55502
943.731	-52.34206
943.905	29.99249
944.078	-68.18463
944.251	-2.7237
944.425	-21.88646
944.598	-18.51735
944.771	0.65837
944.945	15.31378
945.118	-6.11061
945.291	-17.38838
945.464	-26.40645
945.638	23.21853
945.811	-9.49734
945.984	-14.0028
946.157	-41.10042
946.33	-32.05164
946.503	-33.19818
946.677	-6.11061
946.85	28.85811
947.023	-30.93748
947.196	-24.15296
947.369	-19.63584
947.542	-25.30666
947.715	26.59593
947.888	-58.01059
948.061	-26.41971
948.234	18.70643
948.407	-69.29576
948.58	-37.67162
948.753	-32.06156
948.926	-23.04971
949.099	-36.59163
949.271	-26.41563
949.444	-2.72717
949.617	22.07645
949.79	-24.15016
949.963	17.57399
950.136	1.7867
950.308	7.42245
950.481	8.558
950.654	-4.98163
950.827	-6.11014
950.999	-16.26206
951.172	-26.44432
951.345	-35.4594
951.517	-30.9615
951.69	-47.85915
951.863	-0.46998
952.035	-82.88346
952.208	8.55535
952.381	-17.39915
952.553	-34.31013
952.726	-1.59754
952.898	11.93413
953.071	-9.4966
953.243	19.83944
953.416	-30.94707
953.588	-55.73256
953.761	-4.98337
953.933	-2.72527
954.106	-9.4977
954.278	-2.72791
954.45	-20.78452
954.623	-60.24381
954.795	-24.1483
954.967	-32.06156
955.14	-43.35262
955.312	-8.36878
955.484	-37.68905
955.657	-1.59878
955.829	-14.00388
956.001	-52.37037
956.173	-35.45253
956.346	-39.95247
956.518	-18.53529
956.69	-18.50949
956.862	-11.74777
957.034	33.37399
957.207	-12.87829
957.379	-16.26772
957.551	-33.21493
957.723	26.60724
957.895	2.91485
958.067	-1.59773
958.239	31.10331
958.411	-23.03097
958.583	-7.24363
958.755	7.42388
958.927	-34.31278
959.099	-11.75004
959.271	-21.91862
959.443	-26.41767
959.615	17.59305
959.787	-29.81657
959.959	16.44593
960.13	-28.68508
960.302	42.41385
960.474	16.44403
960.646	27.73064
960.818	-13.99957
960.99	33.37141
961.161	-4.98452
961.333	-11.74144
961.505	14.20532
961.677	4.04108
961.848	-34.31145
962.02	-78.32817
962.192	19.83254
962.363	4.04609
962.535	1.78532
962.707	-57.99938
962.878	-19.64341
963.05	-17.39847
963.221	11.92907
963.393	-24.16509
963.564	-18.51163
963.736	-56.84393
963.907	-48.996
964.079	-50.13714
964.25	-19.64038
964.422	-28.67398
964.593	-19.66167
964.765	-0.47037
964.936	17.58554
965.108	-4.98549
965.279	-12.88078
965.45	5.16992
965.622	-30.92074
965.793	-26.41767
965.964	-36.58312
966.136	-41.08451
966.307	-36.5817
966.478	-12.88178
966.65	5.17432
966.821	13.05497
966.992	-27.53997
967.163	-12.87382
967.334	-1.59952
967.506	5.17072
967.677	-0.47026
967.848	14.20477
968.019	62.68377
968.19	-26.4238
968.361	8.55172
968.532	5.16952
968.703	-3.85603
968.874	-27.55169
969.045	32.22534
969.216	-45.58139
969.387	-1.5994
969.558	-45.5849
969.729	-46.75348
969.9	-17.38168
970.071	-30.94227
970.242	-28.68397
970.413	-34.32872
970.584	34.51214
970.755	-2.72475
970.926	-9.50249
971.097	-30.93389
971.267	-71.54404
971.438	-8.3691
971.609	-7.2383
971.78	-0.46973
971.951	-0.47017
972.121	-6.10943
972.292	-36.57179
972.463	-35.43882
972.633	-25.31158
972.804	-47.83512
972.975	-2.72675
973.145	-19.66091
973.316	0.65791
973.487	-53.51003
973.657	-27.54529
973.828	35.6069
973.998	-12.88777
974.169	-4.97894
974.339	16.45674
974.51	-6.10967
974.68	-47.88885
974.851	-16.2489
975.021	-46.71909
975.192	6.29293
975.362	-79.44887
975.533	-10.61978
975.703	-64.80769
975.874	-1.59865
976.044	49.13188
976.214	-1.59613
976.385	-39.92321
976.555	-23.02919
976.725	24.30774
976.896	-20.76366
977.066	31.12374
977.236	-3.85528
977.406	-24.15575
977.577	-11.7596
977.747	-2.72727
977.917	-25.29
978.087	-44.45789
978.257	-6.10802
978.427	-38.8462
978.598	-30.91359
978.768	35.62889
978.938	-14.0028
979.108	-70.40636
979.278	5.17072
979.448	-42.19232
979.618	-0.46998
979.788	13.06756
979.958	-7.2411
980.128	-10.62923
980.298	-26.40747
980.468	-19.65253
980.638	-15.13201
980.808	-1.59859
980.978	-50.09061
981.148	8.56365
981.317	28.87486
981.487	-11.75322
981.657	49.19457
981.827	-20.77247
981.997	14.20146
982.167	-16.26331
982.336	-11.75186
982.506	-27.55382
982.676	-21.89658
982.846	-54.63325
983.015	1.78319
983.185	-12.88427
983.355	-30.92193
983.524	-18.51235
983.694	26.59799
983.864	-15.13844
984.033	-17.4032
984.203	9.67737
984.372	9.67625
984.542	-2.7277
984.712	11.93643
984.881	58.16382
985.051	-24.18103
985.22	-21.91182
985.39	-50.12159
985.559	37.92623
985.728	-17.39107
985.898	-12.87332
986.067	23.21584
986.237	-37.69342
986.406	-16.2608
986.576	-33.17508
986.745	-7.2383
986.914	-44.48196
987.084	-27.55489
987.253	18.69921
987.422	-6.1066
987.591	-46.72993
987.761	-2.72611
987.93	-60.27642
988.099	-24.15389
988.268	-0.47009
988.438	16.44783
988.607	-34.31543
988.776	-18.51592
988.945	0.65774
989.114	31.11893
989.283	-21.89996
989.452	-42.21678
989.621	-77.1387
989.791	-38.81915
989.96	-55.74979
990.129	-23.04435
990.298	-53.51003
990.467	-52.3643
990.636	-29.80156
990.805	-4.9851
990.974	-67.01069
991.142	-29.78891
991.311	-48.95625
991.48	8.55701
991.649	-7.2383
991.818	8.55833
991.987	-44.46819
992.156	-11.74687
992.325	7.42617
992.493	-14.0093
992.662	11.93735
992.831	19.82107
993	-20.78452
993.168	17.58622
993.337	31.12133
993.506	-38.83266
993.675	-23.04345
993.843	9.67923
994.012	0.65817
994.181	-14.01799
994.349	0.65809
994.518	-17.38704
994.686	-18.53529
994.855	9.68409
995.024	-23.03988
995.192	-9.4944
995.361	-39.94322
995.529	9.68185
995.698	15.33631
995.866	8.55403
996.035	29.97281
996.203	-18.51163
996.371	1.78594
996.54	-42.20698
996.708	-14.00011
996.877	17.58486
997.045	-55.71323
997.213	-45.62374
997.382	-35.47179
997.55	-9.4922
997.718	2.91339
997.887	-46.72632
998.055	-53.51003
998.223	45.7667
998.391	-14.00551
998.56	26.61136
998.728	-15.13903
998.896	0.65753
999.064	-35.46353
999.232	10.81004
999.401	-47.87027
999.569	-2.72876
999.737	-9.4933
999.905	-4.98356
1000.073	-45.59723
1000.241	-14.01255
1000.409	-1.59946
1000.577	9.68859
1000.745	-11.74913
1000.913	-23.03899
1001.081	-30.92313
1001.249	19.85098
1001.417	-26.41767
1001.585	-7.23998
1001.753	16.45355
1001.921	-32.07398
1002.089	-53.43373
1002.256	-37.70362
1002.424	-11.74053
1002.592	63.85471
1002.76	-29.81888
1002.928	8.558
1003.096	-21.89489
1003.263	-7.23719
1003.431	29.99829
1003.599	0.65801
1003.767	-41.10361
1003.934	-15.13201
1004.102	-0.47022
1004.27	-51.23715
1004.437	-8.36264
1004.605	2.91305
1004.773	-19.65177
1004.94	-11.75368
1005.108	-17.39107
1005.275	-9.49403
1005.443	9.67811
1005.61	18.70137
1005.778	0.65769
1005.945	-20.77327
1006.113	-13.99579
1006.28	-32.0628
1006.448	-19.64569
1006.615	-14.01364
1006.783	0.65824
1006.95	1.78587
1007.118	-53.50589
1007.285	-14.02781
1007.452	-21.89236
1007.62	-12.88328
1007.787	9.68522
1007.954	-15.13376
1008.122	-32.0467
1008.289	25.47458
1008.456	33.3908
1008.623	-12.87581
1008.791	11.94845
1008.958	4.04186
1009.125	13.07465
1009.292	-16.26709
1009.459	-28.69065
1009.627	-51.22725
1009.794	13.06857
1009.961	-0.46998
1010.128	-18.50095
1010.295	6.29414
1010.462	11.94335
1010.629	-49.00169
1010.796	-12.87979
1010.963	1.78552
1011.13	-18.52379
1011.297	-19.63811
1011.464	-9.50065
1011.631	-55.74332
1011.798	-1.59816
1011.965	-3.85483
1012.132	-44.4596
1012.299	20.96248
1012.466	-10.61569
1012.633	-0.46993
1012.799	-20.77167
1012.966	-28.69065
1013.133	-17.39645
1013.3	-70.41724
1013.467	-20.78372
1013.633	-12.88178
1013.8	29.98669
1013.967	-0.47029
1014.134	-4.98163
1014.3	5.16812
1014.467	-8.3704
1014.634	-47.84066
1014.8	-15.13493
1014.967	-6.10919
1015.134	-33.16485
1015.3	-24.15296
1015.467	-8.3649
1015.633	-35.42651
1015.8	34.52553
1015.966	-6.10802
1016.133	14.21029
1016.3	-23.06047
1016.466	26.61754
1016.632	13.06403
1016.799	-2.72391
1016.965	-21.90335
1017.132	43.52806
1017.298	-9.49147
1017.465	0.65837
1017.631	46.91707
1017.797	-7.23635
1017.964	-10.62224
1018.13	7.4233
1018.296	5.16832
1018.463	-19.65938
1018.629	-9.49991
1018.795	-28.67066
1018.961	2.91395
1019.128	-14.01418
1019.294	20.97547
1019.46	4.04593
1019.626	14.19049
1019.792	-19.6571
1019.959	24.33763
1020.125	-42.21841
1020.291	1.78642
1020.457	24.33482
1020.623	-51.19173
1020.789	-6.11061
1020.955	-19.63131
1021.121	-48.9506
1021.287	-3.85334
1021.453	-37.71092
1021.619	39.00187
1021.785	-4.98067
1021.951	-7.24588
1022.117	16.44086
1022.283	-34.32606
1022.449	6.29778
1022.615	-14.0093
1022.781	1.78601
1022.946	-53.51833
1023.112	-64.81523
1023.278	6.30363
1023.444	-6.11037
1023.61	-34.33804
1023.775	-12.8763
1023.941	-24.14644
1024.107	-30.93988
1024.273	-20.78614
1024.438	-7.24195
1024.604	-6.11037
1024.77	0.65822
1024.935	-16.26583
1025.101	39.00187
1025.267	-7.23328
1025.432	14.19432
1025.598	-14.00064
1025.763	26.61445
1025.929	-15.13786
1026.095	-4.9853
1026.26	-2.72727
1026.426	-7.24279
1026.591	11.94428
1026.757	15.32324
1026.922	-2.7259
1027.087	-15.14255
1027.253	-30.94707
1027.418	-25.30666
1027.584	-79.53216
1027.749	20.96653
1027.914	-48.98083
1028.08	6.29924
1028.245	-35.4539
1028.41	-33.20977
1028.576	-15.13727
1028.741	11.93689
1028.906	-42.23969
1029.072	-54.60791
1029.237	-8.36748
1029.402	-36.57038
1029.567	-56.87905
1029.732	-34.30351
1029.898	-25.29979
1030.063	23.24013
1030.228	-12.86837
1030.393	2.91384
1030.558	-15.13259
1030.723	19.84713
1030.888	-67.07295
1031.053	-16.28415
1031.218	17.58759
1031.383	-19.65025
1031.548	-4.98048
1031.713	-15.13551
1031.878	-32.04175
1032.043	-6.10943
1032.208	-69.25029
1032.373	8.55933
1032.538	-6.10778
1032.703	-21.90589
1032.868	-1.59791
1033.033	-35.43335
1033.198	4.0442
1033.362	-34.34071
1033.527	19.8356
1033.692	-43.34423
1033.857	-10.62512
1034.021	-79.43044
1034.186	-53.48107
1034.351	37.89533
1034.516	-25.3047
1034.68	0.65794
1034.845	5.16832
1035.01	15.33333
1035.174	-11.75504
1035.339	-23.02564
1035.504	-26.41869
1035.668	15.31142
1035.833	-43.33083
1035.997	-21.92799
1036.162	6.29705
1036.326	-10.6206
1036.491	-11.75595
1036.655	-70.37919
1036.82	27.76075
1036.984	44.68998
1037.149	27.70927
1037.313	7.4276
1037.478	-26.38513
1037.642	1.78628
1037.807	24.35551
1037.971	10.81422
1038.135	-15.12967
1038.3	-30.95308
1038.464	48.04256
1038.628	-9.50065
1038.792	-6.10825
1038.957	-17.38704
1039.121	-63.62847
1039.285	-8.37952
1039.449	-32.05536
1039.614	7.42388
1039.778	36.75485
1039.942	36.75627
1040.106	32.25147
1040.27	-25.29098
1040.434	-34.3234
1040.599	-23.03988
1040.763	-7.2411
1040.927	1.78829
1041.091	11.93459
1041.255	-27.57308
1041.419	-67.02621
1041.583	-16.25704
1041.747	-44.45446
1041.911	-20.77488
1042.075	17.58146
1042.239	-35.47868
1042.403	-83.95222
1042.567	-23.03364
1042.731	-25.30372
1042.894	-27.52088
1043.058	14.21029
1043.222	11.94289
1043.386	9.6811
1043.55	-39.96948
1043.714	19.84713
1043.877	-27.53997
1044.041	-24.17821
1044.205	13.06908
1044.369	-19.65481
1044.532	-26.40136
1044.696	-44.46476
1044.86	-45.59371
1045.023	-11.74777
1045.187	-23.0381
1045.351	-23.03186
1045.514	-17.39376
1045.678	-15.13551
1045.841	2.91418
