Created as New Dataset,Sample 002 By Administrator Date Tuesday, October 14 2025
cm-1,A
4000.00,-0.0006
3999.00,-0.0005
3998.00,-0.0005
3997.00,-0.0005
3996.00,-0.0005
3995.00,-0.0005
3994.00,-0.0005
3993.00,-0.0005
3992.00,-0.0005
3991.00,-0.0005
3990.00,-0.0005
3989.00,-0.0005
3988.00,-0.0006
3987.00,-0.0006
3986.00,-0.0006
3985.00,-0.0006
3984.00,-0.0006
3983.00,-0.0006
3982.00,-0.0006
3981.00,-0.0005
3980.00,-0.0004
3979.00,-0.0004
3978.00,-0.0004
3977.00,-0.0004
3976.00,-0.0005
3975.00,-0.0005
3974.00,-0.0006
3973.00,-0.0006
3972.00,-0.0006
3971.00,-0.0005
3970.00,-0.0005
3969.00,-0.0004
3968.00,-0.0004
3967.00,-0.0004
3966.00,-0.0004
3965.00,-0.0004
3964.00,-0.0004
3963.00,-0.0005
3962.00,-0.0005
3961.00,-0.0005
3960.00,-0.0005
3959.00,-0.0005
3958.00,-0.0006
3957.00,-0.0006
3956.00,-0.0006
3955.00,-0.0006
3954.00,-0.0006
3953.00,-0.0006
3952.00,-0.0006
3951.00,-0.0006
3950.00,-0.0005
3949.00,-0.0005
3948.00,-0.0004
3947.00,-0.0003
3946.00,-0.0004
3945.00,-0.0006
3944.00,-0.0007
3943.00,-0.0007
3942.00,-0.0005
3941.00,-0.0004
3940.00,-0.0005
3939.00,-0.0005
3938.00,-0.0004
3937.00,-0.0003
3936.00,-0.0003
3935.00,-0.0003
3934.00,-0.0004
3933.00,-0.0004
3932.00,-0.0004
3931.00,-0.0006
3930.00,-0.0006
3929.00,-0.0006
3928.00,-0.0006
3927.00,-0.0008
3926.00,-0.0009
3925.00,-0.0007
3924.00,-0.0005
3923.00,-0.0003
3922.00,-0.0003
3921.00,-0.0003
3920.00,-0.0001
3919.00,-0.0001
3918.00,-0.0002
3917.00,-0.0003
3916.00,-0.0003
3915.00,-0.0004
3914.00,-0.0005
3913.00,-0.0005
3912.00,-0.0005
3911.00,-0.0005
3910.00,-0.0005
3909.00,-0.0005
3908.00,-0.0006
3907.00,-0.0007
3906.00,-0.0007
3905.00,-0.0004
3904.00,0.0002
3903.00,0.0007
3902.00,0.0006
3901.00,0.0001
3900.00,-0.0002
3899.00,-0.0003
3898.00,-0.0003
3897.00,-0.0003
3896.00,-0.0003
3895.00,-0.0002
3894.00,-0.0003
3893.00,-0.0005
3892.00,-0.0007
3891.00,-0.0004
3890.00,0.0000
3889.00,0.0003
3888.00,0.0002
3887.00,0.0001
3886.00,0.0002
3885.00,0.0002
3884.00,-0.0000
3883.00,-0.0006
3882.00,-0.0010
3881.00,-0.0010
3880.00,-0.0006
3879.00,-0.0002
3878.00,-0.0001
3877.00,-0.0003
3876.00,-0.0006
3875.00,-0.0005
3874.00,-0.0001
3873.00,0.0002
3872.00,0.0001
3871.00,0.0000
3870.00,0.0003
3869.00,0.0006
3868.00,0.0005
3867.00,-0.0000
3866.00,-0.0002
3865.00,0.0001
3864.00,0.0002
3863.00,-0.0001
3862.00,-0.0001
3861.00,0.0000
3860.00,0.0001
3859.00,-0.0001
3858.00,-0.0004
3857.00,-0.0006
3856.00,-0.0007
3855.00,-0.0004
3854.00,-0.0001
3853.00,0.0003
3852.00,0.0006
3851.00,0.0006
3850.00,0.0005
3849.00,0.0005
3848.00,0.0005
3847.00,0.0003
3846.00,0.0000
3845.00,-0.0001
3844.00,-0.0002
3843.00,-0.0001
3842.00,0.0001
3841.00,0.0000
3840.00,-0.0001
3839.00,-0.0001
3838.00,-0.0001
3837.00,-0.0002
3836.00,-0.0002
3835.00,-0.0001
3834.00,-0.0001
3833.00,-0.0001
3832.00,-0.0001
3831.00,0.0000
3830.00,0.0001
3829.00,-0.0001
3828.00,-0.0004
3827.00,-0.0004
3826.00,0.0000
3825.00,0.0004
3824.00,0.0005
3823.00,0.0003
3822.00,0.0002
3821.00,0.0004
3820.00,0.0006
3819.00,0.0005
3818.00,0.0001
3817.00,0.0001
3816.00,0.0003
3815.00,0.0004
3814.00,0.0002
3813.00,-0.0002
3812.00,-0.0001
3811.00,0.0003
3810.00,0.0006
3809.00,0.0004
3808.00,0.0003
3807.00,0.0004
3806.00,0.0008
3805.00,0.0008
3804.00,0.0004
3803.00,0.0001
3802.00,0.0001
3801.00,0.0002
3800.00,0.0001
3799.00,-0.0002
3798.00,-0.0004
3797.00,-0.0003
3796.00,-0.0001
3795.00,-0.0001
3794.00,-0.0003
3793.00,-0.0004
3792.00,-0.0004
3791.00,-0.0004
3790.00,-0.0004
3789.00,-0.0005
3788.00,-0.0005
3787.00,-0.0005
3786.00,-0.0006
3785.00,-0.0006
3784.00,-0.0005
3783.00,-0.0004
3782.00,-0.0005
3781.00,-0.0007
3780.00,-0.0007
3779.00,-0.0006
3778.00,-0.0004
3777.00,-0.0004
3776.00,-0.0005
3775.00,-0.0003
3774.00,-0.0000
3773.00,-0.0000
3772.00,-0.0002
3771.00,-0.0002
3770.00,-0.0000
3769.00,0.0000
3768.00,-0.0001
3767.00,-0.0003
3766.00,-0.0002
3765.00,-0.0000
3764.00,0.0001
3763.00,0.0000
3762.00,-0.0002
3761.00,-0.0002
3760.00,-0.0002
3759.00,-0.0002
3758.00,-0.0001
3757.00,0.0001
3756.00,0.0003
3755.00,0.0005
3754.00,0.0009
3753.00,0.0016
3752.00,0.0022
3751.00,0.0023
3750.00,0.0022
3749.00,0.0022
3748.00,0.0020
3747.00,0.0011
3746.00,0.0002
3745.00,-0.0000
3744.00,0.0004
3743.00,0.0008
3742.00,0.0010
3741.00,0.0011
3740.00,0.0016
3739.00,0.0020
3738.00,0.0018
3737.00,0.0015
3736.00,0.0013
3735.00,0.0011
3734.00,0.0008
3733.00,0.0006
3732.00,0.0007
3731.00,0.0007
3730.00,0.0006
3729.00,0.0005
3728.00,0.0005
3727.00,0.0005
3726.00,0.0004
3725.00,0.0001
3724.00,-0.0002
3723.00,-0.0003
3722.00,-0.0003
3721.00,-0.0002
3720.00,-0.0003
3719.00,-0.0003
3718.00,-0.0002
3717.00,0.0001
3716.00,0.0004
3715.00,0.0006
3714.00,0.0008
3713.00,0.0011
3712.00,0.0009
3711.00,0.0005
3710.00,0.0002
3709.00,0.0001
3708.00,0.0001
3707.00,0.0001
3706.00,0.0001
3705.00,0.0000
3704.00,-0.0002
3703.00,-0.0005
3702.00,-0.0006
3701.00,-0.0005
3700.00,-0.0004
3699.00,-0.0004
3698.00,-0.0003
3697.00,-0.0002
3696.00,-0.0001
3695.00,-0.0002
3694.00,-0.0003
3693.00,-0.0002
3692.00,-0.0000
3691.00,0.0001
3690.00,0.0002
3689.00,0.0004
3688.00,0.0006
3687.00,0.0005
3686.00,0.0004
3685.00,0.0002
3684.00,0.0002
3683.00,0.0003
3682.00,0.0001
3681.00,-0.0001
3680.00,0.0002
3679.00,0.0007
3678.00,0.0012
3677.00,0.0013
3676.00,0.0013
3675.00,0.0012
3674.00,0.0012
3673.00,0.0009
3672.00,0.0007
3671.00,0.0008
3670.00,0.0008
3669.00,0.0005
3668.00,0.0003
3667.00,0.0001
3666.00,0.0000
3665.00,0.0000
3664.00,-0.0000
3663.00,-0.0001
3662.00,-0.0003
3661.00,-0.0002
3660.00,0.0000
3659.00,0.0002
3658.00,0.0003
3657.00,0.0002
3656.00,0.0004
3655.00,0.0005
3654.00,0.0005
3653.00,0.0005
3652.00,0.0009
3651.00,0.0015
3650.00,0.0016
3649.00,0.0010
3648.00,0.0005
3647.00,0.0003
3646.00,0.0002
3645.00,0.0000
3644.00,-0.0000
3643.00,-0.0001
3642.00,-0.0002
3641.00,-0.0003
3640.00,-0.0004
3639.00,-0.0004
3638.00,-0.0003
3637.00,-0.0002
3636.00,-0.0002
3635.00,-0.0002
3634.00,0.0001
3633.00,0.0004
3632.00,0.0007
3631.00,0.0010
3630.00,0.0012
3629.00,0.0013
3628.00,0.0011
3627.00,0.0008
3626.00,0.0005
3625.00,0.0004
3624.00,0.0004
3623.00,0.0004
3622.00,0.0001
3621.00,-0.0001
3620.00,-0.0002
3619.00,-0.0002
3618.00,-0.0001
3617.00,0.0001
3616.00,0.0002
3615.00,0.0002
3614.00,0.0003
3613.00,0.0006
3612.00,0.0008
3611.00,0.0008
3610.00,0.0008
3609.00,0.0007
3608.00,0.0005
3607.00,0.0002
3606.00,-0.0000
3605.00,-0.0001
3604.00,-0.0002
3603.00,-0.0002
3602.00,-0.0003
3601.00,-0.0002
3600.00,-0.0002
3599.00,-0.0002
3598.00,-0.0002
3597.00,-0.0002
3596.00,-0.0002
3595.00,-0.0002
3594.00,-0.0002
3593.00,0.0000
3592.00,0.0002
3591.00,0.0003
3590.00,0.0003
3589.00,0.0003
3588.00,0.0001
3587.00,-0.0000
3586.00,-0.0001
3585.00,-0.0001
3584.00,-0.0001
3583.00,-0.0002
3582.00,-0.0003
3581.00,-0.0003
3580.00,-0.0004
3579.00,-0.0004
3578.00,-0.0004
3577.00,-0.0004
3576.00,-0.0003
3575.00,-0.0003
3574.00,-0.0003
3573.00,-0.0002
3572.00,-0.0001
3571.00,0.0001
3570.00,0.0002
3569.00,0.0003
3568.00,0.0003
3567.00,0.0002
3566.00,0.0000
3565.00,-0.0001
3564.00,-0.0002
3563.00,-0.0002
3562.00,-0.0003
3561.00,-0.0003
3560.00,-0.0003
3559.00,-0.0003
3558.00,-0.0003
3557.00,-0.0003
3556.00,-0.0002
3555.00,-0.0003
3554.00,-0.0003
3553.00,-0.0003
3552.00,-0.0003
3551.00,-0.0002
3550.00,-0.0001
3549.00,0.0000
3548.00,0.0001
3547.00,0.0001
3546.00,-0.0000
3545.00,-0.0001
3544.00,-0.0002
3543.00,-0.0003
3542.00,-0.0003
3541.00,-0.0003
3540.00,-0.0003
3539.00,-0.0004
3538.00,-0.0004
3537.00,-0.0004
3536.00,-0.0004
3535.00,-0.0003
3534.00,-0.0003
3533.00,-0.0003
3532.00,-0.0003
3531.00,-0.0004
3530.00,-0.0004
3529.00,-0.0004
3528.00,-0.0002
3527.00,-0.0001
3526.00,-0.0001
3525.00,-0.0001
3524.00,-0.0002
3523.00,-0.0003
3522.00,-0.0003
3521.00,-0.0003
3520.00,-0.0003
3519.00,-0.0003
3518.00,-0.0003
3517.00,-0.0003
3516.00,-0.0003
3515.00,-0.0003
3514.00,-0.0003
3513.00,-0.0003
3512.00,-0.0003
3511.00,-0.0003
3510.00,-0.0003
3509.00,-0.0003
3508.00,-0.0003
3507.00,-0.0003
3506.00,-0.0003
3505.00,-0.0002
3504.00,-0.0002
3503.00,-0.0001
3502.00,-0.0001
3501.00,-0.0001
3500.00,-0.0001
3499.00,-0.0002
3498.00,-0.0003
3497.00,-0.0003
3496.00,-0.0004
3495.00,-0.0004
3494.00,-0.0004
3493.00,-0.0003
3492.00,-0.0003
3491.00,-0.0003
3490.00,-0.0003
3489.00,-0.0003
3488.00,-0.0003
3487.00,-0.0003
3486.00,-0.0003
3485.00,-0.0003
3484.00,-0.0003
3483.00,-0.0003
3482.00,-0.0003
3481.00,-0.0002
3480.00,-0.0002
3479.00,-0.0002
3478.00,-0.0002
3477.00,-0.0002
3476.00,-0.0003
3475.00,-0.0003
3474.00,-0.0003
3473.00,-0.0003
3472.00,-0.0002
3471.00,-0.0002
3470.00,-0.0002
3469.00,-0.0002
3468.00,-0.0002
3467.00,-0.0002
3466.00,-0.0003
3465.00,-0.0003
3464.00,-0.0003
3463.00,-0.0003
3462.00,-0.0003
3461.00,-0.0003
3460.00,-0.0003
3459.00,-0.0003
3458.00,-0.0004
3457.00,-0.0003
3456.00,-0.0003
3455.00,-0.0003
3454.00,-0.0003
3453.00,-0.0003
3452.00,-0.0003
3451.00,-0.0003
3450.00,-0.0003
3449.00,-0.0003
3448.00,-0.0003
3447.00,-0.0003
3446.00,-0.0003
3445.00,-0.0002
3444.00,-0.0003
3443.00,-0.0003
3442.00,-0.0003
3441.00,-0.0003
3440.00,-0.0003
3439.00,-0.0003
3438.00,-0.0002
3437.00,-0.0002
3436.00,-0.0002
3435.00,-0.0002
3434.00,-0.0002
3433.00,-0.0002
3432.00,-0.0002
3431.00,-0.0003
3430.00,-0.0003
3429.00,-0.0003
3428.00,-0.0003
3427.00,-0.0004
3426.00,-0.0004
3425.00,-0.0003
3424.00,-0.0003
3423.00,-0.0003
3422.00,-0.0003
3421.00,-0.0003
3420.00,-0.0003
3419.00,-0.0003
3418.00,-0.0003
3417.00,-0.0003
3416.00,-0.0003
3415.00,-0.0003
3414.00,-0.0003
3413.00,-0.0003
3412.00,-0.0003
3411.00,-0.0003
3410.00,-0.0003
3409.00,-0.0003
3408.00,-0.0003
3407.00,-0.0003
3406.00,-0.0002
3405.00,-0.0002
3404.00,-0.0002
3403.00,-0.0002
3402.00,-0.0002
3401.00,-0.0002
3400.00,-0.0003
3399.00,-0.0003
3398.00,-0.0003
3397.00,-0.0003
3396.00,-0.0003
3395.00,-0.0003
3394.00,-0.0003
3393.00,-0.0003
3392.00,-0.0002
3391.00,-0.0002
3390.00,-0.0002
3389.00,-0.0003
3388.00,-0.0003
3387.00,-0.0004
3386.00,-0.0004
3385.00,-0.0004
3384.00,-0.0004
3383.00,-0.0004
3382.00,-0.0003
3381.00,-0.0003
3380.00,-0.0003
3379.00,-0.0003
3378.00,-0.0003
3377.00,-0.0003
3376.00,-0.0003
3375.00,-0.0003
3374.00,-0.0002
3373.00,-0.0002
3372.00,-0.0002
3371.00,-0.0002
3370.00,-0.0002
3369.00,-0.0002
3368.00,-0.0002
3367.00,-0.0002
3366.00,-0.0003
3365.00,-0.0003
3364.00,-0.0003
3363.00,-0.0003
3362.00,-0.0003
3361.00,-0.0002
3360.00,-0.0002
3359.00,-0.0003
3358.00,-0.0003
3357.00,-0.0003
3356.00,-0.0003
3355.00,-0.0003
3354.00,-0.0003
3353.00,-0.0003
3352.00,-0.0003
3351.00,-0.0003
3350.00,-0.0003
3349.00,-0.0003
3348.00,-0.0003
3347.00,-0.0003
3346.00,-0.0004
3345.00,-0.0003
3344.00,-0.0003
3343.00,-0.0004
3342.00,-0.0004
3341.00,-0.0003
3340.00,-0.0003
3339.00,-0.0003
3338.00,-0.0003
3337.00,-0.0003
3336.00,-0.0003
3335.00,-0.0003
3334.00,-0.0004
3333.00,-0.0003
3332.00,-0.0003
3331.00,-0.0003
3330.00,-0.0003
3329.00,-0.0003
3328.00,-0.0003
3327.00,-0.0003
3326.00,-0.0004
3325.00,-0.0004
3324.00,-0.0004
3323.00,-0.0004
3322.00,-0.0004
3321.00,-0.0004
3320.00,-0.0004
3319.00,-0.0004
3318.00,-0.0003
3317.00,-0.0003
3316.00,-0.0003
3315.00,-0.0003
3314.00,-0.0003
3313.00,-0.0003
3312.00,-0.0003
3311.00,-0.0004
3310.00,-0.0003
3309.00,-0.0003
3308.00,-0.0003
3307.00,-0.0003
3306.00,-0.0003
3305.00,-0.0003
3304.00,-0.0004
3303.00,-0.0004
3302.00,-0.0004
3301.00,-0.0004
3300.00,-0.0003
3299.00,-0.0004
3298.00,-0.0004
3297.00,-0.0003
3296.00,-0.0003
3295.00,-0.0003
3294.00,-0.0003
3293.00,-0.0003
3292.00,-0.0003
3291.00,-0.0003
3290.00,-0.0003
3289.00,-0.0004
3288.00,-0.0004
3287.00,-0.0004
3286.00,-0.0004
3285.00,-0.0004
3284.00,-0.0004
3283.00,-0.0004
3282.00,-0.0004
3281.00,-0.0003
3280.00,-0.0003
3279.00,-0.0003
3278.00,-0.0003
3277.00,-0.0003
3276.00,-0.0003
3275.00,-0.0003
3274.00,-0.0003
3273.00,-0.0003
3272.00,-0.0003
3271.00,-0.0003
3270.00,-0.0003
3269.00,-0.0003
3268.00,-0.0003
3267.00,-0.0004
3266.00,-0.0004
3265.00,-0.0005
3264.00,-0.0005
3263.00,-0.0005
3262.00,-0.0004
3261.00,-0.0004
3260.00,-0.0004
3259.00,-0.0004
3258.00,-0.0004
3257.00,-0.0004
3256.00,-0.0004
3255.00,-0.0004
3254.00,-0.0003
3253.00,-0.0003
3252.00,-0.0003
3251.00,-0.0003
3250.00,-0.0003
3249.00,-0.0003
3248.00,-0.0003
3247.00,-0.0003
3246.00,-0.0003
3245.00,-0.0003
3244.00,-0.0003
3243.00,-0.0003
3242.00,-0.0003
3241.00,-0.0003
3240.00,-0.0004
3239.00,-0.0004
3238.00,-0.0004
3237.00,-0.0004
3236.00,-0.0004
3235.00,-0.0004
3234.00,-0.0003
3233.00,-0.0003
3232.00,-0.0003
3231.00,-0.0004
3230.00,-0.0004
3229.00,-0.0004
3228.00,-0.0004
3227.00,-0.0005
3226.00,-0.0005
3225.00,-0.0005
3224.00,-0.0004
3223.00,-0.0004
3222.00,-0.0004
3221.00,-0.0003
3220.00,-0.0003
3219.00,-0.0003
3218.00,-0.0003
3217.00,-0.0003
3216.00,-0.0003
3215.00,-0.0003
3214.00,-0.0004
3213.00,-0.0004
3212.00,-0.0004
3211.00,-0.0004
3210.00,-0.0004
3209.00,-0.0004
3208.00,-0.0003
3207.00,-0.0004
3206.00,-0.0004
3205.00,-0.0004
3204.00,-0.0004
3203.00,-0.0005
3202.00,-0.0005
3201.00,-0.0005
3200.00,-0.0005
3199.00,-0.0004
3198.00,-0.0004
3197.00,-0.0004
3196.00,-0.0004
3195.00,-0.0004
3194.00,-0.0004
3193.00,-0.0004
3192.00,-0.0004
3191.00,-0.0004
3190.00,-0.0004
3189.00,-0.0004
3188.00,-0.0004
3187.00,-0.0004
3186.00,-0.0004
3185.00,-0.0004
3184.00,-0.0004
3183.00,-0.0004
3182.00,-0.0004
3181.00,-0.0004
3180.00,-0.0004
3179.00,-0.0004
3178.00,-0.0004
3177.00,-0.0004
3176.00,-0.0004
3175.00,-0.0004
3174.00,-0.0004
3173.00,-0.0004
3172.00,-0.0005
3171.00,-0.0005
3170.00,-0.0005
3169.00,-0.0005
3168.00,-0.0005
3167.00,-0.0005
3166.00,-0.0005
3165.00,-0.0004
3164.00,-0.0004
3163.00,-0.0004
3162.00,-0.0004
3161.00,-0.0004
3160.00,-0.0004
3159.00,-0.0005
3158.00,-0.0004
3157.00,-0.0004
3156.00,-0.0004
3155.00,-0.0004
3154.00,-0.0004
3153.00,-0.0004
3152.00,-0.0005
3151.00,-0.0005
3150.00,-0.0005
3149.00,-0.0004
3148.00,-0.0004
3147.00,-0.0004
3146.00,-0.0004
3145.00,-0.0004
3144.00,-0.0004
3143.00,-0.0004
3142.00,-0.0004
3141.00,-0.0004
3140.00,-0.0004
3139.00,-0.0004
3138.00,-0.0004
3137.00,-0.0004
3136.00,-0.0004
3135.00,-0.0004
3134.00,-0.0004
3133.00,-0.0004
3132.00,-0.0004
3131.00,-0.0004
3130.00,-0.0004
3129.00,-0.0004
3128.00,-0.0004
3127.00,-0.0005
3126.00,-0.0005
3125.00,-0.0005
3124.00,-0.0004
3123.00,-0.0004
3122.00,-0.0004
3121.00,-0.0004
3120.00,-0.0004
3119.00,-0.0004
3118.00,-0.0004
3117.00,-0.0004
3116.00,-0.0004
3115.00,-0.0004
3114.00,-0.0004
3113.00,-0.0004
3112.00,-0.0004
3111.00,-0.0004
3110.00,-0.0004
3109.00,-0.0004
3108.00,-0.0004
3107.00,-0.0004
3106.00,-0.0004
3105.00,-0.0004
3104.00,-0.0004
3103.00,-0.0005
3102.00,-0.0005
3101.00,-0.0004
3100.00,-0.0004
3099.00,-0.0004
3098.00,-0.0004
3097.00,-0.0004
3096.00,-0.0004
3095.00,-0.0004
3094.00,-0.0004
3093.00,-0.0004
3092.00,-0.0004
3091.00,-0.0004
3090.00,-0.0004
3089.00,-0.0004
3088.00,-0.0004
3087.00,-0.0004
3086.00,-0.0004
3085.00,-0.0005
3084.00,-0.0005
3083.00,-0.0005
3082.00,-0.0004
3081.00,-0.0004
3080.00,-0.0004
3079.00,-0.0004
3078.00,-0.0004
3077.00,-0.0004
3076.00,-0.0004
3075.00,-0.0004
3074.00,-0.0004
3073.00,-0.0004
3072.00,-0.0005
3071.00,-0.0004
3070.00,-0.0004
3069.00,-0.0004
3068.00,-0.0003
3067.00,-0.0004
3066.00,-0.0004
3065.00,-0.0004
3064.00,-0.0004
3063.00,-0.0004
3062.00,-0.0005
3061.00,-0.0005
3060.00,-0.0005
3059.00,-0.0005
3058.00,-0.0004
3057.00,-0.0004
3056.00,-0.0004
3055.00,-0.0004
3054.00,-0.0005
3053.00,-0.0005
3052.00,-0.0005
3051.00,-0.0005
3050.00,-0.0005
3049.00,-0.0004
3048.00,-0.0005
3047.00,-0.0005
3046.00,-0.0005
3045.00,-0.0005
3044.00,-0.0005
3043.00,-0.0005
3042.00,-0.0005
3041.00,-0.0005
3040.00,-0.0005
3039.00,-0.0004
3038.00,-0.0004
3037.00,-0.0004
3036.00,-0.0004
3035.00,-0.0004
3034.00,-0.0005
3033.00,-0.0005
3032.00,-0.0005
3031.00,-0.0005
3030.00,-0.0005
3029.00,-0.0005
3028.00,-0.0005
3027.00,-0.0005
3026.00,-0.0005
3025.00,-0.0005
3024.00,-0.0005
3023.00,-0.0005
3022.00,-0.0005
3021.00,-0.0004
3020.00,-0.0004
3019.00,-0.0003
3018.00,-0.0003
3017.00,-0.0003
3016.00,-0.0003
3015.00,-0.0004
3014.00,-0.0004
3013.00,-0.0004
3012.00,-0.0004
3011.00,-0.0004
3010.00,-0.0004
3009.00,-0.0004
3008.00,-0.0005
3007.00,-0.0005
3006.00,-0.0006
3005.00,-0.0005
3004.00,-0.0005
3003.00,-0.0005
3002.00,-0.0005
3001.00,-0.0005
3000.00,-0.0005
2999.00,-0.0005
2998.00,-0.0005
2997.00,-0.0005
2996.00,-0.0005
2995.00,-0.0005
2994.00,-0.0005
2993.00,-0.0005
2992.00,-0.0005
2991.00,-0.0005
2990.00,-0.0005
2989.00,-0.0005
2988.00,-0.0005
2987.00,-0.0005
2986.00,-0.0005
2985.00,-0.0005
2984.00,-0.0005
2983.00,-0.0005
2982.00,-0.0005
2981.00,-0.0005
2980.00,-0.0005
2979.00,-0.0005
2978.00,-0.0004
2977.00,-0.0004
2976.00,-0.0004
2975.00,-0.0004
2974.00,-0.0004
2973.00,-0.0004
2972.00,-0.0004
2971.00,-0.0005
2970.00,-0.0005
2969.00,-0.0005
2968.00,-0.0005
2967.00,-0.0005
2966.00,-0.0005
2965.00,-0.0005
2964.00,-0.0005
2963.00,-0.0005
2962.00,-0.0005
2961.00,-0.0005
2960.00,-0.0005
2959.00,-0.0005
2958.00,-0.0005
2957.00,-0.0005
2956.00,-0.0005
2955.00,-0.0005
2954.00,-0.0005
2953.00,-0.0004
2952.00,-0.0004
2951.00,-0.0005
2950.00,-0.0005
2949.00,-0.0005
2948.00,-0.0004
2947.00,-0.0004
2946.00,-0.0004
2945.00,-0.0004
2944.00,-0.0004
2943.00,-0.0004
2942.00,-0.0004
2941.00,-0.0004
2940.00,-0.0004
2939.00,-0.0004
2938.00,-0.0005
2937.00,-0.0005
2936.00,-0.0005
2935.00,-0.0005
2934.00,-0.0005
2933.00,-0.0005
2932.00,-0.0005
2931.00,-0.0005
2930.00,-0.0005
2929.00,-0.0005
2928.00,-0.0005
2927.00,-0.0005
2926.00,-0.0005
2925.00,-0.0004
2924.00,-0.0004
2923.00,-0.0004
2922.00,-0.0004
2921.00,-0.0004
2920.00,-0.0005
2919.00,-0.0005
2918.00,-0.0005
2917.00,-0.0005
2916.00,-0.0005
2915.00,-0.0005
2914.00,-0.0005
2913.00,-0.0005
2912.00,-0.0005
2911.00,-0.0005
2910.00,-0.0005
2909.00,-0.0005
2908.00,-0.0005
2907.00,-0.0005
2906.00,-0.0005
2905.00,-0.0005
2904.00,-0.0005
2903.00,-0.0005
2902.00,-0.0005
2901.00,-0.0005
2900.00,-0.0005
2899.00,-0.0005
2898.00,-0.0005
2897.00,-0.0005
2896.00,-0.0005
2895.00,-0.0005
2894.00,-0.0005
2893.00,-0.0005
2892.00,-0.0005
2891.00,-0.0005
2890.00,-0.0005
2889.00,-0.0005
2888.00,-0.0005
2887.00,-0.0005
2886.00,-0.0005
2885.00,-0.0005
2884.00,-0.0005
2883.00,-0.0005
2882.00,-0.0005
2881.00,-0.0005
2880.00,-0.0005
2879.00,-0.0005
2878.00,-0.0005
2877.00,-0.0005
2876.00,-0.0005
2875.00,-0.0005
2874.00,-0.0005
2873.00,-0.0005
2872.00,-0.0005
2871.00,-0.0005
2870.00,-0.0005
2869.00,-0.0005
2868.00,-0.0005
2867.00,-0.0005
2866.00,-0.0005
2865.00,-0.0005
2864.00,-0.0005
2863.00,-0.0005
2862.00,-0.0005
2861.00,-0.0005
2860.00,-0.0005
2859.00,-0.0005
2858.00,-0.0005
2857.00,-0.0005
2856.00,-0.0005
2855.00,-0.0005
2854.00,-0.0005
2853.00,-0.0005
2852.00,-0.0005
2851.00,-0.0005
2850.00,-0.0005
2849.00,-0.0005
2848.00,-0.0004
2847.00,-0.0004
2846.00,-0.0004
2845.00,-0.0004
2844.00,-0.0005
2843.00,-0.0005
2842.00,-0.0005
2841.00,-0.0005
2840.00,-0.0005
2839.00,-0.0005
2838.00,-0.0005
2837.00,-0.0005
2836.00,-0.0005
2835.00,-0.0005
2834.00,-0.0005
2833.00,-0.0005
2832.00,-0.0005
2831.00,-0.0005
2830.00,-0.0005
2829.00,-0.0005
2828.00,-0.0005
2827.00,-0.0005
2826.00,-0.0005
2825.00,-0.0005
2824.00,-0.0005
2823.00,-0.0005
2822.00,-0.0005
2821.00,-0.0005
2820.00,-0.0005
2819.00,-0.0005
2818.00,-0.0005
2817.00,-0.0005
2816.00,-0.0005
2815.00,-0.0005
2814.00,-0.0005
2813.00,-0.0005
2812.00,-0.0005
2811.00,-0.0005
2810.00,-0.0005
2809.00,-0.0005
2808.00,-0.0005
2807.00,-0.0005
2806.00,-0.0005
2805.00,-0.0005
2804.00,-0.0005
2803.00,-0.0005
2802.00,-0.0005
2801.00,-0.0005
2800.00,-0.0006
2799.00,-0.0006
2798.00,-0.0006
2797.00,-0.0006
2796.00,-0.0006
2795.00,-0.0005
2794.00,-0.0005
2793.00,-0.0005
2792.00,-0.0005
2791.00,-0.0005
2790.00,-0.0005
2789.00,-0.0005
2788.00,-0.0005
2787.00,-0.0005
2786.00,-0.0005
2785.00,-0.0005
2784.00,-0.0005
2783.00,-0.0005
2782.00,-0.0005
2781.00,-0.0005
2780.00,-0.0005
2779.00,-0.0005
2778.00,-0.0005
2777.00,-0.0005
2776.00,-0.0005
2775.00,-0.0006
2774.00,-0.0006
2773.00,-0.0005
2772.00,-0.0005
2771.00,-0.0005
2770.00,-0.0005
2769.00,-0.0005
2768.00,-0.0005
2767.00,-0.0005
2766.00,-0.0005
2765.00,-0.0005
2764.00,-0.0005
2763.00,-0.0005
2762.00,-0.0005
2761.00,-0.0005
2760.00,-0.0005
2759.00,-0.0005
2758.00,-0.0005
2757.00,-0.0005
2756.00,-0.0005
2755.00,-0.0005
2754.00,-0.0005
2753.00,-0.0005
2752.00,-0.0005
2751.00,-0.0005
2750.00,-0.0005
2749.00,-0.0005
2748.00,-0.0005
2747.00,-0.0006
2746.00,-0.0006
2745.00,-0.0006
2744.00,-0.0006
2743.00,-0.0006
2742.00,-0.0006
2741.00,-0.0006
2740.00,-0.0005
2739.00,-0.0006
2738.00,-0.0005
2737.00,-0.0005
2736.00,-0.0005
2735.00,-0.0005
2734.00,-0.0005
2733.00,-0.0005
2732.00,-0.0005
2731.00,-0.0005
2730.00,-0.0005
2729.00,-0.0005
2728.00,-0.0005
2727.00,-0.0005
2726.00,-0.0005
2725.00,-0.0005
2724.00,-0.0005
2723.00,-0.0005
2722.00,-0.0005
2721.00,-0.0005
2720.00,-0.0005
2719.00,-0.0006
2718.00,-0.0006
2717.00,-0.0006
2716.00,-0.0006
2715.00,-0.0006
2714.00,-0.0006
2713.00,-0.0005
2712.00,-0.0005
2711.00,-0.0005
2710.00,-0.0005
2709.00,-0.0005
2708.00,-0.0005
2707.00,-0.0005
2706.00,-0.0005
2705.00,-0.0005
2704.00,-0.0005
2703.00,-0.0006
2702.00,-0.0006
2701.00,-0.0006
2700.00,-0.0006
2699.00,-0.0006
2698.00,-0.0006
2697.00,-0.0006
2696.00,-0.0006
2695.00,-0.0006
2694.00,-0.0006
2693.00,-0.0005
2692.00,-0.0005
2691.00,-0.0005
2690.00,-0.0005
2689.00,-0.0005
2688.00,-0.0005
2687.00,-0.0005
2686.00,-0.0005
2685.00,-0.0005
2684.00,-0.0005
2683.00,-0.0006
2682.00,-0.0006
2681.00,-0.0005
2680.00,-0.0005
2679.00,-0.0005
2678.00,-0.0005
2677.00,-0.0005
2676.00,-0.0005
2675.00,-0.0005
2674.00,-0.0005
2673.00,-0.0005
2672.00,-0.0005
2671.00,-0.0006
2670.00,-0.0006
2669.00,-0.0005
2668.00,-0.0005
2667.00,-0.0005
2666.00,-0.0005
2665.00,-0.0005
2664.00,-0.0005
2663.00,-0.0006
2662.00,-0.0005
2661.00,-0.0005
2660.00,-0.0005
2659.00,-0.0005
2658.00,-0.0005
2657.00,-0.0005
2656.00,-0.0005
2655.00,-0.0005
2654.00,-0.0005
2653.00,-0.0005
2652.00,-0.0005
2651.00,-0.0005
2650.00,-0.0005
2649.00,-0.0005
2648.00,-0.0005
2647.00,-0.0005
2646.00,-0.0005
2645.00,-0.0005
2644.00,-0.0005
2643.00,-0.0005
2642.00,-0.0005
2641.00,-0.0005
2640.00,-0.0005
2639.00,-0.0006
2638.00,-0.0006
2637.00,-0.0006
2636.00,-0.0006
2635.00,-0.0006
2634.00,-0.0005
2633.00,-0.0005
2632.00,-0.0006
2631.00,-0.0006
2630.00,-0.0006
2629.00,-0.0005
2628.00,-0.0005
2627.00,-0.0005
2626.00,-0.0005
2625.00,-0.0005
2624.00,-0.0006
2623.00,-0.0006
2622.00,-0.0005
2621.00,-0.0005
2620.00,-0.0005
2619.00,-0.0005
2618.00,-0.0005
2617.00,-0.0005
2616.00,-0.0005
2615.00,-0.0005
2614.00,-0.0005
2613.00,-0.0005
2612.00,-0.0005
2611.00,-0.0005
2610.00,-0.0005
2609.00,-0.0005
2608.00,-0.0005
2607.00,-0.0005
2606.00,-0.0005
2605.00,-0.0006
2604.00,-0.0006
2603.00,-0.0006
2602.00,-0.0005
2601.00,-0.0005
2600.00,-0.0005
2599.00,-0.0005
2598.00,-0.0005
2597.00,-0.0005
2596.00,-0.0005
2595.00,-0.0005
2594.00,-0.0005
2593.00,-0.0005
2592.00,-0.0005
2591.00,-0.0005
2590.00,-0.0005
2589.00,-0.0005
2588.00,-0.0005
2587.00,-0.0005
2586.00,-0.0005
2585.00,-0.0005
2584.00,-0.0005
2583.00,-0.0005
2582.00,-0.0006
2581.00,-0.0006
2580.00,-0.0006
2579.00,-0.0005
2578.00,-0.0005
2577.00,-0.0005
2576.00,-0.0005
2575.00,-0.0005
2574.00,-0.0005
2573.00,-0.0006
2572.00,-0.0006
2571.00,-0.0006
2570.00,-0.0006
2569.00,-0.0005
2568.00,-0.0005
2567.00,-0.0005
2566.00,-0.0005
2565.00,-0.0005
2564.00,-0.0005
2563.00,-0.0005
2562.00,-0.0005
2561.00,-0.0005
2560.00,-0.0005
2559.00,-0.0005
2558.00,-0.0005
2557.00,-0.0005
2556.00,-0.0005
2555.00,-0.0005
2554.00,-0.0005
2553.00,-0.0005
2552.00,-0.0005
2551.00,-0.0005
2550.00,-0.0005
2549.00,-0.0005
2548.00,-0.0005
2547.00,-0.0005
2546.00,-0.0005
2545.00,-0.0005
2544.00,-0.0006
2543.00,-0.0005
2542.00,-0.0005
2541.00,-0.0005
2540.00,-0.0005
2539.00,-0.0005
2538.00,-0.0005
2537.00,-0.0005
2536.00,-0.0005
2535.00,-0.0005
2534.00,-0.0005
2533.00,-0.0005
2532.00,-0.0005
2531.00,-0.0006
2530.00,-0.0006
2529.00,-0.0006
2528.00,-0.0006
2527.00,-0.0006
2526.00,-0.0006
2525.00,-0.0005
2524.00,-0.0005
2523.00,-0.0005
2522.00,-0.0005
2521.00,-0.0005
2520.00,-0.0006
2519.00,-0.0006
2518.00,-0.0006
2517.00,-0.0005
2516.00,-0.0005
2515.00,-0.0005
2514.00,-0.0005
2513.00,-0.0005
2512.00,-0.0005
2511.00,-0.0006
2510.00,-0.0006
2509.00,-0.0006
2508.00,-0.0006
2507.00,-0.0006
2506.00,-0.0006
2505.00,-0.0006
2504.00,-0.0005
2503.00,-0.0005
2502.00,-0.0005
2501.00,-0.0005
2500.00,-0.0005
2499.00,-0.0006
2498.00,-0.0006
2497.00,-0.0006
2496.00,-0.0006
2495.00,-0.0006
2494.00,-0.0006
2493.00,-0.0006
2492.00,-0.0006
2491.00,-0.0005
2490.00,-0.0005
2489.00,-0.0005
2488.00,-0.0005
2487.00,-0.0005
2486.00,-0.0005
2485.00,-0.0005
2484.00,-0.0006
2483.00,-0.0006
2482.00,-0.0006
2481.00,-0.0006
2480.00,-0.0006
2479.00,-0.0006
2478.00,-0.0006
2477.00,-0.0006
2476.00,-0.0006
2475.00,-0.0006
2474.00,-0.0006
2473.00,-0.0005
2472.00,-0.0005
2471.00,-0.0005
2470.00,-0.0005
2469.00,-0.0005
2468.00,-0.0006
2467.00,-0.0006
2466.00,-0.0006
2465.00,-0.0006
2464.00,-0.0006
2463.00,-0.0006
2462.00,-0.0006
2461.00,-0.0006
2460.00,-0.0006
2459.00,-0.0006
2458.00,-0.0005
2457.00,-0.0005
2456.00,-0.0005
2455.00,-0.0005
2454.00,-0.0005
2453.00,-0.0005
2452.00,-0.0005
2451.00,-0.0005
2450.00,-0.0005
2449.00,-0.0005
2448.00,-0.0006
2447.00,-0.0006
2446.00,-0.0006
2445.00,-0.0005
2444.00,-0.0005
2443.00,-0.0005
2442.00,-0.0005
2441.00,-0.0005
2440.00,-0.0005
2439.00,-0.0005
2438.00,-0.0005
2437.00,-0.0005
2436.00,-0.0006
2435.00,-0.0006
2434.00,-0.0006
2433.00,-0.0005
2432.00,-0.0005
2431.00,-0.0006
2430.00,-0.0006
2429.00,-0.0006
2428.00,-0.0006
2427.00,-0.0006
2426.00,-0.0006
2425.00,-0.0006
2424.00,-0.0006
2423.00,-0.0006
2422.00,-0.0006
2421.00,-0.0005
2420.00,-0.0005
2419.00,-0.0005
2418.00,-0.0005
2417.00,-0.0005
2416.00,-0.0005
2415.00,-0.0005
2414.00,-0.0005
2413.00,-0.0006
2412.00,-0.0006
2411.00,-0.0006
2410.00,-0.0006
2409.00,-0.0005
2408.00,-0.0005
2407.00,-0.0005
2406.00,-0.0005
2405.00,-0.0005
2404.00,-0.0005
2403.00,-0.0006
2402.00,-0.0006
2401.00,-0.0005
2400.00,-0.0006
2399.00,-0.0005
2398.00,-0.0005
2397.00,-0.0005
2396.00,-0.0005
2395.00,-0.0005
2394.00,-0.0005
2393.00,-0.0005
2392.00,-0.0005
2391.00,-0.0005
2390.00,-0.0005
2389.00,-0.0005
2388.00,-0.0005
2387.00,-0.0005
2386.00,-0.0005
2385.00,-0.0004
2384.00,-0.0004
2383.00,-0.0004
2382.00,-0.0003
2381.00,-0.0003
2380.00,-0.0004
2379.00,-0.0004
2378.00,-0.0004
2377.00,-0.0005
2376.00,-0.0005
2375.00,-0.0006
2374.00,-0.0005
2373.00,-0.0005
2372.00,-0.0004
2371.00,-0.0004
2370.00,-0.0004
2369.00,-0.0004
2368.00,-0.0004
2367.00,-0.0004
2366.00,-0.0005
2365.00,-0.0005
2364.00,-0.0006
2363.00,-0.0006
2362.00,-0.0005
2361.00,-0.0004
2360.00,-0.0003
2359.00,-0.0002
2358.00,-0.0002
2357.00,-0.0002
2356.00,-0.0003
2355.00,-0.0004
2354.00,-0.0006
2353.00,-0.0006
2352.00,-0.0006
2351.00,-0.0005
2350.00,-0.0003
2349.00,-0.0003
2348.00,-0.0004
2347.00,-0.0004
2346.00,-0.0004
2345.00,-0.0003
2344.00,-0.0002
2343.00,-0.0001
2342.00,-0.0001
2341.00,-0.0001
2340.00,-0.0002
2339.00,-0.0002
2338.00,-0.0002
2337.00,-0.0003
2336.00,-0.0004
2335.00,-0.0004
2334.00,-0.0004
2333.00,-0.0004
2332.00,-0.0003
2331.00,-0.0003
2330.00,-0.0003
2329.00,-0.0003
2328.00,-0.0002
2327.00,-0.0002
2326.00,-0.0001
2325.00,-0.0001
2324.00,-0.0001
2323.00,-0.0001
2322.00,-0.0001
2321.00,-0.0001
2320.00,-0.0002
2319.00,-0.0002
2318.00,-0.0002
2317.00,-0.0003
2316.00,-0.0003
2315.00,-0.0004
2314.00,-0.0004
2313.00,-0.0004
2312.00,-0.0004
2311.00,-0.0003
2310.00,-0.0003
2309.00,-0.0003
2308.00,-0.0003
2307.00,-0.0003
2306.00,-0.0003
2305.00,-0.0003
2304.00,-0.0003
2303.00,-0.0003
2302.00,-0.0003
2301.00,-0.0003
2300.00,-0.0004
2299.00,-0.0004
2298.00,-0.0004
2297.00,-0.0004
2296.00,-0.0005
2295.00,-0.0005
2294.00,-0.0005
2293.00,-0.0005
2292.00,-0.0005
2291.00,-0.0005
2290.00,-0.0005
2289.00,-0.0005
2288.00,-0.0005
2287.00,-0.0005
2286.00,-0.0005
2285.00,-0.0005
2284.00,-0.0005
2283.00,-0.0005
2282.00,-0.0005
2281.00,-0.0005
2280.00,-0.0006
2279.00,-0.0005
2278.00,-0.0005
2277.00,-0.0005
2276.00,-0.0005
2275.00,-0.0005
2274.00,-0.0005
2273.00,-0.0005
2272.00,-0.0005
2271.00,-0.0005
2270.00,-0.0005
2269.00,-0.0005
2268.00,-0.0005
2267.00,-0.0005
2266.00,-0.0005
2265.00,-0.0005
2264.00,-0.0005
2263.00,-0.0005
2262.00,-0.0005
2261.00,-0.0005
2260.00,-0.0005
2259.00,-0.0005
2258.00,-0.0005
2257.00,-0.0005
2256.00,-0.0005
2255.00,-0.0005
2254.00,-0.0005
2253.00,-0.0005
2252.00,-0.0005
2251.00,-0.0006
2250.00,-0.0005
2249.00,-0.0005
2248.00,-0.0005
2247.00,-0.0005
2246.00,-0.0005
2245.00,-0.0005
2244.00,-0.0005
2243.00,-0.0005
2242.00,-0.0005
2241.00,-0.0005
2240.00,-0.0005
2239.00,-0.0005
2238.00,-0.0005
2237.00,-0.0004
2236.00,-0.0004
2235.00,-0.0004
2234.00,-0.0004
2233.00,-0.0005
2232.00,-0.0005
2231.00,-0.0005
2230.00,-0.0005
2229.00,-0.0005
2228.00,-0.0005
2227.00,-0.0005
2226.00,-0.0005
2225.00,-0.0005
2224.00,-0.0005
2223.00,-0.0005
2222.00,-0.0005
2221.00,-0.0005
2220.00,-0.0005
2219.00,-0.0005
2218.00,-0.0005
2217.00,-0.0005
2216.00,-0.0005
2215.00,-0.0005
2214.00,-0.0005
2213.00,-0.0005
2212.00,-0.0005
2211.00,-0.0005
2210.00,-0.0005
2209.00,-0.0005
2208.00,-0.0005
2207.00,-0.0005
2206.00,-0.0005
2205.00,-0.0005
2204.00,-0.0005
2203.00,-0.0005
2202.00,-0.0005
2201.00,-0.0005
2200.00,-0.0006
2199.00,-0.0005
2198.00,-0.0005
2197.00,-0.0005
2196.00,-0.0006
2195.00,-0.0006
2194.00,-0.0006
2193.00,-0.0005
2192.00,-0.0005
2191.00,-0.0005
2190.00,-0.0005
2189.00,-0.0005
2188.00,-0.0005
2187.00,-0.0006
2186.00,-0.0005
2185.00,-0.0005
2184.00,-0.0005
2183.00,-0.0006
2182.00,-0.0006
2181.00,-0.0006
2180.00,-0.0006
2179.00,-0.0006
2178.00,-0.0006
2177.00,-0.0006
2176.00,-0.0006
2175.00,-0.0006
2174.00,-0.0006
2173.00,-0.0006
2172.00,-0.0006
2171.00,-0.0006
2170.00,-0.0006
2169.00,-0.0005
2168.00,-0.0005
2167.00,-0.0005
2166.00,-0.0005
2165.00,-0.0005
2164.00,-0.0006
2163.00,-0.0006
2162.00,-0.0006
2161.00,-0.0006
2160.00,-0.0006
2159.00,-0.0006
2158.00,-0.0006
2157.00,-0.0006
2156.00,-0.0006
2155.00,-0.0005
2154.00,-0.0005
2153.00,-0.0005
2152.00,-0.0006
2151.00,-0.0006
2150.00,-0.0006
2149.00,-0.0006
2148.00,-0.0006
2147.00,-0.0006
2146.00,-0.0006
2145.00,-0.0006
2144.00,-0.0006
2143.00,-0.0006
2142.00,-0.0006
2141.00,-0.0006
2140.00,-0.0006
2139.00,-0.0005
2138.00,-0.0005
2137.00,-0.0005
2136.00,-0.0006
2135.00,-0.0006
2134.00,-0.0006
2133.00,-0.0005
2132.00,-0.0005
2131.00,-0.0005
2130.00,-0.0005
2129.00,-0.0005
2128.00,-0.0005
2127.00,-0.0005
2126.00,-0.0005
2125.00,-0.0005
2124.00,-0.0005
2123.00,-0.0005
2122.00,-0.0005
2121.00,-0.0005
2120.00,-0.0005
2119.00,-0.0005
2118.00,-0.0005
2117.00,-0.0005
2116.00,-0.0005
2115.00,-0.0005
2114.00,-0.0005
2113.00,-0.0005
2112.00,-0.0006
2111.00,-0.0006
2110.00,-0.0006
2109.00,-0.0006
2108.00,-0.0006
2107.00,-0.0006
2106.00,-0.0005
2105.00,-0.0005
2104.00,-0.0006
2103.00,-0.0006
2102.00,-0.0005
2101.00,-0.0006
2100.00,-0.0006
2099.00,-0.0005
2098.00,-0.0005
2097.00,-0.0005
2096.00,-0.0005
2095.00,-0.0005
2094.00,-0.0005
2093.00,-0.0005
2092.00,-0.0005
2091.00,-0.0005
2090.00,-0.0005
2089.00,-0.0005
2088.00,-0.0005
2087.00,-0.0006
2086.00,-0.0006
2085.00,-0.0006
2084.00,-0.0006
2083.00,-0.0006
2082.00,-0.0006
2081.00,-0.0006
2080.00,-0.0006
2079.00,-0.0006
2078.00,-0.0005
2077.00,-0.0005
2076.00,-0.0006
2075.00,-0.0006
2074.00,-0.0006
2073.00,-0.0006
2072.00,-0.0006
2071.00,-0.0005
2070.00,-0.0005
2069.00,-0.0005
2068.00,-0.0006
2067.00,-0.0006
2066.00,-0.0006
2065.00,-0.0006
2064.00,-0.0006
2063.00,-0.0006
2062.00,-0.0006
2061.00,-0.0006
2060.00,-0.0006
2059.00,-0.0006
2058.00,-0.0006
2057.00,-0.0006
2056.00,-0.0006
2055.00,-0.0006
2054.00,-0.0006
2053.00,-0.0006
2052.00,-0.0006
2051.00,-0.0006
2050.00,-0.0006
2049.00,-0.0006
2048.00,-0.0006
2047.00,-0.0006
2046.00,-0.0005
2045.00,-0.0005
2044.00,-0.0005
2043.00,-0.0005
2042.00,-0.0005
2041.00,-0.0005
2040.00,-0.0005
2039.00,-0.0005
2038.00,-0.0005
2037.00,-0.0005
2036.00,-0.0006
2035.00,-0.0006
2034.00,-0.0005
2033.00,-0.0005
2032.00,-0.0005
2031.00,-0.0005
2030.00,-0.0005
2029.00,-0.0005
2028.00,-0.0006
2027.00,-0.0006
2026.00,-0.0006
2025.00,-0.0006
2024.00,-0.0006
2023.00,-0.0006
2022.00,-0.0005
2021.00,-0.0005
2020.00,-0.0006
2019.00,-0.0006
2018.00,-0.0006
2017.00,-0.0006
2016.00,-0.0006
2015.00,-0.0006
2014.00,-0.0006
2013.00,-0.0006
2012.00,-0.0006
2011.00,-0.0006
2010.00,-0.0005
2009.00,-0.0005
2008.00,-0.0005
2007.00,-0.0005
2006.00,-0.0005
2005.00,-0.0005
2004.00,-0.0006
2003.00,-0.0006
2002.00,-0.0005
2001.00,-0.0005
2000.00,-0.0006
1999.00,-0.0006
1998.00,-0.0005
1997.00,-0.0005
1996.00,-0.0005
1995.00,-0.0006
1994.00,-0.0006
1993.00,-0.0007
1992.00,-0.0007
1991.00,-0.0007
1990.00,-0.0006
1989.00,-0.0006
1988.00,-0.0006
1987.00,-0.0006
1986.00,-0.0006
1985.00,-0.0006
1984.00,-0.0006
1983.00,-0.0006
1982.00,-0.0006
1981.00,-0.0006
1980.00,-0.0006
1979.00,-0.0006
1978.00,-0.0006
1977.00,-0.0006
1976.00,-0.0006
1975.00,-0.0006
1974.00,-0.0006
1973.00,-0.0005
1972.00,-0.0005
1971.00,-0.0005
1970.00,-0.0006
1969.00,-0.0006
1968.00,-0.0007
1967.00,-0.0007
1966.00,-0.0006
1965.00,-0.0005
1964.00,-0.0005
1963.00,-0.0005
1962.00,-0.0006
1961.00,-0.0006
1960.00,-0.0006
1959.00,-0.0006
1958.00,-0.0006
1957.00,-0.0006
1956.00,-0.0006
1955.00,-0.0006
1954.00,-0.0006
1953.00,-0.0006
1952.00,-0.0006
1951.00,-0.0006
1950.00,-0.0005
1949.00,-0.0006
1948.00,-0.0006
1947.00,-0.0006
1946.00,-0.0007
1945.00,-0.0008
1944.00,-0.0009
1943.00,-0.0009
1942.00,-0.0008
1941.00,-0.0007
1940.00,-0.0005
1939.00,-0.0005
1938.00,-0.0005
1937.00,-0.0006
1936.00,-0.0006
1935.00,-0.0006
1934.00,-0.0006
1933.00,-0.0006
1932.00,-0.0006
1931.00,-0.0005
1930.00,-0.0005
1929.00,-0.0006
1928.00,-0.0006
1927.00,-0.0006
1926.00,-0.0006
1925.00,-0.0007
1924.00,-0.0008
1923.00,-0.0007
1922.00,-0.0006
1921.00,-0.0006
1920.00,-0.0007
1919.00,-0.0007
1918.00,-0.0007
1917.00,-0.0006
1916.00,-0.0005
1915.00,-0.0004
1914.00,-0.0004
1913.00,-0.0005
1912.00,-0.0006
1911.00,-0.0007
1910.00,-0.0007
1909.00,-0.0007
1908.00,-0.0008
1907.00,-0.0007
1906.00,-0.0006
1905.00,-0.0006
1904.00,-0.0007
1903.00,-0.0006
1902.00,-0.0005
1901.00,-0.0005
1900.00,-0.0006
1899.00,-0.0006
1898.00,-0.0005
1897.00,-0.0007
1896.00,-0.0008
1895.00,-0.0007
1894.00,-0.0006
1893.00,-0.0006
1892.00,-0.0008
1891.00,-0.0009
1890.00,-0.0009
1889.00,-0.0009
1888.00,-0.0008
1887.00,-0.0006
1886.00,-0.0005
1885.00,-0.0005
1884.00,-0.0006
1883.00,-0.0005
1882.00,-0.0004
1881.00,-0.0005
1880.00,-0.0006
1879.00,-0.0006
1878.00,-0.0005
1877.00,-0.0005
1876.00,-0.0006
1875.00,-0.0006
1874.00,-0.0005
1873.00,-0.0005
1872.00,-0.0008
1871.00,-0.0010
1870.00,-0.0011
1869.00,-0.0012
1868.00,-0.0012
1867.00,-0.0009
1866.00,-0.0006
1865.00,-0.0005
1864.00,-0.0006
1863.00,-0.0005
1862.00,-0.0004
1861.00,-0.0005
1860.00,-0.0007
1859.00,-0.0007
1858.00,-0.0006
1857.00,-0.0006
1856.00,-0.0007
1855.00,-0.0007
1854.00,-0.0006
1853.00,-0.0006
1852.00,-0.0006
1851.00,-0.0005
1850.00,-0.0004
1849.00,-0.0005
1848.00,-0.0006
1847.00,-0.0007
1846.00,-0.0008
1845.00,-0.0008
1844.00,-0.0007
1843.00,-0.0005
1842.00,-0.0003
1841.00,-0.0003
1840.00,-0.0004
1839.00,-0.0005
1838.00,-0.0005
1837.00,-0.0005
1836.00,-0.0006
1835.00,-0.0005
1834.00,-0.0005
1833.00,-0.0007
1832.00,-0.0010
1831.00,-0.0013
1830.00,-0.0014
1829.00,-0.0012
1828.00,-0.0010
1827.00,-0.0008
1826.00,-0.0007
1825.00,-0.0006
1824.00,-0.0006
1823.00,-0.0006
1822.00,-0.0005
1821.00,-0.0004
1820.00,-0.0006
1819.00,-0.0006
1818.00,-0.0005
1817.00,-0.0005
1816.00,-0.0007
1815.00,-0.0007
1814.00,-0.0006
1813.00,-0.0006
1812.00,-0.0008
1811.00,-0.0008
1810.00,-0.0006
1809.00,-0.0005
1808.00,-0.0006
1807.00,-0.0006
1806.00,-0.0004
1805.00,-0.0004
1804.00,-0.0006
1803.00,-0.0006
1802.00,-0.0004
1801.00,-0.0004
1800.00,-0.0006
1799.00,-0.0006
1798.00,-0.0004
1797.00,-0.0003
1796.00,-0.0004
1795.00,-0.0003
1794.00,-0.0000
1793.00,0.0000
1792.00,-0.0002
1791.00,-0.0003
1790.00,-0.0002
1789.00,-0.0001
1788.00,-0.0003
1787.00,-0.0003
1786.00,-0.0002
1785.00,-0.0002
1784.00,-0.0004
1783.00,-0.0005
1782.00,-0.0005
1781.00,-0.0005
1780.00,-0.0004
1779.00,-0.0004
1778.00,-0.0003
1777.00,-0.0003
1776.00,-0.0003
1775.00,-0.0004
1774.00,-0.0004
1773.00,-0.0003
1772.00,-0.0004
1771.00,-0.0005
1770.00,-0.0003
1769.00,0.0000
1768.00,0.0001
1767.00,-0.0001
1766.00,-0.0002
1765.00,-0.0001
1764.00,-0.0002
1763.00,-0.0005
1762.00,-0.0005
1761.00,-0.0004
1760.00,-0.0003
1759.00,-0.0004
1758.00,-0.0004
1757.00,-0.0002
1756.00,0.0000
1755.00,0.0001
1754.00,0.0004
1753.00,0.0010
1752.00,0.0014
1751.00,0.0010
1750.00,0.0004
1749.00,-0.0000
1748.00,-0.0002
1747.00,-0.0004
1746.00,-0.0005
1745.00,-0.0004
1744.00,-0.0003
1743.00,-0.0004
1742.00,-0.0004
1741.00,-0.0002
1740.00,-0.0001
1739.00,-0.0001
1738.00,-0.0001
1737.00,0.0003
1736.00,0.0009
1735.00,0.0014
1734.00,0.0014
1733.00,0.0010
1732.00,0.0004
1731.00,0.0001
1730.00,-0.0002
1729.00,-0.0003
1728.00,-0.0003
1727.00,-0.0004
1726.00,-0.0004
1725.00,-0.0004
1724.00,-0.0004
1723.00,-0.0003
1722.00,-0.0002
1721.00,-0.0003
1720.00,-0.0006
1719.00,-0.0006
1718.00,-0.0000
1717.00,0.0001
1716.00,-0.0002
1715.00,-0.0000
1714.00,0.0003
1713.00,0.0001
1712.00,-0.0003
1711.00,-0.0004
1710.00,-0.0002
1709.00,-0.0002
1708.00,-0.0006
1707.00,-0.0007
1706.00,-0.0005
1705.00,-0.0006
1704.00,-0.0006
1703.00,-0.0003
1702.00,0.0006
1701.00,0.0009
1700.00,0.0004
1699.00,0.0001
1698.00,-0.0000
1697.00,-0.0004
1696.00,-0.0009
1695.00,-0.0008
1694.00,-0.0003
1693.00,-0.0000
1692.00,-0.0001
1691.00,-0.0003
1690.00,-0.0002
1689.00,-0.0001
1688.00,-0.0002
1687.00,-0.0005
1686.00,-0.0010
1685.00,-0.0012
1684.00,-0.0010
1683.00,-0.0007
1682.00,-0.0004
1681.00,-0.0003
1680.00,-0.0000
1679.00,0.0000
1678.00,-0.0001
1677.00,0.0000
1676.00,0.0003
1675.00,0.0002
1674.00,-0.0002
1673.00,-0.0003
1672.00,-0.0003
1671.00,-0.0003
1670.00,-0.0006
1669.00,-0.0007
1668.00,-0.0004
1667.00,-0.0003
1666.00,-0.0004
1665.00,-0.0005
1664.00,-0.0004
1663.00,-0.0004
1662.00,-0.0005
1661.00,-0.0004
1660.00,-0.0000
1659.00,0.0001
1658.00,-0.0002
1657.00,-0.0003
1656.00,-0.0005
1655.00,-0.0007
1654.00,-0.0010
1653.00,-0.0012
1652.00,-0.0012
1651.00,-0.0009
1650.00,-0.0006
1649.00,-0.0005
1648.00,-0.0004
1647.00,-0.0002
1646.00,-0.0001
1645.00,-0.0000
1644.00,-0.0000
1643.00,0.0000
1642.00,0.0000
1641.00,0.0000
1640.00,-0.0001
1639.00,-0.0003
1638.00,-0.0003
1637.00,-0.0002
1636.00,-0.0001
1635.00,-0.0002
1634.00,-0.0003
1633.00,-0.0002
1632.00,-0.0002
1631.00,-0.0001
1630.00,-0.0002
1629.00,-0.0004
1628.00,-0.0005
1627.00,-0.0005
1626.00,-0.0005
1625.00,-0.0005
1624.00,-0.0004
1623.00,-0.0003
1622.00,-0.0004
1621.00,-0.0005
1620.00,-0.0004
1619.00,-0.0003
1618.00,-0.0005
1617.00,-0.0007
1616.00,-0.0006
1615.00,-0.0004
1614.00,-0.0004
1613.00,-0.0005
1612.00,-0.0004
1611.00,-0.0002
1610.00,-0.0004
1609.00,-0.0007
1608.00,-0.0005
1607.00,-0.0004
1606.00,-0.0006
1605.00,-0.0007
1604.00,-0.0005
1603.00,-0.0005
1602.00,-0.0007
1601.00,-0.0007
1600.00,-0.0005
1599.00,-0.0004
1598.00,-0.0006
1597.00,-0.0008
1596.00,-0.0007
1595.00,-0.0007
1594.00,-0.0008
1593.00,-0.0008
1592.00,-0.0007
1591.00,-0.0005
1590.00,-0.0006
1589.00,-0.0007
1588.00,-0.0006
1587.00,-0.0005
1586.00,-0.0006
1585.00,-0.0007
1584.00,-0.0005
1583.00,-0.0004
1582.00,-0.0006
1581.00,-0.0008
1580.00,-0.0007
1579.00,-0.0008
1578.00,-0.0012
1577.00,-0.0013
1576.00,-0.0009
1575.00,-0.0006
1574.00,-0.0006
1573.00,-0.0006
1572.00,-0.0005
1571.00,-0.0006
1570.00,-0.0009
1569.00,-0.0008
1568.00,-0.0003
1567.00,-0.0001
1566.00,-0.0004
1565.00,-0.0005
1564.00,-0.0003
1563.00,-0.0004
1562.00,-0.0007
1561.00,-0.0006
1560.00,0.0000
1559.00,0.0000
1558.00,-0.0005
1557.00,-0.0005
1556.00,0.0000
1555.00,0.0004
1554.00,0.0004
1553.00,0.0005
1552.00,0.0005
1551.00,0.0003
1550.00,0.0002
1549.00,0.0003
1548.00,0.0006
1547.00,0.0008
1546.00,0.0006
1545.00,0.0004
1544.00,0.0002
1543.00,0.0002
1542.00,0.0004
1541.00,0.0005
1540.00,0.0005
1539.00,0.0003
1538.00,0.0001
1537.00,-0.0000
1536.00,0.0000
1535.00,-0.0000
1534.00,-0.0002
1533.00,-0.0003
1532.00,-0.0003
1531.00,-0.0002
1530.00,-0.0001
1529.00,-0.0002
1528.00,-0.0002
1527.00,-0.0001
1526.00,0.0001
1525.00,0.0001
1524.00,-0.0001
1523.00,-0.0003
1522.00,-0.0004
1521.00,-0.0004
1520.00,-0.0005
1519.00,-0.0005
1518.00,-0.0003
1517.00,-0.0002
1516.00,-0.0001
1515.00,0.0001
1514.00,0.0004
1513.00,0.0005
1512.00,0.0003
1511.00,0.0001
1510.00,0.0002
1509.00,0.0006
1508.00,0.0008
1507.00,0.0008
1506.00,0.0008
1505.00,0.0007
1504.00,0.0004
1503.00,0.0001
1502.00,-0.0001
1501.00,-0.0002
1500.00,-0.0004
1499.00,-0.0006
1498.00,-0.0002
1497.00,0.0004
1496.00,0.0004
1495.00,0.0003
1494.00,0.0003
1493.00,0.0004
1492.00,0.0002
1491.00,-0.0000
1490.00,0.0000
1489.00,-0.0002
1488.00,-0.0005
1487.00,-0.0005
1486.00,-0.0004
1485.00,-0.0004
1484.00,-0.0005
1483.00,-0.0005
1482.00,-0.0004
1481.00,-0.0004
1480.00,-0.0004
1479.00,-0.0003
1478.00,-0.0001
1477.00,-0.0001
1476.00,-0.0000
1475.00,0.0004
1474.00,0.0010
1473.00,0.0012
1472.00,0.0009
1471.00,0.0005
1470.00,0.0002
1469.00,0.0000
1468.00,-0.0002
1467.00,-0.0003
1466.00,-0.0001
1465.00,0.0001
1464.00,0.0001
1463.00,0.0000
1462.00,0.0001
1461.00,0.0001
1460.00,-0.0001
1459.00,-0.0002
1458.00,0.0001
1457.00,0.0007
1456.00,0.0008
1455.00,0.0006
1454.00,0.0003
1453.00,0.0002
1452.00,0.0001
1451.00,-0.0001
1450.00,-0.0002
1449.00,-0.0001
1448.00,-0.0002
1447.00,-0.0004
1446.00,-0.0006
1445.00,-0.0004
1444.00,-0.0003
1443.00,-0.0005
1442.00,-0.0005
1441.00,-0.0003
1440.00,-0.0001
1439.00,-0.0002
1438.00,-0.0001
1437.00,0.0003
1436.00,0.0003
1435.00,-0.0001
1434.00,-0.0003
1433.00,-0.0002
1432.00,-0.0002
1431.00,-0.0005
1430.00,-0.0007
1429.00,-0.0004
1428.00,-0.0003
1427.00,-0.0004
1426.00,-0.0005
1425.00,-0.0002
1424.00,-0.0000
1423.00,-0.0002
1422.00,-0.0005
1421.00,-0.0004
1420.00,-0.0002
1419.00,-0.0004
1418.00,-0.0004
1417.00,0.0000
1416.00,0.0001
1415.00,-0.0002
1414.00,-0.0005
1413.00,-0.0004
1412.00,-0.0003
1411.00,-0.0005
1410.00,-0.0007
1409.00,-0.0005
1408.00,-0.0004
1407.00,-0.0005
1406.00,-0.0006
1405.00,-0.0005
1404.00,-0.0003
1403.00,-0.0003
1402.00,-0.0004
1401.00,-0.0003
1400.00,-0.0001
1399.00,-0.0002
1398.00,-0.0003
1397.00,-0.0002
1396.00,-0.0002
1395.00,-0.0005
1394.00,-0.0006
1393.00,-0.0004
1392.00,-0.0002
1391.00,-0.0003
1390.00,-0.0005
1389.00,-0.0006
1388.00,-0.0005
1387.00,-0.0004
1386.00,-0.0004
1385.00,-0.0004
1384.00,-0.0003
1383.00,-0.0004
1382.00,-0.0005
1381.00,-0.0004
1380.00,-0.0004
1379.00,-0.0003
1378.00,-0.0004
1377.00,-0.0005
1376.00,-0.0005
1375.00,-0.0005
1374.00,-0.0006
1373.00,-0.0006
1372.00,-0.0004
1371.00,-0.0004
1370.00,-0.0005
1369.00,-0.0005
1368.00,-0.0005
1367.00,-0.0005
1366.00,-0.0005
1365.00,-0.0006
1364.00,-0.0007
1363.00,-0.0007
1362.00,-0.0006
1361.00,-0.0005
1360.00,-0.0004
1359.00,-0.0004
1358.00,-0.0004
1357.00,-0.0004
1356.00,-0.0004
1355.00,-0.0004
1354.00,-0.0005
1353.00,-0.0005
1352.00,-0.0004
1351.00,-0.0004
1350.00,-0.0005
1349.00,-0.0004
1348.00,-0.0004
1347.00,-0.0004
1346.00,-0.0005
1345.00,-0.0005
1344.00,-0.0004
1343.00,-0.0004
1342.00,-0.0004
1341.00,-0.0003
1340.00,-0.0002
1339.00,-0.0002
1338.00,-0.0003
1337.00,-0.0003
1336.00,-0.0003
1335.00,-0.0003
1334.00,-0.0003
1333.00,-0.0004
1332.00,-0.0003
1331.00,-0.0004
1330.00,-0.0005
1329.00,-0.0005
1328.00,-0.0004
1327.00,-0.0004
1326.00,-0.0005
1325.00,-0.0005
1324.00,-0.0004
1323.00,-0.0004
1322.00,-0.0004
1321.00,-0.0004
1320.00,-0.0003
1319.00,-0.0003
1318.00,-0.0004
1317.00,-0.0004
1316.00,-0.0003
1315.00,-0.0003
1314.00,-0.0004
1313.00,-0.0004
1312.00,-0.0004
1311.00,-0.0004
1310.00,-0.0005
1309.00,-0.0005
1308.00,-0.0004
1307.00,-0.0004
1306.00,-0.0004
1305.00,-0.0003
1304.00,-0.0003
1303.00,-0.0003
1302.00,-0.0004
1301.00,-0.0004
1300.00,-0.0003
1299.00,-0.0004
1298.00,-0.0004
1297.00,-0.0004
1296.00,-0.0004
1295.00,-0.0004
1294.00,-0.0004
1293.00,-0.0003
1292.00,-0.0003
1291.00,-0.0003
1290.00,-0.0003
1289.00,-0.0003
1288.00,-0.0003
1287.00,-0.0004
1286.00,-0.0005
1285.00,-0.0005
1284.00,-0.0004
1283.00,-0.0004
1282.00,-0.0004
1281.00,-0.0004
1280.00,-0.0004
1279.00,-0.0004
1278.00,-0.0004
1277.00,-0.0004
1276.00,-0.0003
1275.00,-0.0003
1274.00,-0.0004
1273.00,-0.0004
1272.00,-0.0003
1271.00,-0.0003
1270.00,-0.0003
1269.00,-0.0003
1268.00,-0.0002
1267.00,-0.0003
1266.00,-0.0003
1265.00,-0.0004
1264.00,-0.0003
1263.00,-0.0004
1262.00,-0.0004
1261.00,-0.0004
1260.00,-0.0004
1259.00,-0.0004
1258.00,-0.0004
1257.00,-0.0003
1256.00,-0.0003
1255.00,-0.0003
1254.00,-0.0004
1253.00,-0.0004
1252.00,-0.0003
1251.00,-0.0003
1250.00,-0.0004
1249.00,-0.0004
1248.00,-0.0003
1247.00,-0.0003
1246.00,-0.0003
1245.00,-0.0003
1244.00,-0.0002
1243.00,-0.0003
1242.00,-0.0003
1241.00,-0.0003
1240.00,-0.0003
1239.00,-0.0003
1238.00,-0.0003
1237.00,-0.0002
1236.00,-0.0002
1235.00,-0.0002
1234.00,-0.0002
1233.00,-0.0003
1232.00,-0.0002
1231.00,-0.0003
1230.00,-0.0003
1229.00,-0.0003
1228.00,-0.0002
1227.00,-0.0002
1226.00,-0.0002
1225.00,-0.0002
1224.00,-0.0002
1223.00,-0.0002
1222.00,-0.0002
1221.00,-0.0002
1220.00,-0.0001
1219.00,-0.0001
1218.00,-0.0002
1217.00,-0.0002
1216.00,-0.0002
1215.00,-0.0002
1214.00,-0.0002
1213.00,-0.0001
1212.00,-0.0000
1211.00,-0.0000
1210.00,-0.0001
1209.00,-0.0001
1208.00,-0.0001
1207.00,-0.0001
1206.00,-0.0002
1205.00,-0.0002
1204.00,-0.0001
1203.00,-0.0001
1202.00,-0.0000
1201.00,0.0001
1200.00,0.0001
1199.00,0.0001
1198.00,-0.0000
1197.00,-0.0000
1196.00,0.0000
1195.00,-0.0000
1194.00,-0.0001
1193.00,-0.0001
1192.00,-0.0001
1191.00,-0.0001
1190.00,-0.0001
1189.00,-0.0001
1188.00,-0.0001
1187.00,-0.0001
1186.00,-0.0001
1185.00,-0.0001
1184.00,-0.0000
1183.00,-0.0001
1182.00,-0.0001
1181.00,-0.0001
1180.00,0.0000
1179.00,0.0000
1178.00,0.0000
1177.00,0.0000
1176.00,0.0001
1175.00,-0.0000
1174.00,-0.0001
1173.00,-0.0001
1172.00,-0.0000
1171.00,-0.0001
1170.00,-0.0001
1169.00,-0.0001
1168.00,-0.0000
1167.00,0.0000
1166.00,-0.0000
1165.00,-0.0000
1164.00,0.0000
1163.00,0.0000
1162.00,-0.0000
1161.00,0.0000
1160.00,0.0000
1159.00,0.0000
1158.00,0.0000
1157.00,0.0001
1156.00,0.0002
1155.00,0.0002
1154.00,0.0001
1153.00,0.0001
1152.00,0.0001
1151.00,0.0001
1150.00,0.0001
1149.00,0.0001
1148.00,0.0002
1147.00,0.0001
1146.00,0.0000
1145.00,0.0001
1144.00,0.0003
1143.00,0.0003
1142.00,0.0001
1141.00,0.0001
1140.00,0.0001
1139.00,0.0000
1138.00,0.0000
1137.00,0.0001
1136.00,0.0002
1135.00,0.0002
1134.00,0.0002
1133.00,0.0003
1132.00,0.0004
1131.00,0.0004
1130.00,0.0003
1129.00,0.0003
1128.00,0.0003
1127.00,0.0002
1126.00,-0.0000
1125.00,-0.0000
1124.00,0.0000
1123.00,0.0000
1122.00,0.0001
1121.00,0.0002
1120.00,0.0003
1119.00,0.0003
1118.00,0.0002
1117.00,0.0002
1116.00,0.0002
1115.00,0.0003
1114.00,0.0003
1113.00,0.0005
1112.00,0.0006
1111.00,0.0005
1110.00,0.0004
1109.00,0.0004
1108.00,0.0005
1107.00,0.0005
1106.00,0.0005
1105.00,0.0005
1104.00,0.0006
1103.00,0.0005
1102.00,0.0004
1101.00,0.0005
1100.00,0.0006
1099.00,0.0006
1098.00,0.0006
1097.00,0.0006
1096.00,0.0006
1095.00,0.0005
1094.00,0.0004
1093.00,0.0003
1092.00,0.0003
1091.00,0.0003
1090.00,0.0002
1089.00,0.0004
1088.00,0.0005
1087.00,0.0005
1086.00,0.0003
1085.00,0.0003
1084.00,0.0004
1083.00,0.0005
1082.00,0.0005
1081.00,0.0007
1080.00,0.0009
1079.00,0.0009
1078.00,0.0007
1077.00,0.0006
1076.00,0.0006
1075.00,0.0006
1074.00,0.0006
1073.00,0.0008
1072.00,0.0009
1071.00,0.0009
1070.00,0.0009
1069.00,0.0011
1068.00,0.0013
1067.00,0.0014
1066.00,0.0013
1065.00,0.0012
1064.00,0.0013
1063.00,0.0012
1062.00,0.0011
1061.00,0.0012
1060.00,0.0013
1059.00,0.0013
1058.00,0.0012
1057.00,0.0013
1056.00,0.0014
1055.00,0.0012
1054.00,0.0010
1053.00,0.0010
1052.00,0.0013
1051.00,0.0014
1050.00,0.0013
1049.00,0.0013
1048.00,0.0014
1047.00,0.0012
1046.00,0.0011
1045.00,0.0011
1044.00,0.0012
1043.00,0.0011
1042.00,0.0010
1041.00,0.0010
1040.00,0.0012
1039.00,0.0013
1038.00,0.0013
1037.00,0.0014
1036.00,0.0014
1035.00,0.0013
1034.00,0.0011
1033.00,0.0013
1032.00,0.0015
1031.00,0.0015
1030.00,0.0014
1029.00,0.0016
1028.00,0.0018
1027.00,0.0018
1026.00,0.0015
1025.00,0.0015
1024.00,0.0015
1023.00,0.0014
1022.00,0.0015
1021.00,0.0018
1020.00,0.0022
1019.00,0.0023
1018.00,0.0020
1017.00,0.0019
1016.00,0.0017
1015.00,0.0014
1014.00,0.0012
1013.00,0.0012
1012.00,0.0015
1011.00,0.0016
1010.00,0.0015
1009.00,0.0016
1008.00,0.0018
1007.00,0.0016
1006.00,0.0015
1005.00,0.0017
1004.00,0.0018
1003.00,0.0016
1002.00,0.0015
1001.00,0.0020
1000.00,0.0026
999.00,0.0026
998.00,0.0023
997.00,0.0023
996.00,0.0026
995.00,0.0027
994.00,0.0028
993.00,0.0032
992.00,0.0035
991.00,0.0031
990.00,0.0026
989.00,0.0027
988.00,0.0030
987.00,0.0030
986.00,0.0027
985.00,0.0027
984.00,0.0028
983.00,0.0026
982.00,0.0025
981.00,0.0028
980.00,0.0032
979.00,0.0030
978.00,0.0027
977.00,0.0027
976.00,0.0028
975.00,0.0025
974.00,0.0022
973.00,0.0025
972.00,0.0030
971.00,0.0029
970.00,0.0027
969.00,0.0031
968.00,0.0034
967.00,0.0030
966.00,0.0024
965.00,0.0026
964.00,0.0033
963.00,0.0032
962.00,0.0027
961.00,0.0028
960.00,0.0032
959.00,0.0029
958.00,0.0025
957.00,0.0031
956.00,0.0041
955.00,0.0040
954.00,0.0029
953.00,0.0025
952.00,0.0026
951.00,0.0023
950.00,0.0019
949.00,0.0025
948.00,0.0035
947.00,0.0033
946.00,0.0024
945.00,0.0027
944.00,0.0040
943.00,0.0047
942.00,0.0054
941.00,0.0070
940.00,0.0081
939.00,0.0063
938.00,0.0031
937.00,0.0022
936.00,0.0037
935.00,0.0051
934.00,0.0059
933.00,0.0072
932.00,0.0078
931.00,0.0058
930.00,0.0032
929.00,0.0030
928.00,0.0043
927.00,0.0039
926.00,0.0033
925.00,0.0060
924.00,0.0109
923.00,0.0130
922.00,0.0119
921.00,0.0111
920.00,0.0107
919.00,0.0092
918.00,0.0094
917.00,0.0138
916.00,0.0173
915.00,0.0141
914.00,0.0077
913.00,0.0055
912.00,0.0054
911.00,0.0023
910.00,0.0001
909.00,0.0055
908.00,0.0114
907.00,0.0070
906.00,-0.0027
905.00,-0.0031
904.00,0.0059
903.00,0.0109
902.00,0.0093
901.00,0.0102
900.00,0.0102
899.00,-0.0013
898.00,-0.0174
897.00,-0.0213
896.00,-0.0119
895.00,-0.0042
894.00,-0.0047
893.00,-0.0022
892.00,0.0019
891.00,-0.0097
890.00,-0.0301
889.00,-0.0362
888.00,-0.0300
887.00,-0.0256
886.00,-0.0290
885.00,-0.0240
884.00,-0.0096
883.00,-0.0029
882.00,-0.0112
881.00,-0.0246
880.00,-0.0391
879.00,-0.0400
878.00,-0.0538
877.00,-0.1041
876.00,-0.1261
875.00,-0.0767
874.00,-0.0137
873.00,0.0404
872.00,0.0425
871.00,-0.0035
870.00,-0.1106
869.00,-0.2439
868.00,-0.3456
867.00,-0.2907
866.00,-0.1846
865.00,-0.1951
864.00,-0.2252
863.00,-0.2756
862.00,-0.2944
861.00,-0.2608
860.00,-0.2965
859.00,-0.2212
858.00,-0.0130
857.00,-0.0801
856.00,-0.0741
855.00,0.0100
854.00,-0.0146
853.00,-0.0638
852.00,-0.0987
851.00,-0.0841
850.00,-0.0942
849.00,-0.2074
848.00,-0.3007
847.00,-0.3152
846.00,-0.2496
845.00,-0.2395
844.00,-0.2713
843.00,-0.3507
842.00,-0.4719
841.00,-0.4290
840.00,-0.3804
839.00,-0.3322
838.00,-0.2149
837.00,-0.3035
836.00,-0.3093
835.00,-0.1893
834.00,-0.0173
833.00,-0.0399
832.00,-0.2023
831.00,-0.5379
830.00,-1.0657
829.00,-1.1272
828.00,-0.5433
827.00,-0.3399
826.00,-0.2928
825.00,-0.1972
824.00,-0.2888
823.00,-0.3346
822.00,-0.3105
821.00,-0.1145
820.00,-0.0210
819.00,0.1161
818.00,0.2402
817.00,-0.0244
816.00,-0.1416
815.00,-0.1591
814.00,-0.1594
813.00,-0.1995
812.00,-0.2592
811.00,-0.3152
810.00,-0.3520
809.00,-0.2529
808.00,-0.1600
807.00,-0.1107
806.00,-0.1728
805.00,-0.3135
804.00,-0.3221
803.00,-0.3490
802.00,-0.3915
801.00,-0.3538
800.00,-0.3134
799.00,-0.2612
798.00,-0.1214
797.00,-0.2085
796.00,-0.2661
795.00,-0.2639
794.00,-0.4176
793.00,-0.0768
792.00,0.0723
791.00,0.0335
790.00,-0.0060
789.00,-0.0203
788.00,-0.0669
787.00,-0.0509
786.00,-0.0708
785.00,-0.2219
784.00,-0.4848
783.00,-0.6982
782.00,-0.4145
781.00,-0.2076
780.00,-0.0993
779.00,-0.1719
778.00,-0.2747
777.00,-0.4940
776.00,-0.4893
775.00,-0.8561
774.00,-1.3015
773.00,-0.8160
772.00,-0.5046
771.00,-0.7531
770.00,-0.8750
769.00,-0.6669
768.00,-0.3794
767.00,-0.3773
766.00,-0.2925
765.00,-0.1974
764.00,-0.1292
763.00,-0.1094
762.00,-0.1456
761.00,-0.2801
760.00,-0.2574
759.00,-0.1182
758.00,0.0861
757.00,-0.0495
756.00,-0.1962
755.00,-0.3091
754.00,-0.4010
753.00,-0.3618
752.00,-0.3257
751.00,-0.3474
750.00,-0.3761
749.00,-0.3614
748.00,-0.3296
747.00,-0.2223
746.00,-0.0959
745.00,-0.1459
744.00,-0.2268
743.00,-0.1275
742.00,-0.3907
741.00,-0.5259
740.00,-0.6496
739.00,-1.0474
738.00,-0.6118
737.00,-0.8720
736.00,-0.4558
735.00,-0.1957
734.00,-0.2713
733.00,-0.1767
732.00,-0.2519
731.00,-0.3014
730.00,-0.5308
729.00,-0.5526
728.00,-0.4787
727.00,-0.4484
726.00,-0.3369
725.00,-0.2383
724.00,-0.2216
723.00,-0.2846
722.00,-0.6251
721.00,-0.7300
720.00,-0.6295
719.00,-0.5939
718.00,-0.5311
717.00,-0.5435
716.00,-0.4016
715.00,-0.4165
714.00,-0.3942
713.00,-0.2792
712.00,-0.1882
711.00,-0.0920
710.00,-0.0202
709.00,-0.0339
708.00,-0.1153
707.00,-0.1741
706.00,-0.1590
705.00,-0.1605
704.00,-0.1563
703.00,-0.1355
702.00,-0.2080
701.00,-0.2285
700.00,-0.1760
699.00,-0.1623
698.00,-0.3751
697.00,-0.5949
696.00,-0.6242
695.00,-0.4871
694.00,-0.1296
693.00,-0.1424
692.00,-0.2192
691.00,-0.2900
690.00,-0.4354
689.00,-0.4062
688.00,-0.3361
687.00,-0.3233
686.00,-0.3409
685.00,-0.3194
684.00,-0.3342
683.00,-0.3556
682.00,-0.2426
681.00,-0.1936
680.00,-0.1472
679.00,0.0077
678.00,0.2423
677.00,0.1794
676.00,0.0984
675.00,0.1503
674.00,0.1687
673.00,-0.0489
672.00,-0.1214
671.00,-0.0692
670.00,-0.0813
669.00,-0.1457
668.00,-0.2028
667.00,-0.2194
666.00,-0.1360
665.00,-0.1438
664.00,-0.2093
663.00,-0.2622
662.00,-0.2337
661.00,-0.0180
660.00,0.0820
659.00,0.1744
658.00,0.2595
657.00,0.0218
656.00,-0.0686
655.00,-0.2376
654.00,-0.7008
653.00,-0.6150
652.00,-0.4533
651.00,-0.4224
650.00,-0.3508
649.00,-0.1712
648.00,-0.1933
647.00,-0.2297
646.00,-0.1709
645.00,-0.1160
644.00,-0.0550
643.00,0.0592
642.00,0.2167
641.00,0.1264
640.00,0.0302
639.00,-0.0428
638.00,-0.3660
637.00,-0.4019
636.00,-0.2239
635.00,0.0153
634.00,0.3795
633.00,0.0794
632.00,-0.1162
631.00,-0.3683
630.00,-0.8396
629.00,-0.7746
628.00,-0.5834
627.00,-0.5995
626.00,-0.4885
625.00,-0.2387
624.00,-0.1700
623.00,-0.1669
622.00,-0.1915
621.00,-0.1800
620.00,-0.1494
619.00,-0.0980
618.00,-0.0436
617.00,-0.1237
616.00,-0.1631
615.00,-0.1937
614.00,-0.2106
613.00,-0.3000
612.00,-0.3105
611.00,-0.4907
610.00,-0.8886
609.00,-0.5944
608.00,-0.3581
607.00,-0.3163
606.00,-0.2387
605.00,-0.2186
604.00,-0.2090
603.00,-0.2871
602.00,-0.4583
601.00,-0.4329
600.00,-0.3850
599.00,-0.4186
598.00,-0.4305
597.00,-0.2998
596.00,-0.2115
595.00,-0.1406
594.00,0.0050
593.00,-0.0403
592.00,-0.1897
591.00,-0.3747
590.00,-0.5872
589.00,-0.5503
588.00,-0.2731
587.00,-0.1119
586.00,-0.0708
585.00,-0.2143
584.00,-0.3129
583.00,-0.4215
582.00,-0.5021
581.00,-0.4127
580.00,-0.3915
579.00,-0.4704
578.00,-0.4242
577.00,-0.3759
576.00,-0.3138
575.00,-0.2585
574.00,0.0202
573.00,-0.0247
572.00,-0.0912
571.00,-0.0534
570.00,0.0874
569.00,0.0557
568.00,-0.0385
567.00,-0.0753
566.00,-0.0620
565.00,-0.1340
564.00,-0.1898
563.00,-0.2267
562.00,-0.5773
561.00,-0.6936
560.00,-0.6025
559.00,-0.6010
558.00,-0.4510
557.00,-0.3780
556.00,-0.3377
555.00,-0.2957
554.00,-0.2595
553.00,-0.2210
552.00,-0.2171
551.00,-0.1769
550.00,-0.0524
549.00,-0.0743
548.00,-0.1292
547.00,-0.1826
546.00,-0.3909
545.00,-0.5683
544.00,-0.5810
543.00,-0.6909
542.00,-0.7211
541.00,-0.5962
540.00,-0.5485
539.00,-0.8739
538.00,-0.8621
537.00,-0.5056
536.00,-0.2488
535.00,-0.1901
534.00,-0.2018
533.00,-0.2428
532.00,-0.2549
531.00,-0.2635
530.00,-0.3528
529.00,-0.4233
528.00,-0.5104
527.00,-0.6511
526.00,-0.3349
525.00,-0.4910
524.00,-0.5659
523.00,-0.4216
522.00,-0.1420
521.00,-0.0455
520.00,-0.0300
519.00,0.0500
518.00,-0.0406
517.00,-0.2794
516.00,-0.4397
515.00,-0.5480
514.00,-0.4598
513.00,-0.2989
512.00,-0.1881
511.00,-0.1309
510.00,-0.1677
509.00,-0.1983
508.00,-0.2270
507.00,-0.2210
506.00,-0.1328
505.00,-0.0852
504.00,-0.1476
503.00,-0.2405
502.00,-0.3916
501.00,-0.2706
500.00,-0.2032
499.00,-0.1736
498.00,-0.2037
497.00,-0.2737
496.00,-0.2946
495.00,-0.3097
494.00,-0.3194
493.00,-0.2758
492.00,-0.2520
491.00,-0.3559
490.00,-0.4529
489.00,-0.4379
488.00,-0.3861
487.00,-0.4246
486.00,-0.5077
485.00,-0.5113
484.00,-0.4756
483.00,-0.4972
482.00,-0.2288
481.00,-0.2768
480.00,-0.3912
479.00,-0.3405
478.00,-0.1091
477.00,-0.0327
476.00,-0.0771
475.00,0.0405
474.00,0.0246
473.00,-0.2145
472.00,-0.5853
471.00,-1.1645
470.00,-0.3972
469.00,-0.6134
468.00,-1.2084
467.00,-0.6687
466.00,-0.1690
465.00,-0.1647
464.00,-0.1871
463.00,-0.2144
462.00,-0.1661
461.00,-0.1799
460.00,-0.1453
459.00,-0.0490
458.00,0.0864
457.00,0.0140
456.00,-0.1131
455.00,-0.2809
454.00,-0.5863
453.00,-0.5235
452.00,-0.4167
451.00,-0.3913
450.00,-0.2772
