Data from 1003 pointing at moon_Subt2__0__22-05-15-398.txt Node

Date: Tue Oct 07 22:05:15 EDT 2025
User: brett
Spectrometer: USB4F03499
Trigger mode: 4
Integration Time (sec): 6.187200E0
Scans to average: 1
Electric dark correction enabled: true
Nonlinearity correction enabled: true
Boxcar width: 0
XAxis mode: Wavelengths
Number of Pixels in Spectrum: 3648
>>>>>Begin Spectral Data<<<<<
345.386	-1399.93612
345.605	-1399.93612
345.824	-1399.93612
346.044	-1396.86847
346.263	-1347.54559
346.482	203.52977
346.701	-252.66287
346.92	24.80863
347.139	-261.87308
347.358	-91.61699
347.577	1034.59626
347.796	176.58194
348.015	836.5121
348.234	-669.02534
348.453	-499.95757
348.672	-204.92039
348.891	-343.94133
349.11	-72.29668
349.329	1229.8708
349.548	210.30072
349.767	1245.83546
349.986	1774.56165
350.205	319.90261
350.424	262.89581
350.643	148.65861
350.862	214.80742
351.08	1969.29167
351.299	285.0988
351.518	192.15391
351.737	1009.47173
351.956	747.52813
352.174	877.79994
352.393	632.7677
352.612	-64.35789
352.831	863.95495
353.049	919.64507
353.268	267.31951
353.487	1281.62623
353.705	279.75425
353.924	494.67334
354.143	1013.35166
354.361	671.77819
354.58	933.89581
354.798	140.6222
355.017	594.44124
355.236	37.2151
355.454	-182.34878
355.673	480.52029
355.891	1623.87154
356.11	27.07232
356.328	28.20851
356.547	618.44596
356.765	256.08708
356.984	867.79739
357.202	358.02934
357.42	280.9149
357.639	711.24763
357.857	814.45732
358.076	175.45387
358.294	479.09063
358.512	675.33419
358.731	1484.36122
358.949	-33.85218
359.167	1239.06398
359.386	3374.46743
359.604	203.54519
359.822	889.62027
360.04	993.06325
360.259	578.7524
360.477	-41.80217
360.695	761.78546
360.913	1156.68731
361.131	1810.84915
361.35	1153.12761
361.568	370.05144
361.786	1241.5744
362.004	842.30068
362.222	544.85543
362.44	1057.26557
362.658	1015.43628
362.876	1603.23541
363.094	754.32262
363.312	749.67632
363.53	1519.95119
363.749	763.43071
363.967	931.11502
364.184	154.05198
364.402	961.45331
364.62	520.9462
364.838	-1.12851
365.056	583.96852
365.274	458.11516
365.492	421.98767
365.71	7.89746
365.928	558.09966
366.146	1261.57066
366.364	1324.5619
366.581	882.53344
366.799	709.70589
367.017	914.61549
367.235	526.91259
367.453	794.75865
367.67	312.03898
367.888	618.82707
368.106	1537.80222
368.323	6290.57393
368.541	844.40763
368.759	835.85829
368.977	1904.95456
369.194	1077.7817
369.412	1045.32542
369.629	1034.34623
369.847	625.5082
370.065	1031.80563
370.282	807.56776
370.5	1200.6951
370.717	1397.5738
370.935	1071.27187
371.152	672.80951
371.37	1040.22526
371.588	1433.85422
371.805	795.56311
372.022	1347.40252
372.24	711.40069
372.457	1159.08065
372.675	638.63766
372.892	721.18115
373.11	1377.02622
373.327	787.39731
373.544	936.36236
373.762	891.06292
373.979	1603.07831
374.196	1856.66368
374.414	1203.93831
374.631	1668.59143
374.848	1804.3678
375.066	726.04472
375.283	445.58692
375.5	583.24376
375.717	1966.64993
375.935	1456.82921
376.152	1648.66821
376.369	950.72745
376.586	906.90189
376.803	2384.66861
377.02	1484.12358
377.238	949.20284
377.455	1002.37672
377.672	1180.39543
377.889	812.89356
378.106	583.54137
378.323	712.12059
378.54	1076.61627
378.757	963.23841
378.974	909.71156
379.191	2140.70715
379.408	1215.40556
379.625	947.50943
379.842	882.00316
380.059	792.1646
380.276	1270.38208
380.493	682.25595
380.71	1412.42569
380.927	1617.76837
381.143	1854.59702
381.36	1411.1594
381.577	910.84034
381.794	1128.36154
382.011	1415.95274
382.228	1177.53437
382.444	1291.081
382.661	1404.99656
382.878	1147.22613
383.095	1131.748
383.311	1384.45932
383.528	1649.90313
383.745	938.31247
383.962	810.72412
384.178	1097.03733
384.395	1378.70639
384.612	1443.62589
384.828	1712.66425
385.045	1055.15493
385.261	1293.29697
385.478	1618.77133
385.695	993.48072
385.911	1025.12386
386.128	1455.57535
386.344	1496.8348
386.561	636.33497
386.777	1416.37285
386.994	1560.63627
387.21	3056.69678
387.427	1003.11967
387.643	768.30331
387.86	1502.63298
388.076	1178.302
388.292	1746.13576
388.509	844.76638
388.725	1572.1758
388.942	1285.96367
389.158	823.59527
389.374	1340.8187
389.591	1412.47264
389.807	1328.39433
390.023	1417.55545
390.239	749.35295
390.456	1037.93108
390.672	1571.25364
390.888	1026.21627
391.104	2945.99606
391.321	1583.32374
391.537	1342.2575
391.753	1280.01851
391.969	1565.252
392.185	1406.17536
392.401	1682.55705
392.618	1519.75122
392.834	1977.83472
393.05	1369.4711
393.266	1607.5389
393.482	2134.72665
393.698	1230.04047
393.914	2080.44842
394.13	2171.30564
394.346	2208.3917
394.562	1773.32958
394.778	1671.17849
394.994	2163.29366
395.21	1761.20598
395.426	1781.7479
395.642	1734.61326
395.858	1579.04113
396.073	1425.89109
396.289	1764.75055
396.505	1897.04943
396.721	2574.84111
396.937	1969.87707
397.153	1344.37905
397.369	1804.83109
397.584	1844.17455
397.8	1426.01718
398.016	2038.06798
398.232	3025.89027
398.447	1787.56844
398.663	1980.84668
398.879	1141.88674
399.094	1796.84149
399.31	2557.87058
399.526	2276.03122
399.741	1423.84383
399.957	2254.67752
400.173	2008.43701
400.388	1824.56171
400.604	1455.04407
400.82	1893.82893
401.035	1979.27349
401.251	1459.05402
401.466	1342.93467
401.682	1993.88586
401.897	1877.26484
402.113	1867.23304
402.328	1853.51566
402.544	2246.73667
402.759	2172.89369
402.974	2007.92601
403.19	2574.01588
403.405	2508.40595
403.621	2619.01761
403.836	2974.43104
404.051	2274.51081
404.267	2500.88778
404.482	2955.4815
404.697	3103.43594
404.913	2015.32142
405.128	2899.5022
405.343	2932.23534
405.559	2512.64249
405.774	2582.72822
405.989	2709.98169
406.204	2915.27666
406.42	2961.16642
406.635	2936.26047
406.85	2692.87141
407.065	3177.10721
407.28	2480.33829
407.495	2744.68778
407.71	3943.63666
407.926	3071.1554
408.141	2972.45661
408.356	3625.11087
408.571	3061.11318
408.786	2873.48882
409.001	2798.72686
409.216	3267.41151
409.431	3444.09845
409.646	3780.44221
409.861	3516.68079
410.076	3566.99414
410.291	3034.21953
410.506	3244.61736
410.721	2624.81171
410.936	3029.48886
411.15	2993.9711
411.365	3371.48909
411.58	3727.2006
411.795	3208.62835
412.01	3434.29174
412.225	3578.17004
412.439	3353.73077
412.654	3282.47053
412.869	3622.41015
413.084	3638.93407
413.299	2954.27015
413.513	2974.96861
413.728	3389.03501
413.943	3672.0653
414.157	3203.7195
414.372	3140.84883
414.587	3882.97671
414.801	3766.90961
415.016	3349.76311
415.231	3413.19015
415.445	3478.46884
415.66	3568.02818
415.874	3290.5108
416.089	3396.78424
416.304	3837.48922
416.518	4638.96916
416.733	4631.48979
416.947	3224.71312
417.162	4334.13301
417.376	3984.23321
417.59	4333.7125
417.805	3820.96125
418.019	4046.28394
418.234	3815.22442
418.448	3878.42851
418.663	3785.7924
418.877	4115.5661
419.091	4149.31208
419.306	3991.30445
419.52	3893.83168
419.734	4791.8284
419.949	5066.61454
420.163	3849.73235
420.377	3460.47685
420.591	4484.3286
420.806	4536.46971
421.02	3675.93112
421.234	3873.31819
421.448	4560.51166
421.663	3974.19297
421.877	3841.79406
422.091	3969.57949
422.305	4822.81883
422.519	4821.34331
422.733	4194.46188
422.947	3987.85319
423.161	4152.49254
423.376	4099.56168
423.59	4998.40587
423.804	4011.56963
424.018	4616.43475
424.232	4241.34033
424.446	4891.4814
424.66	4580.05663
424.874	4214.02104
425.088	4367.93741
425.302	9642.99804
425.515	4376.96606
425.729	4618.36354
425.943	4848.24216
426.157	4522.2494
426.371	4829.34131
426.585	4547.47204
426.799	4485.78588
427.013	5170.08818
427.226	4575.93966
427.44	4335.82817
427.654	5501.09816
427.868	6095.35679
428.081	4186.48512
428.295	4667.39009
428.509	4278.36605
428.723	4599.09894
428.936	4054.50305
429.15	4611.19846
429.364	5670.78085
429.577	3998.93701
429.791	4346.59101
430.005	4811.61122
430.218	4592.50864
430.432	4256.29178
430.645	4542.00205
430.859	4675.46241
431.073	4539.85395
431.286	4448.55352
431.5	4519.18856
431.713	5039.11592
431.927	4715.63246
432.14	4595.02433
432.354	4166.7963
432.567	4629.78
432.781	4490.98956
432.994	4589.23252
433.207	4227.43957
433.421	4542.04886
433.634	5307.92783
433.848	6757.52018
434.061	4485.414
434.274	4670.63563
434.488	4559.18803
434.701	6584.75127
434.914	5311.76682
435.127	5097.70235
435.341	5762.04231
435.554	4403.66285
435.767	4920.25297
435.98	4769.65176
436.194	4799.21134
436.407	4449.34988
436.62	4990.18653
436.833	5215.11105
437.046	4813.35112
437.259	5243.64537
437.473	5796.39566
437.686	5199.34385
437.899	6249.28704
438.112	5597.9365
438.325	4565.02336
438.538	5165.09555
438.751	5569.32577
438.964	5198.72101
439.177	6069.08147
439.39	5439.90958
439.603	5967.34303
439.816	5628.20153
440.029	5200.50054
440.242	6065.22533
440.455	6287.29841
440.668	5861.545
440.881	5131.53909
441.094	5848.07486
441.306	5794.52189
441.519	6326.44967
441.732	5953.08897
441.945	6451.5851
442.158	6189.7951
442.37	5974.33615
442.583	6235.46702
442.796	6432.14333
443.009	6348.14018
443.222	6461.36979
443.434	6246.88616
443.647	6534.27108
443.86	7423.13311
444.072	7864.07363
444.285	6420.73757
444.498	7241.34007
444.71	6687.62084
444.923	6710.25012
445.136	6709.16997
445.348	6782.48933
445.561	6547.18406
445.773	6716.94358
445.986	6639.42287
446.198	7361.88175
446.411	7045.0919
446.623	7496.71993
446.836	6963.15577
447.048	7338.36267
447.261	7818.84857
447.473	7633.95998
447.686	7583.23395
447.898	8492.90268
448.11	8186.20533
448.323	26966.67425
448.535	7528.50032
448.748	7547.45698
448.96	7811.6898
449.172	7762.13857
449.385	7359.3859
449.597	8056.72775
449.809	7487.4394
450.021	7634.91881
450.234	8178.71963
450.446	8502.47239
450.658	7820.24894
450.87	7580.63793
451.083	8769.12196
451.295	7922.81633
451.507	7898.38748
451.719	7671.56532
451.931	8034.90166
452.143	8121.74235
452.356	7898.80954
452.568	8028.66592
452.78	8677.98421
452.992	8083.46338
453.204	8807.54242
453.416	7985.60017
453.628	7981.30926
453.84	8443.46686
454.052	8363.04333
454.264	8440.51872
454.476	8290.44041
454.688	9173.07945
454.9	8581.25464
455.112	8121.23973
455.324	8100.84665
455.536	8672.24125
455.747	8412.99984
455.959	8508.95671
456.171	8628.44174
456.383	8244.18115
456.595	9154.35361
456.807	8013.26924
457.018	8243.17184
457.23	8543.11008
457.442	8781.34911
457.654	9328.40162
457.865	8397.10064
458.077	10289.72672
458.289	8084.99634
458.501	8373.2783
458.712	8513.00232
458.924	9929.74064
459.136	8934.36337
459.347	8312.16131
459.559	8349.46756
459.77	8906.95436
459.982	9038.5786
460.194	9041.42164
460.405	8263.19733
460.617	8930.56562
460.828	9320.14269
461.04	9078.58322
461.251	9059.93343
461.463	10398.91648
461.674	10422.85593
461.886	9671.7501
462.097	8817.34075
462.309	9677.19157
462.52	9534.86392
462.731	9836.16992
462.943	9815.16181
463.154	9821.83375
463.366	10397.54673
463.577	10138.67582
463.788	10018.2286
464	9777.29066
464.211	9942.21725
464.422	10592.8726
464.634	10033.68992
464.845	10715.5882
465.056	10751.97923
465.267	10464.39913
465.478	9521.73052
465.69	10825.52052
465.901	10984.60245
466.112	10170.17143
466.323	10616.94373
466.534	10797.03755
466.745	12315.13877
466.957	11218.79006
467.168	10545.99412
467.379	11367.21182
467.59	10578.19713
467.801	10667.14879
468.012	10877.73881
468.223	11082.11325
468.434	11050.58642
468.645	11373.3394
468.856	11919.40607
469.067	12446.31136
469.278	12051.75608
469.489	11555.82556
469.7	10918.45885
469.911	11398.46738
470.122	11871.73883
470.333	12333.10642
470.543	11182.95322
470.754	12410.95399
470.965	12607.28079
471.176	11925.53787
471.387	12167.64475
471.598	12031.69635
471.808	12493.26879
472.019	12010.37937
472.23	12106.81861
472.441	12490.57999
472.651	12334.4899
472.862	12056.44555
473.073	12888.91474
473.283	13072.32588
473.494	12957.32829
473.705	12457.9331
473.915	13344.27145
474.126	13867.23977
474.337	13246.83027
474.547	13699.13532
474.758	13423.37035
474.968	14606.59017
475.179	13865.81178
475.389	14603.81304
475.6	13529.3758
475.81	15026.32662
476.021	14243.68052
476.231	14263.60991
476.442	13955.93276
476.652	14563.5413
476.863	14452.01918
477.073	14080.21549
477.284	14363.31293
477.494	15047.02999
477.704	15349.5688
477.915	15662.04627
478.125	15036.34869
478.335	15795.18494
478.546	16804.426
478.756	15482.65802
478.966	15570.88368
479.177	15859.46333
479.387	16965.54513
479.597	16506.90464
479.807	16375.24061
480.018	16670.75974
480.228	16682.46291
480.438	16527.25975
480.648	16977.25167
480.858	18701.37454
481.068	17010.67195
481.279	18141.59939
481.489	17981.58042
481.699	17861.17663
481.909	17656.99861
482.119	18818.5907
482.329	18744.21329
482.539	19008.05106
482.749	19720.44434
482.959	18614.7392
483.169	19589.74764
483.379	19600.57097
483.589	19861.17742
483.799	19018.99079
484.009	19222.8345
484.219	19606.60286
484.429	20368.84993
484.639	19455.35801
484.849	19651.31301
485.059	20767.39211
485.268	20924.09541
485.478	20779.84444
485.688	20675.41064
485.898	20353.07701
486.108	20933.78771
486.317	22129.61173
486.527	21215.68096
486.737	21846.18193
486.947	21831.0931
487.156	22329.92277
487.366	21456.86624
487.576	21666.96283
487.785	21963.09844
487.995	21823.51974
488.205	21815.01199
488.414	22289.10787
488.624	22720.75707
488.834	21961.02278
489.043	22196.61626
489.253	22591.76697
489.462	23034.45069
489.672	22721.48042
489.882	23473.73166
490.091	23427.36766
490.301	23234.60498
490.51	23391.30586
490.72	23856.45386
490.929	24100.74701
491.138	24474.40279
491.348	24303.9964
491.557	23546.37017
491.767	24936.34094
491.976	24278.8317
492.185	23903.56067
492.395	24117.0394
492.604	24882.20292
492.813	24942.75915
493.023	25193.65684
493.232	24580.29393
493.441	24647.22601
493.651	25488.73053
493.86	24887.96273
494.069	25114.31845
494.278	25570.33797
494.488	25605.68673
494.697	25816.30215
494.906	25639.03802
495.115	26141.27572
495.324	26077.60547
495.533	26059.65144
495.743	26372.50056
495.952	26857.68678
496.161	26917.76901
496.37	26743.43184
496.579	27289.15847
496.788	27381.35542
496.997	28048.59255
497.206	27541.04507
497.415	28044.04538
497.624	27823.34417
497.833	28583.06874
498.042	28511.63158
498.251	29863.95435
498.46	28671.27303
498.669	28909.40979
498.878	28731.2872
499.087	28674.44561
499.296	29175.55519
499.504	29543.33292
499.713	28648.6786
499.922	29317.68387
500.131	29738.9191
500.34	30492.1951
500.549	29700.94594
500.757	29230.66189
500.966	29651.2999
501.175	29942.22919
501.384	30249.61231
501.592	29735.04234
501.801	30760.25258
502.01	30342.4323
502.218	30385.82472
502.427	30622.94363
502.636	30185.4835
502.844	30733.51905
503.053	30642.04705
503.262	30225.34113
503.47	31075.22782
503.679	30614.45972
503.887	30551.04357
504.096	31018.2086
504.304	30787.25854
504.513	30855.61672
504.721	31341.46219
504.93	31007.47562
505.138	31251.50012
505.347	31422.00213
505.555	30572.42844
505.764	30987.52204
505.972	31313.33897
506.18	31068.92909
506.389	30792.76351
506.597	30832.40668
506.806	30951.93186
507.014	31325.39357
507.222	31226.93131
507.431	31003.63815
507.639	31040.26876
507.847	31521.18628
508.055	31219.91123
508.264	31969.76004
508.472	32174.91731
508.68	31781.91048
508.888	31893.81263
509.096	31737.48074
509.305	32347.09348
509.513	31990.80916
509.721	32003.68836
509.929	32267.38648
510.137	31842.39437
510.345	32008.77416
510.553	32022.01507
510.762	31921.93322
510.97	32056.331
511.178	32416.08556
511.386	32699.0503
511.594	32318.42623
511.802	32370.98629
512.01	32139.11172
512.218	32314.42966
512.426	32376.70231
512.634	33433.23416
512.842	32600.5303
513.049	32976.80448
513.257	32334.32802
513.465	32887.72442
513.673	32775.12549
513.881	32703.72103
514.089	32753.44684
514.297	33038.10709
514.504	32653.71829
514.712	32987.16181
514.92	33009.78762
515.128	33170.5643
515.336	33145.05517
515.543	33370.93011
515.751	33171.47076
515.959	33462.50203
516.166	33162.18908
516.374	33306.21063
516.582	33570.12285
516.789	33419.43751
516.997	33531.03112
517.205	33331.77219
517.412	33381.86329
517.62	33514.37665
517.827	33495.33942
518.035	33350.23874
518.243	33444.15964
518.45	33380.8454
518.658	33432.54401
518.865	33254.77261
519.073	33193.67556
519.28	33770.72291
519.488	33266.13393
519.695	33507.77362
519.902	33204.76278
520.11	33370.48645
520.317	33387.43259
520.525	33461.66156
520.732	33147.11453
520.939	33452.10857
521.147	33163.0763
521.354	33415.80934
521.561	33170.47233
521.769	33239.72436
521.976	33170.61935
522.183	33226.25224
522.391	33179.44403
522.598	33304.43368
522.805	33432.22594
523.012	33413.23697
523.219	33556.00553
523.427	33406.01278
523.634	33478.82279
523.841	33495.33942
524.048	33477.10765
524.255	33528.25245
524.462	33667.17399
524.669	33501.5907
524.877	33720.02751
525.084	33580.16023
525.291	33597.75866
525.498	33525.15494
525.705	33571.8081
525.912	33835.97257
526.119	33777.70908
526.326	33804.27494
526.533	33830.04025
526.74	33796.19854
526.947	33898.08518
527.153	33784.64953
527.36	34030.10204
527.567	33895.32082
527.774	34112.53168
527.981	33878.50202
528.188	34054.77206
528.395	33993.82849
528.602	34048.41853
528.808	34036.78731
529.015	33964.49334
529.222	34103.74203
529.429	34031.97552
529.635	34106.82493
529.842	34142.67797
530.049	34236.00897
530.256	34205.48566
530.462	34241.88002
530.669	34226.32832
530.876	34325.90538
531.082	34225.97038
531.289	34346.08076
531.495	34245.02631
531.702	34346.37652
531.909	34305.88185
532.115	34432.78567
532.322	34376.18873
532.528	34479.89419
532.735	34407.41975
532.941	34456.64952
533.148	34470.31178
533.354	34487.80394
533.561	34448.75321
533.767	34430.11641
533.974	34422.56245
534.18	34386.16394
534.387	34406.71144
534.593	34391.32741
534.799	34362.70656
535.006	34344.49247
535.212	34358.37094
535.418	34446.44066
535.625	34433.50459
535.831	34481.1926
536.037	34440.9154
536.244	34503.45486
536.45	34430.3434
536.656	34521.08729
536.862	34438.24808
537.068	34504.22744
537.275	34494.59881
537.481	34541.93377
537.687	34504.99214
537.893	34573.23485
538.099	34537.83726
538.305	34591.35333
538.512	34576.73944
538.718	34658.15202
538.924	34598.53925
539.13	34657.82053
539.336	34677.62547
539.542	34705.93876
539.748	34670.53216
539.954	34695.36794
540.16	34697.9787
540.366	34722.51836
540.572	34720.96846
540.778	34746.69389
540.984	34720.91851
541.19	34749.25057
541.396	34738.62727
541.602	34743.1906
541.807	34772.89256
542.013	34721.08946
542.219	34775.62928
542.425	34705.94027
542.631	34786.3214
542.837	34685.56166
543.042	34722.72719
543.248	34658.25311
543.454	34761.36685
543.66	34719.90243
543.865	34737.07121
544.071	34725.06729
544.277	34703.38587
544.483	34734.33734
544.688	34639.13603
544.894	34748.53389
545.1	34620.13877
545.305	34791.14497
545.511	34687.10708
545.716	34735.29406
545.922	34715.08658
546.128	34762.13897
546.333	34753.58874
546.539	34771.34787
546.744	34744.01939
546.95	34758.39642
547.155	34760.35687
547.361	34749.03237
547.566	34790.54604
547.772	34780.08145
547.977	34731.51007
548.182	34741.72751
548.388	34718.84955
548.593	34770.39792
548.799	34745.32885
549.004	34764.28255
549.209	34746.75149
549.415	34768.03569
549.62	34747.9992
549.825	34829.8178
550.031	34782.2203
550.236	34770.17347
550.441	34776.63932
550.646	34779.49944
550.852	34805.98925
551.057	34819.4735
551.262	34822.86698
551.467	34796.90625
551.672	34778.01861
551.878	34807.66396
552.083	34801.36806
552.288	34841.3398
552.493	34830.52811
552.698	34848.05525
552.903	34857.91733
553.108	34857.26493
553.313	34858.92745
553.518	34870.57321
553.723	34838.25442
553.928	34852.7674
554.133	34843.30509
554.338	34862.37987
554.543	34856.84753
554.748	34865.59524
554.953	34868.43407
555.158	34866.841
555.363	34839.85584
555.568	34882.33875
555.773	34869.44422
555.978	34912.88713
556.182	34857.04317
556.387	34916.09228
556.592	34862.32929
556.797	34924.23201
557.002	34902.6023
557.206	34925.30326
557.411	34933.44296
557.616	34942.59605
557.821	34894.37515
558.025	34944.27651
558.23	34879.37368
558.435	34922.31167
558.64	34955.49279
558.844	34978.72983
559.049	34960.07113
559.253	35015.9338
559.458	34941.70063
559.663	34977.4998
559.867	34983.89983
560.072	34999.71043
560.276	34984.20069
560.481	34991.83416
560.685	34999.89435
560.89	35024.26158
561.094	34978.42352
561.299	34992.25938
561.503	35001.27931
561.708	35033.54155
561.912	35035.24747
562.117	35020.20066
562.321	35020.94644
562.525	35073.76218
562.73	35043.76353
562.934	35059.20614
563.139	35037.53739
563.343	35095.63609
563.547	35064.91484
563.752	35066.51557
563.956	35039.04944
564.16	35090.94008
564.364	35113.29128
564.569	35035.90145
564.773	35055.18425
564.977	35098.90541
565.181	35090.58453
565.385	35072.71461
565.59	35112.39765
565.794	35079.65165
565.998	35041.84782
566.202	35075.96441
566.406	35110.07884
566.61	35084.22276
566.814	35095.75543
567.018	35092.06917
567.222	35078.7776
567.426	35037.65458
567.63	35081.97506
567.834	35074.89126
568.038	35075.35075
568.242	35031.4747
568.446	35072.47984
568.65	35056.35972
568.854	35084.30016
569.058	35085.055
569.262	35101.51958
569.466	35058.61627
569.67	35100.27168
569.874	35061.10898
570.078	35046.9399
570.281	35028.75154
570.485	35048.41826
570.689	35030.04028
570.893	35060.63719
571.097	35016.15889
571.3	35070.79382
571.504	35040.06232
571.708	35038.12379
571.912	35012.13682
572.115	35044.84501
572.319	35010.05059
572.523	35069.24628
572.726	35015.39603
572.93	35057.65429
573.133	34968.8301
573.337	35029.38227
573.541	35030.78923
573.744	35033.65915
573.948	35016.05023
574.151	35045.41451
574.355	34995.43264
574.558	35005.32091
574.762	35029.89773
574.965	35036.55736
575.169	35006.78298
575.372	35017.29799
575.576	35001.5616
575.779	34991.5646
575.983	35004.76224
576.186	34951.7717
576.389	34999.41023
576.593	34930.43792
576.796	34971.0154
577	34929.89731
577.203	34949.91646
577.406	34948.41948
577.609	34924.30607
577.813	34882.88631
578.016	34932.37499
578.219	34874.56924
578.423	34902.13173
578.626	34898.02728
578.829	34914.60558
579.032	34872.59968
579.235	34899.987
579.438	34865.41037
579.642	34821.75845
579.845	34839.56664
580.048	34838.01822
580.251	34834.63386
580.454	34856.37374
580.657	34858.92745
580.86	34824.58408
581.063	34784.88318
581.266	34821.37497
581.469	34824.04944
581.672	34814.06714
581.875	34860.49985
582.078	34833.38018
582.281	34753.9652
582.484	34772.96832
582.687	34744.68733
582.89	34794.22193
583.093	34770.63514
583.296	34775.21101
583.499	34772.47683
583.702	34781.2712
583.904	34718.33634
584.107	34754.36626
584.31	34792.7962
584.513	34772.35788
584.716	34782.109
584.918	34752.75385
585.121	34807.53266
585.324	34763.03009
585.527	34805.76148
585.729	34748.71387
585.932	34817.63349
586.135	34733.88208
586.337	34831.4759
586.54	34755.3106
586.743	34843.89486
586.945	34764.15896
587.148	34805.99705
587.35	34729.30202
587.553	34821.6124
587.755	34740.39722
587.958	34747.43603
588.161	34752.87257
588.363	34796.47961
588.566	34748.65264
588.768	34780.08145
588.971	34743.54553
589.173	34756.08426
589.375	34755.78328
589.578	34745.44715
589.78	34714.0198
589.983	34757.38643
590.185	34785.80528
590.387	34752.22838
590.59	34792.39485
590.792	34737.26448
590.994	34769.80394
591.197	34714.06265
591.399	34769.86778
591.601	34719.69717
591.803	34709.87725
592.006	34678.92178
592.208	34737.97727
592.41	34635.78486
592.612	34578.00554
592.815	34521.41316
593.017	34509.26807
593.219	34444.12242
593.421	34353.85854
593.623	34356.70851
593.825	34298.80044
594.027	34269.25017
594.229	34200.9491
594.432	34142.75389
594.634	34051.29048
594.836	34043.08004
595.038	33920.63589
595.24	34103.97482
595.442	33873.63618
595.644	34173.9045
595.846	33842.38494
596.048	34088.54235
596.249	33788.68415
596.451	33847.71773
596.653	33685.84039
596.855	33392.35368
597.057	33640.47332
597.259	33749.49947
597.461	33529.83721
597.663	33869.16784
597.864	33500.8214
598.066	33656.32065
598.268	33345.85871
598.47	33627.79675
598.671	33126.56954
598.873	33349.24269
599.075	33028.40612
599.277	33418.68664
599.478	33110.03861
599.68	33428.55428
599.882	33283.06912
600.083	33307.41699
600.285	33610.21948
600.487	33293.36884
600.688	33482.49742
600.89	33331.41169
601.091	33484.2866
601.293	33386.01599
601.494	33442.39202
601.696	33346.73406
601.898	33715.10437
602.099	33745.84157
602.301	33794.65625
602.502	33788.75781
602.703	33899.40478
602.905	33855.7877
603.106	33926.5705
603.308	33820.46891
603.509	33978.7672
603.711	33822.4865
603.912	33888.831
604.113	33790.87089
604.315	33935.89422
604.516	33974.47091
604.717	33963.32158
604.919	34062.49019
605.12	33947.11126
605.321	34123.63171
605.522	33997.50465
605.724	34099.88109
605.925	33999.81361
606.126	34164.25832
606.327	34049.4257
606.528	34182.4547
606.729	34085.71701
606.931	34228.4138
607.132	34142.51408
607.333	34202.87385
607.534	34216.25376
607.735	34244.08301
607.936	34248.549
608.137	34253.93063
608.338	34208.92933
608.539	34328.40397
608.74	34177.95529
608.941	34330.70378
609.142	34218.42902
609.343	34335.15414
609.544	34255.89104
609.745	34333.79328
609.946	34291.04209
610.147	34327.61759
610.348	34286.9452
610.549	34302.69049
610.75	34305.28832
610.95	34312.41369
611.151	34339.60792
611.352	34338.5481
611.553	34309.9913
611.754	34356.71722
611.954	34357.00547
612.155	34340.14341
612.356	34353.97714
612.557	34324.58946
612.757	34403.26286
612.958	34333.84882
613.159	34450.61772
613.359	34342.81445
613.56	34446.4594
613.761	34374.46397
613.961	34425.94787
614.162	34401.4253
614.362	34385.56935
614.563	34431.41731
614.764	34380.40361
614.964	34422.86337
615.165	34363.83684
615.365	34371.79173
615.566	34397.04346
615.766	34339.4894
615.967	34410.28643
616.167	34322.81119
616.368	34407.95401
616.568	34368.29972
616.768	34376.30378
616.969	34377.90696
617.169	34364.72547
617.37	34411.39905
617.57	34407.73836
617.77	34429.57069
617.971	34411.20261
618.171	34433.43634
618.371	34380.52071
618.571	34399.95189
618.772	34357.12894
618.972	34378.27419
619.172	34287.06339
619.372	34332.84089
619.573	34270.08526
619.773	34340.97318
619.973	34232.45074
620.173	34367.31503
620.373	34183.28277
620.573	34278.09584
620.774	34258.7151
620.974	34214.09415
621.174	34224.424
621.374	34181.08793
621.574	34226.20896
621.774	34189.21926
621.974	34225.19971
622.174	34254.00451
622.374	34213.68621
622.574	34223.77092
622.774	34225.37472
622.974	34209.22681
623.174	34248.4289
623.374	34211.08761
623.574	34195.04241
623.774	34207.32742
623.973	34233.81952
624.173	34249.06426
624.373	34241.88002
624.573	34259.05085
624.773	34309.6818
624.973	34215.99725
625.172	34328.33041
625.372	34196.94142
625.572	34364.13141
625.772	34183.88906
625.971	34272.63328
626.171	34133.60322
626.371	34228.52153
626.57	34076.96697
626.77	34187.0883
626.97	34051.09968
627.169	34127.30952
627.369	34079.01467
627.569	34111.21661
627.768	34051.15211
627.968	33994.52998
628.167	33984.05244
628.367	33958.99724
628.566	33896.13882
628.766	33933.32443
628.965	33917.27426
629.165	33925.1554
629.364	33928.90035
629.564	33940.64719
629.763	33954.50989
629.963	33928.29185
630.162	33840.3675
630.362	33883.14425
630.561	33824.9967
630.76	33785.17831
630.96	33754.55956
631.159	33666.84182
631.358	33638.4084
631.558	33635.8208
631.757	33632.31265
631.956	33522.53936
632.155	33434.24237
632.355	33405.6998
632.554	33347.54027
632.753	33588.62765
632.952	33262.26118
633.152	33460.81751
633.351	33278.94904
633.55	33283.98914
633.749	33150.57771
633.948	33371.61345
634.147	33014.68776
634.346	33275.27981
634.545	33013.28984
634.744	33091.48883
634.944	33075.59636
635.143	33086.80316
635.342	33185.20866
635.541	33095.28031
635.74	33173.03464
635.939	33116.60102
636.138	33144.37003
636.336	33358.10813
636.535	33080.91657
636.734	33241.77417
636.933	33241.29069
637.132	33263.2466
637.331	33330.80437
637.53	33413.02611
637.729	33247.74326
637.928	33389.43439
638.126	33180.81429
638.325	33214.24185
638.524	33132.84014
638.723	33157.39115
638.921	33470.05
639.12	33213.32492
639.319	33367.55911
639.518	33230.12569
639.716	33163.81584
639.915	32985.14641
640.114	32954.42935
640.312	33066.84946
640.511	33105.93933
640.71	33200.4136
640.908	33122.01328
641.107	33342.37933
641.305	33209.84549
641.504	33241.13994
641.702	32987.90795
641.901	33484.32627
642.099	33142.87769
642.298	33232.21896
642.496	33427.34172
642.695	32945.03715
642.893	33173.11388
643.092	33177.38143
643.29	33318.99939
643.489	33210.20735
643.687	33171.99902
643.885	33165.42327
644.084	32997.44452
644.282	33321.01558
644.48	33278.35148
644.679	33383.54802
644.877	33356.08722
645.075	33312.7837
645.274	33149.537
645.472	33201.70885
645.67	33340.86142
645.868	32955.47607
646.067	33316.65595
646.265	33112.56982
646.463	33000.46767
646.661	32883.57328
646.859	32990.52103
647.057	32913.6801
647.256	32704.32779
647.454	32841.09614
647.652	32793.82995
647.85	32739.18162
648.048	32578.62747
648.246	32394.02637
648.444	32256.75247
648.642	32317.97115
648.84	31995.70915
649.038	32111.21283
649.236	32822.2206
649.434	31838.1787
649.632	32128.44021
649.83	32346.57555
650.028	32075.32341
650.226	32051.33014
650.423	31498.73148
650.621	31793.62069
650.819	31673.32113
651.017	31434.65835
651.215	31274.0157
651.413	31686.94492
651.61	31173.40372
651.808	31218.91313
652.006	30865.07752
652.204	31504.17684
652.401	31224.97243
652.599	31638.03124
652.797	30949.02179
652.995	31172.17372
653.192	30982.37069
653.39	31240.22721
653.588	31011.90502
653.785	31374.04944
653.983	30812.78702
654.18	31087.54368
654.378	30960.43636
654.576	30928.60432
654.773	30920.68128
654.971	31598.85057
655.168	30725.28889
655.366	31217.19164
655.563	31244.86495
655.761	30171.90532
655.958	30267.58297
656.156	30746.1014
656.353	30282.48923
656.55	29998.9179
656.748	31425.92253
656.945	30100.09681
657.143	30201.34082
657.34	29795.79055
657.537	30054.2686
657.735	30016.14443
657.932	30439.89983
658.129	29544.83663
658.326	29560.9416
658.524	30123.52196
658.721	29361.03882
658.918	29870.69583
659.115	28894.10904
659.313	29651.34052
659.51	29547.11165
659.707	29243.48468
659.904	29423.03654
660.101	29866.61412
660.298	28967.9325
660.496	29333.93353
660.693	29967.31386
660.89	29248.64235
661.087	29789.01906
661.284	29321.10436
661.481	29214.47958
661.678	29823.46693
661.875	29880.6218
662.072	29722.96587
662.269	29426.19721
662.466	29843.93326
662.663	29318.84807
662.86	29276.30601
663.057	29712.44511
663.254	29081.63475
663.45	29494.61843
663.647	28886.17251
663.844	29060.79769
664.041	29287.99107
664.238	29431.66663
664.435	28876.78867
664.631	28567.87042
664.828	29312.54626
665.025	29622.83548
665.222	28885.67296
665.419	29880.49892
665.615	29531.64159
665.812	29975.94575
666.009	29376.08035
666.205	29690.30249
666.402	29359.29379
666.599	29128.05596
666.795	29349.33064
666.992	29591.70142
667.188	29560.44685
667.385	29397.31212
667.582	29883.82121
667.778	29338.27292
667.975	29945.75153
668.171	29885.36141
668.368	29761.6597
668.564	30730.31426
668.761	30001.53135
668.957	30150.94122
669.154	29957.5518
669.35	30555.14182
669.547	29763.88453
669.743	30307.42031
669.939	29930.45851
670.136	30124.09862
670.332	30127.00336
670.528	30376.26802
670.725	29975.82263
670.921	30599.35978
671.117	30349.00428
671.314	29911.67461
671.51	30070.53752
671.706	30543.45558
671.902	30370.48111
672.099	30280.60184
672.295	29897.1921
672.491	30187.72259
672.687	30377.30203
672.883	30697.85053
673.08	30694.87557
673.276	30247.64263
673.472	30286.77833
673.668	30644.37629
673.864	30600.65143
674.06	29983.22682
674.256	30607.01554
674.452	30531.72357
674.648	30259.86265
674.844	29876.53839
675.04	30066.99318
675.236	29806.8588
675.432	30253.83176
675.628	29844.79607
675.824	30760.79072
676.02	30182.8065
676.216	30195.92432
676.412	30069.04035
676.608	30302.59278
676.804	29847.17623
676.999	30376.5881
677.195	29321.65365
677.391	29620.94203
677.587	29904.34951
677.783	29639.07774
677.978	29246.27641
678.174	30257.43239
678.37	30238.24243
678.566	29458.50167
678.761	29586.60639
678.957	29666.96401
679.153	29709.37839
679.348	28931.40635
679.544	29334.55013
679.74	29636.64332
679.935	30002.46465
680.131	29183.96434
680.327	28909.65847
680.522	29232.18693
680.718	29235.72158
680.913	28926.61807
681.109	29062.45136
681.304	29180.97152
681.5	28899.00662
681.695	29080.13038
681.891	29195.39504
682.086	29175.06882
682.282	29163.12073
682.477	33715.81116
682.672	28582.4246
682.868	34008.41656
683.063	29028.27892
683.259	31945.74563
683.454	29125.37169
683.649	28834.20174
683.845	28523.93859
684.04	28733.93978
684.235	28650.25707
684.43	28959.88419
684.626	28742.06509
684.821	28643.41829
685.016	28597.21807
685.211	33559.84893
685.407	28475.89311
685.602	30723.66445
685.797	28651.18932
685.992	28000.50738
686.187	28419.15693
686.382	28057.61318
686.577	28188.98651
686.773	28246.44382
686.968	28295.138
687.163	28243.10301
687.358	28157.75363
687.553	28750.23352
687.748	28440.09489
687.943	28819.28544
688.138	27950.92987
688.333	28275.6175
688.528	29022.30707
688.723	27759.59592
688.918	28019.31714
689.112	27695.10374
689.307	28178.55718
689.502	26955.78216
689.697	26858.69029
689.892	27717.96438
690.087	26986.61503
690.282	26458.77361
690.476	26529.00694
690.671	26865.08502
690.866	26182.6522
691.061	25847.64195
691.255	26068.30552
691.45	26342.1472
691.645	26088.8651
691.84	25558.42841
692.034	25457.40319
692.229	26432.18138
692.424	25246.93658
692.618	24900.2503
692.813	25299.3248
693.007	25333.29487
693.202	24674.90939
693.397	24942.60835
693.591	24903.62823
693.786	24643.46869
693.98	24472.39876
694.175	24287.57255
694.369	24442.86508
694.564	24670.52975
694.758	24049.75191
694.953	24645.33437
695.147	23950.02016
695.342	24282.18802
695.536	24614.75803
695.73	23465.82211
695.925	23005.27713
696.119	23999.01334
696.313	23342.21527
696.508	22650.97224
696.702	23111.46685
696.896	22543.90844
697.091	23312.75215
697.285	22778.70316
697.479	22407.08442
697.673	22683.41424
697.868	22668.75828
698.062	23023.54859
698.256	22470.50517
698.45	22351.35792
698.644	22632.69373
698.839	22426.60985
699.033	22322.08859
699.227	22886.78953
699.421	22395.92533
699.615	22571.61904
699.809	22421.83194
700.003	22825.44216
700.197	22661.92191
700.391	22981.97964
700.585	22903.43859
700.779	23371.00344
700.973	23627.55748
701.167	22799.26717
701.361	23081.15669
701.555	23060.12311
701.749	22436.47219
701.943	22600.39226
702.137	23096.69211
702.331	22415.06465
702.525	23448.66372
702.718	22579.99965
702.912	22060.04188
703.106	23628.31613
703.3	22532.55129
703.494	22345.98326
703.687	22100.80248
703.881	22438.02568
704.075	23066.29507
704.269	22619.8051
704.462	22831.94832
704.656	22562.85772
704.85	22189.73246
705.043	22209.7185
705.237	22154.67778
705.431	22360.74036
705.624	22267.61876
705.818	21881.89134
706.012	22992.02432
706.205	22389.77051
706.399	23100.07595
706.592	22634.08298
706.786	23113.74182
706.979	22859.47504
707.173	22240.76787
707.366	22151.37852
707.56	22086.25134
707.753	22165.80687
707.947	22340.88412
708.14	22014.73889
708.333	22026.58123
708.527	22029.34488
708.72	22293.50371
708.914	22039.33811
709.107	22072.80666
709.3	22442.99384
709.494	22193.26553
709.687	21934.11125
709.88	21574.35215
710.073	22434.87729
710.267	22200.07908
710.46	21663.92426
710.653	21897.61708
710.846	22138.51105
711.04	22552.68717
711.233	22210.2732
711.426	22130.37182
711.619	22623.83758
711.812	22867.75365
712.005	21956.3984
712.198	21634.28588
712.391	22660.74388
712.585	22227.34083
712.778	21969.16203
712.971	22364.92347
713.164	22129.99157
713.357	21935.62352
713.55	21830.80417
713.743	22198.38172
713.936	22466.93149
714.129	22535.27829
714.322	22040.03162
714.514	22539.53805
714.707	22365.43507
714.9	22446.27713
715.093	22034.98746
715.286	22126.14232
715.479	22512.27889
715.672	22360.45059
715.864	21988.90478
716.057	22316.15203
716.25	22065.13395
716.443	22879.30282
716.636	22173.92418
716.828	21863.50128
717.021	22295.28174
717.214	22306.65159
717.406	22976.39342
717.599	21882.7297
717.792	33441.40594
717.984	22037.79496
718.177	24381.67364
718.37	21573.6057
718.562	21732.17639
718.755	22039.41383
718.947	21677.96299
719.14	21257.32792
719.333	21683.02099
719.525	21276.4296
719.718	20501.61348
719.91	21114.87737
720.103	20236.37561
720.295	20606.50687
720.487	19815.17001
720.68	19929.42373
720.872	19490.96583
721.065	19041.58314
721.257	19079.47598
721.449	18623.83627
721.642	18639.01744
721.834	18483.9352
722.026	18012.17361
722.219	18118.24025
722.411	17378.58995
722.603	17599.18939
722.796	17343.34982
722.988	17328.8116
723.18	17866.26866
723.372	16980.74602
723.565	16521.96159
723.757	16798.22154
723.949	16968.09015
724.141	16292.07919
724.333	16645.21299
724.525	16188.01166
724.717	15977.69819
724.91	16124.77678
725.102	16232.99662
725.294	15298.26749
725.486	15416.87292
725.678	15288.04845
725.87	14823.55079
726.062	14898.57625
726.254	15073.5059
726.446	14678.74504
726.638	15171.19895
726.83	14357.41379
727.022	14325.40476
727.213	14499.63056
727.405	14696.78139
727.597	14243.73716
727.789	14977.10096
727.981	14078.64978
728.173	14001.60327
728.365	13617.63057
728.556	13725.59661
728.748	13918.27162
728.94	13613.79057
729.132	13234.14785
729.324	13865.6773
729.515	13548.97494
729.707	13151.40389
729.899	13726.45499
730.09	14209.20627
730.282	13461.01136
730.474	13716.99186
730.665	13181.66801
730.857	13869.45959
731.049	13375.5885
731.24	13717.71745
731.432	13757.17204
731.623	13397.17127
731.815	13950.6131
732.006	13928.53496
732.198	13728.80998
732.389	14185.32043
732.581	13830.60193
732.772	13522.01689
732.964	13345.52073
733.155	13571.50635
733.347	14042.38322
733.538	13165.53232
733.729	13353.11389
733.921	13768.821
734.112	13398.85955
734.304	13390.12317
734.495	13574.08172
734.686	13607.48257
734.877	13831.70201
735.069	13636.49033
735.26	13564.38303
735.451	13929.28421
735.643	14221.61849
735.834	13902.43587
736.025	13985.64912
736.216	14493.60251
736.407	13880.48361
736.599	14589.41385
736.79	13748.76865
736.981	13822.5264
737.172	14819.54841
737.363	14009.06809
737.554	14298.84933
737.745	14504.00885
737.936	14205.38951
738.127	14338.81086
738.318	14081.84838
738.509	15124.68777
738.7	14870.16521
738.891	14704.97382
739.082	14574.56659
739.273	15010.01134
739.464	15202.30012
739.655	14789.63552
739.846	14746.59991
740.037	15540.81109
740.228	14945.12393
740.419	15006.23723
740.609	16521.3486
740.8	15677.52707
740.991	15560.79248
741.182	15668.81592
741.373	15542.53616
741.563	16688.18343
741.754	15839.83809
741.945	15838.81047
742.136	15744.37847
742.326	15944.67602
742.517	16023.54182
742.708	16632.29216
742.898	16328.61848
743.089	16452.46118
743.28	16168.04052
743.47	16839.24265
743.661	15795.77594
743.851	16204.95386
744.042	16454.85315
744.233	17154.92146
744.423	16749.66911
744.614	16789.14368
744.804	16758.84343
744.995	16282.06045
745.185	16908.55998
745.376	16651.15768
745.566	16597.18309
745.756	17016.88881
745.947	16856.75611
746.137	16907.40891
746.328	16689.95119
746.518	16468.42013
746.708	16143.003
746.899	16593.98289
747.089	18110.42113
747.279	16228.46171
747.47	16459.49614
747.66	16863.00113
747.85	16730.80061
748.04	16674.65834
748.231	17847.81513
748.421	17265.04388
748.611	16787.28103
748.801	16479.32874
748.991	16636.66318
749.182	17844.02954
749.372	17446.69942
749.562	16905.49286
749.752	16870.67585
749.942	16842.18678
750.132	16890.89425
750.322	16805.10004
750.512	17235.14555
750.702	17093.64381
750.892	17016.83687
751.082	16916.40763
751.272	16515.63721
751.462	17068.60908
751.652	16835.12245
751.842	17384.05107
752.032	16358.76091
752.222	16870.8155
752.412	16779.91661
752.602	16974.58482
752.792	16664.70064
752.981	16628.35523
753.171	16441.98062
753.361	16554.70411
753.551	16485.38714
753.741	16675.08912
753.93	17203.95412
754.12	17435.11405
754.31	16917.25274
754.5	17498.84627
754.689	16846.47858
754.879	16636.41155
755.069	16452.73392
755.258	16455.40283
755.448	16352.0161
755.638	16831.78768
755.827	16348.53585
756.017	16859.53363
756.206	16708.50103
756.396	16537.34459
756.586	16296.01473
756.775	16491.55523
756.965	16553.7071
757.154	17095.20568
757.344	16547.23063
757.533	16298.0987
757.723	17090.04311
757.912	16039.26876
758.101	16178.8319
758.291	16824.92643
758.48	16078.18618
758.67	16002.46309
758.859	15937.77091
759.048	16582.22718
759.238	16558.19807
759.427	15811.85153
759.616	15887.3457
759.806	16567.22008
759.995	16074.79827
760.184	15735.41411
760.373	15992.10264
760.563	15678.30977
760.752	15566.303
760.941	15970.51876
761.13	15791.73785
761.319	15864.9139
761.509	15008.81329
761.698	14793.76052
761.887	14530.01862
762.076	14764.36368
762.265	14554.69421
762.454	14503.51396
762.643	14281.65394
762.832	13561.78009
763.021	14093.02412
763.21	13870.40629
763.399	13675.31458
763.588	14603.27852
763.777	13064.9257
763.966	12862.82526
764.155	11990.30224
764.344	12983.50778
764.533	12273.5539
764.722	11514.08849
764.911	11510.04869
765.1	11848.44615
765.288	11779.35203
765.477	11208.03547
765.666	10448.50174
765.855	10708.44497
766.044	10804.66423
766.232	10437.55617
766.421	9844.47289
766.61	10195.03783
766.799	9502.74143
766.987	9482.88757
767.176	9109.22499
767.365	9965.02404
767.553	9169.08884
767.742	9621.5958
767.931	8952.0962
768.119	9236.13576
768.308	8759.9464
768.497	8973.5001
768.685	8620.66007
768.874	8867.99583
769.062	8213.55604
769.251	8769.1576
769.439	8029.35354
769.628	8627.70443
769.816	9545.68048
770.005	8503.27466
770.193	8167.97111
770.382	8250.53433
770.57	8673.91416
770.758	8647.80929
770.947	8380.37322
771.135	9509.10327
771.323	8785.23494
771.512	8874.94859
771.7	8657.47621
771.888	9703.02208
772.077	8913.29958
772.265	9832.46187
772.453	9196.7483
772.642	10603.56942
772.83	9486.04975
773.018	11485.05456
773.206	9862.0173
773.394	10109.19663
773.583	10345.56886
773.771	10403.63373
773.959	11430.06517
774.147	10852.05562
774.335	11064.30118
774.523	11435.33024
774.711	11663.33515
774.899	11371.30833
775.087	11724.48567
775.275	11794.12683
775.463	11536.66773
775.651	13107.67282
775.839	12040.62506
776.027	11957.06055
776.215	12353.63534
776.403	12103.48172
776.591	12516.77313
776.779	12364.72349
776.967	12586.47165
777.155	12528.23162
777.343	12707.51934
777.531	12645.95235
777.718	12731.66351
777.906	12650.54194
778.094	13137.3206
778.282	12820.32453
778.47	12760.47534
778.657	13771.1702
778.845	12566.86144
779.033	13744.30491
779.22	13426.16321
779.408	13037.89477
779.596	14076.41959
779.783	12983.66972
779.971	12964.14266
780.159	13099.40755
780.346	13248.27495
780.534	12640.75742
780.722	13476.27845
780.909	13472.34644
781.097	12667.55308
781.284	12626.23844
781.472	12881.46788
781.659	13478.39424
781.847	13167.47533
782.034	13105.27335
782.222	13387.50795
782.409	12936.20756
782.597	12892.98537
782.784	12697.27765
782.971	16408.20222
783.159	13052.55639
783.346	12956.83695
783.533	12947.82572
783.721	13388.31811
783.908	13157.50507
784.095	12320.9261
784.283	12417.43962
784.47	12964.72907
784.657	13188.35181
784.844	12713.79635
785.032	12626.27505
785.219	12920.14372
785.406	12915.94472
785.593	12804.53052
785.78	12434.9879
785.968	12689.56589
786.155	12715.33354
786.342	12500.13277
786.529	12980.93136
786.716	12829.35352
786.903	12627.77819
787.09	12072.68117
787.277	12014.38413
787.464	12263.37528
787.651	12678.47137
787.838	12217.17568
788.025	12716.50217
788.212	11943.9133
788.399	12330.30356
788.586	12467.6182
788.773	12026.97115
788.96	11656.40782
789.147	12126.75128
789.334	11740.46274
789.521	11818.59004
789.707	11639.08715
789.894	11678.52084
790.081	11391.75642
790.268	11478.15223
790.455	11735.34756
790.641	13466.92979
790.828	11623.00579
791.015	11821.45631
791.202	11260.34552
791.388	12201.5853
791.575	11715.76695
791.762	11679.20478
791.948	10879.20466
792.135	11690.43792
792.322	11105.61928
792.508	11620.72057
792.695	10746.10062
792.881	10792.26645
793.068	11295.04977
793.254	10623.16581
793.441	10846.27942
793.627	11359.51514
793.814	10743.35343
794	10592.11547
794.187	10658.10864
794.373	11436.3847
794.56	11431.42596
794.746	12063.85171
794.933	10903.96835
795.119	10856.85938
795.305	10834.93273
795.492	10469.80098
795.678	10608.15605
795.864	10525.3011
796.051	10355.96675
796.237	10979.66603
796.423	10576.76115
796.61	10582.1992
796.796	10275.27054
796.982	9993.25759
797.168	10529.817
797.355	10928.95652
797.541	10746.49914
797.727	10905.33744
797.913	9986.57379
798.099	10614.14449
798.285	10157.99685
798.471	11254.25786
798.658	10285.14805
798.844	10397.18169
799.03	9981.07337
799.216	10556.65479
799.402	10200.71595
799.588	10925.50425
799.774	10796.01416
799.96	10589.14886
800.146	11411.45438
800.332	10124.34803
800.518	9986.55075
800.704	10367.80999
800.89	9996.68031
801.075	9980.05341
801.261	9614.58968
801.447	10063.03666
801.633	9938.24378
801.819	10324.1623
802.005	9715.86709
802.19	10302.45001
802.376	10016.62277
802.562	10240.65732
802.748	11254.59371
802.934	11414.15627
803.119	10013.67631
803.305	9736.20942
803.491	10136.41805
803.676	9791.45114
803.862	9722.92847
804.048	9823.53402
804.233	10063.09456
804.419	9969.82571
804.605	9730.35459
804.79	9766.65096
804.976	10324.29925
805.161	10233.74704
805.347	9345.94722
805.532	9962.72632
805.718	9751.01445
805.903	9893.27821
806.089	10169.86411
806.274	10129.1669
806.46	10908.9532
806.645	10051.02027
806.831	9459.54945
807.016	9460.40511
807.201	10885.87223
807.387	9409.09801
807.572	9499.30809
807.757	9641.0112
807.943	9543.11235
808.128	9634.74501
808.313	9955.08426
808.499	9811.64243
808.684	9936.41787
808.869	9580.76137
809.054	10231.24923
809.24	9726.28899
809.425	10052.12684
809.61	9781.12252
809.795	9642.67092
809.98	9701.21563
810.165	9632.84743
810.35	11077.13773
810.536	9440.67475
810.721	9625.85816
810.906	9250.99198
811.091	10442.99419
811.276	9272.50338
811.461	10060.5656
811.646	9784.33354
811.831	9060.15124
812.016	9235.73349
812.201	9352.48718
812.386	9263.02565
812.571	8953.45483
812.756	8940.26967
812.941	9351.81616
813.125	9933.47137
813.31	8912.20006
813.495	9361.2656
813.68	9105.95858
813.865	9263.93463
814.05	8991.77311
814.234	8512.89
814.419	8910.79161
814.604	8893.74011
814.789	9249.85118
814.973	9079.83129
815.158	9767.09829
815.343	8770.82755
815.528	9135.76399
815.712	8692.22082
815.897	8424.67061
816.081	8729.57104
816.266	8833.2016
816.451	8271.84104
816.635	8408.83774
816.82	8509.8898
817.004	7993.42847
817.189	8184.86688
817.374	8408.17009
817.558	8735.0242
817.743	7529.24551
817.927	8068.74598
818.111	8253.02276
818.296	7972.93698
818.48	7940.93458
818.665	7741.14782
818.849	7852.31714
819.034	7684.55611
819.218	7893.21477
819.402	7219.71771
819.587	7494.89214
819.771	7484.55952
819.955	7288.21086
820.14	7844.94353
820.324	6524.12285
820.508	6817.33581
820.692	7066.89183
820.877	6545.01883
821.061	7018.44235
821.245	6362.82014
821.429	6753.8098
821.613	7162.84139
821.798	6142.56922
821.982	6312.03795
822.166	5739.26614
822.35	5673.12498
822.534	5902.34964
822.718	6062.41451
822.902	6259.81428
823.086	6045.73429
823.27	6114.45052
823.454	5526.99035
823.638	5504.53856
823.822	5666.23763
824.006	5613.78727
824.19	5715.61282
824.374	5547.13997
824.558	5233.10327
824.742	5491.40998
824.926	5712.45288
825.11	5318.06726
825.294	5608.4755
825.477	5456.56616
825.661	5560.54235
825.845	5033.1238
826.029	5255.22461
826.213	5430.20718
826.396	5306.39959
826.58	5296.94155
826.764	5442.85695
826.948	5419.74927
827.131	5824.21399
827.315	5118.7589
827.499	5067.89566
827.682	5749.95158
827.866	5337.01323
828.05	5282.34641
828.233	5279.94203
828.417	5664.50927
828.6	6346.38613
828.784	5261.51772
828.967	6479.65943
829.151	6304.99069
829.335	5767.69266
829.518	5392.03802
829.701	5499.39854
829.885	5722.37206
830.068	5470.96725
830.252	5346.54104
830.435	5255.17408
830.619	5598.76289
830.802	5545.45836
830.985	6018.70997
831.169	5363.16633
831.352	5881.33263
831.535	5508.63722
831.719	6030.04033
831.902	5471.39186
832.085	5680.76251
832.269	5537.44349
832.452	5440.53588
832.635	5064.47192
832.818	5871.87519
833.002	5324.95208
833.185	6576.2426
833.368	5772.42376
833.551	5481.31003
833.734	5520.99237
833.917	5254.00331
834.1	5407.94812
834.284	5552.93932
834.467	5606.96409
834.65	5465.91569
834.833	5007.99772
835.016	5847.86345
835.199	5823.8518
835.382	5259.88585
835.565	5369.0944
835.748	5666.52604
835.931	5523.31027
836.114	5228.79331
836.297	5798.30917
836.479	5681.89085
836.662	6145.08799
836.845	5630.52772
837.028	4944.74158
837.211	5629.08052
837.394	5511.54787
837.577	5577.42759
837.759	5673.49137
837.942	5873.90458
838.125	5702.20184
838.308	5593.13016
838.49	5089.46165
838.673	23598.73246
838.856	5089.42891
839.039	5548.08145
839.221	5466.29051
839.404	6369.72354
839.587	5682.68773
839.769	5107.99818
839.952	5239.40919
840.134	5577.933
840.317	5630.88777
840.499	6047.64632
840.682	6153.38741
840.865	5702.89719
841.047	6277.66054
841.23	5460.23027
841.412	5891.86288
841.595	6346.6387
841.777	6085.53506
841.959	5194.51148
842.142	5568.07797
842.324	5767.48458
842.507	6956.04033
842.689	6006.3505
842.871	5392.67524
843.054	6926.83206
843.236	6220.9162
843.418	5931.48536
843.601	6120.95874
843.783	5610.6942
843.965	5959.07125
844.147	5747.65161
844.33	6288.21581
844.512	6033.13376
844.694	5769.37909
844.876	5985.0067
845.059	5835.24802
845.241	6740.20057
845.423	6071.97386
845.605	5956.37719
845.787	6029.0106
845.969	6358.42478
846.151	6147.19741
846.333	5436.0151
846.515	5650.61099
846.697	5630.51065
846.879	6325.82036
847.061	5750.43337
847.243	6130.51199
847.425	5829.33781
847.607	5586.13246
847.789	5578.23224
847.971	5553.59251
848.153	5943.27234
848.335	6242.25936
848.517	5883.49942
848.699	5647.38852
848.881	5741.04707
849.062	6192.68411
849.244	6022.21752
849.426	5403.50951
849.608	5484.33817
849.789	5603.21241
849.971	6743.54741
850.153	5669.45742
850.335	5488.49858
850.516	5853.24941
850.698	5627.43202
850.88	5413.451
851.061	7181.55582
851.243	6519.22298
851.425	5399.25833
851.606	5419.49547
851.788	5969.79587
851.969	5654.6486
852.151	5813.94045
852.333	5357.16776
852.514	6016.77725
852.696	5500.73837
852.877	5513.98772
853.059	5772.8033
853.24	6710.89942
853.422	6732.24607
853.603	5442.31733
853.784	5519.3431
853.966	5870.32561
854.147	5504.59761
854.329	5239.26249
854.51	5946.35379
854.691	5480.91997
854.873	6404.56814
855.054	5663.48278
855.235	5673.29648
855.416	5189.07723
855.598	5364.65931
855.779	5751.36077
855.96	5546.7678
856.141	5523.78448
856.323	5323.24743
856.504	4860.07521
856.685	4925.78496
856.866	5614.62567
857.047	5991.16418
857.228	4781.11135
857.409	5198.44671
857.591	5223.82131
857.772	7526.4864
857.953	5039.23006
858.134	4701.9285
858.315	4854.87388
858.496	5459.62457
858.677	5013.75325
858.858	5206.34509
859.039	4811.95718
859.22	5441.25532
859.401	5401.08901
859.582	4586.57275
859.762	5376.78939
859.943	4569.82132
860.124	4988.86033
860.305	5396.8564
860.486	5205.30399
860.667	5184.61474
860.848	4661.82991
861.028	4886.04497
861.209	4604.06105
861.39	4624.06846
861.571	4770.84579
861.751	4641.58547
861.932	6822.21001
862.113	5008.7791
862.293	4389.17101
862.474	5869.40582
862.655	4622.46638
862.835	5085.21062
863.016	6270.75906
863.197	5677.66706
863.377	4894.18454
863.558	4559.36566
863.738	5340.67951
863.919	4640.44003
864.099	5473.88319
864.28	5251.47557
864.46	4729.8179
864.641	4844.5005
864.821	5252.17359
865.002	4771.0876
865.182	4505.70311
865.363	4873.17983
865.543	4751.11465
865.723	4922.50839
865.904	5190.28662
866.084	4418.13376
866.264	5317.25128
866.445	4935.93286
866.625	4745.63369
866.805	4744.08783
866.986	4921.9407
867.166	5298.93726
867.346	4403.91976
867.526	4592.61768
867.707	4319.14096
867.887	5714.84488
868.067	4823.81401
868.247	4598.99316
868.427	5343.85847
868.607	4313.8675
868.788	4767.46182
868.968	4313.81658
869.148	5726.28331
869.328	4509.51612
869.508	3948.37505
869.688	4504.84529
869.868	4198.8511
870.048	4746.3741
870.228	4160.3442
870.408	4757.50459
870.588	4604.63128
870.768	4665.65322
870.948	4221.98222
871.128	4927.47294
871.307	4530.21572
871.487	4465.91957
871.667	4144.99072
871.847	4388.16592
872.027	4134.31669
872.207	4789.35997
872.387	4558.05952
872.566	4026.89726
872.746	4412.24866
872.926	4981.16068
873.106	4018.97399
873.285	4605.72418
873.465	4871.05379
873.645	4560.23892
873.824	3835.57226
874.004	3828.32055
874.184	4044.03419
874.363	5113.36683
874.543	3684.57405
874.723	3833.90718
874.902	4275.3368
875.082	3777.50542
875.261	4405.79642
875.441	4741.56358
875.62	4246.59717
875.8	4106.2282
875.979	4094.01168
876.159	4365.82746
876.338	4170.93255
876.518	3856.59616
876.697	4428.33137
876.876	3959.07922
877.056	3863.3632
877.235	4046.79483
877.415	3683.37031
877.594	3940.00176
877.773	3825.76835
877.953	3959.5039
878.132	4154.52971
878.311	3723.23743
878.49	3688.63768
878.67	4312.66078
878.849	4214.62535
879.028	3382.9342
879.207	3539.64182
879.387	3819.34742
879.566	3437.80765
879.745	3794.32913
879.924	5206.43211
880.103	4738.35941
880.282	3973.61219
880.461	4101.91916
880.64	3554.01562
880.819	4688.52512
880.998	3261.58347
881.178	3956.59943
881.357	3976.85322
881.536	4309.26045
881.715	3389.00294
881.893	3464.36778
882.072	3909.4961
882.251	3956.92293
882.43	3624.72158
882.609	3317.78334
882.788	4304.10897
882.967	3427.51763
883.146	3553.07795
883.325	3389.58268
883.503	3547.90559
883.682	3247.94383
883.861	3693.79865
884.04	3175.03909
884.219	3280.65425
884.397	3825.23113
884.576	4097.60731
884.755	3388.24055
884.933	3730.30432
885.112	3286.26662
885.291	3469.25248
885.469	3561.35761
885.648	3235.6457
885.827	3527.68937
886.005	2960.96167
886.184	3713.01777
886.363	3385.86233
886.541	3180.79116
886.72	3114.37748
886.898	3397.11401
887.077	3481.41163
887.255	3353.10432
887.434	3545.83945
887.612	3528.54099
887.791	3120.7135
887.969	3937.71772
888.147	4086.72833
888.326	3319.22306
888.504	3692.44399
888.682	3676.47611
888.861	3228.582
889.039	3523.36094
889.218	3654.23
889.396	3305.77762
889.574	2856.43083
889.752	3436.72669
889.931	3583.42277
890.109	3093.12118
890.287	3050.28713
890.465	2910.35768
890.643	3502.95892
890.822	4608.20162
891	3491.93776
891.178	3330.59775
891.356	3218.96042
891.534	3324.77727
891.712	2932.44741
891.89	3375.52238
892.068	3160.65359
892.247	3128.7865
892.425	3293.80618
892.603	2738.15591
892.781	3247.08838
892.959	3048.96875
893.137	3257.44509
893.314	2720.42401
893.492	2911.59046
893.67	3230.5513
893.848	4273.94329
894.026	3215.35309
894.204	3037.21868
894.382	3336.24164
894.56	2826.13518
894.738	3408.33743
894.915	3062.69695
895.093	3709.92236
895.271	3477.28744
895.449	3687.09125
895.626	3359.2611
895.804	3003.84943
895.982	4138.62399
896.16	3261.51249
896.337	2976.3325
896.515	3054.47914
896.693	2778.74211
896.87	3092.50827
897.048	3110.99103
897.225	3034.89835
897.403	2472.17411
897.581	3098.1393
897.758	3203.64584
897.936	2875.60922
898.113	2897.14284
898.291	3212.45778
898.468	3325.63138
898.646	3183.87449
898.823	2843.19638
899.001	2749.25294
899.178	3246.69604
899.356	2686.99729
899.533	2507.72557
899.71	2425.76723
899.888	3010.39513
900.065	2344.75741
900.242	2429.8446
900.42	2605.15852
900.597	2568.76148
900.774	2975.28803
900.952	1913.90348
901.129	2038.38649
901.306	2198.30249
901.483	2278.40077
901.661	2324.87231
901.838	1713.19987
902.015	2671.63558
902.192	2824.20249
902.369	1726.83244
902.546	2171.84767
902.723	2398.2712
902.901	2884.44934
903.078	1929.1308
903.255	2180.73248
903.432	2274.67583
903.609	1771.57516
903.786	1745.17598
903.963	1778.40188
904.14	2221.25386
904.317	2117.73013
904.494	1192.8115
904.671	1944.71139
904.848	1518.92751
905.024	1706.0363
905.201	1616.4302
905.378	1470.91667
905.555	1942.33309
905.732	2440.36591
905.909	1355.17737
906.086	2271.72478
906.262	2176.7444
906.439	1600.2168
906.616	1519.27356
906.793	2416.33718
906.969	1242.61861
907.146	1626.05229
907.323	1407.48905
907.5	1337.29428
907.676	2136.52265
907.853	1544.00207
908.03	1116.65401
908.206	2282.82078
908.383	3799.92584
908.559	2005.11209
908.736	2291.06753
908.912	1190.47211
909.089	2533.48038
909.266	1603.97646
909.442	1722.0419
909.619	1792.65259
909.795	1573.25265
909.972	1760.86494
910.148	1811.97705
910.324	1101.43538
910.501	1537.70092
910.677	1418.30495
910.854	1305.44722
911.03	1555.25397
911.206	1563.76541
911.383	1902.60111
911.559	1493.09066
911.735	2031.61474
911.912	2379.02406
912.088	1672.37603
912.264	2682.93469
912.44	2552.9665
912.617	2170.90446
912.793	1706.14697
912.969	1263.9983
913.145	1678.75184
913.321	1926.84261
913.498	1404.8611
913.674	1327.67885
913.85	938.74931
914.026	2191.66747
914.202	1851.52613
914.378	1128.09621
914.554	1347.90094
914.73	1768.63952
914.906	2069.90672
915.082	1077.66123
915.258	1108.98848
915.434	1964.21995
915.61	2056.78316
915.786	1207.34105
915.962	1703.3492
916.138	1380.11184
916.314	1064.98172
916.49	1818.72199
916.665	1042.04545
916.841	1309.78504
917.017	1191.87458
917.193	688.38554
917.369	1136.02901
917.545	1868.7751
917.72	1400.81048
917.896	1222.63846
918.072	1373.66354
918.247	1178.86412
918.423	1047.43727
918.599	971.99577
918.775	697.7656
918.95	1269.12502
919.126	1475.6272
919.301	1200.83896
919.477	1532.83458
919.653	876.76434
919.828	1826.78208
920.004	1591.45048
920.179	1191.1935
920.355	15878.01161
920.53	1145.6284
920.706	1060.22267
920.881	1099.25528
921.057	975.96461
921.232	1214.23544
921.408	1063.31503
921.583	1101.85256
921.759	805.25296
921.934	970.18049
922.109	755.50472
922.285	800.11474
922.46	1127.58271
922.635	913.64788
922.811	1040.58811
922.986	627.85677
923.161	1949.92296
923.336	1128.40041
923.512	577.87684
923.687	1185.19393
923.862	1227.36317
924.037	1234.05206
924.212	2276.03122
924.388	1321.75604
924.563	1029.42193
924.738	1374.01015
924.913	854.22069
925.088	1275.81723
925.263	1345.4177
925.438	1030.02964
925.613	1787.66072
925.788	592.55152
925.963	1158.25427
926.138	1042.55701
926.313	1065.74134
926.488	1111.09158
926.663	2017.71419
926.838	1326.23905
927.013	760.15393
927.188	494.29246
927.363	1437.43046
927.538	1620.55231
927.713	961.01507
927.888	789.17683
928.062	1909.81223
928.237	1587.75415
928.412	644.11681
928.587	932.14513
928.761	1726.16513
928.936	656.07995
929.111	1302.63424
929.286	1410.40412
929.46	696.88786
929.635	1170.19528
929.81	336.93685
929.984	847.26399
930.159	1219.818
930.334	945.16324
930.508	936.15358
930.683	548.92951
930.857	1121.04103
931.032	1025.20875
931.206	904.78294
931.381	671.45177
931.556	962.21099
931.73	1118.1953
931.904	1052.82475
932.079	597.91388
932.253	1178.94668
932.428	901.20933
932.602	1457.02292
932.777	618.64595
932.951	708.96646
933.125	1532.8069
933.3	1410.96789
933.474	753.57177
933.648	637.23287
933.823	544.55617
933.997	866.66896
934.171	1284.88489
934.345	559.82584
934.52	184.4517
934.694	543.24926
934.868	236.19888
935.042	210.39658
935.217	386.76569
935.391	337.80015
935.565	307.65275
935.739	737.01618
935.913	1118.29661
936.087	1397.01668
936.261	-196.92902
936.435	1122.33229
936.609	607.52186
936.783	-70.05105
936.957	-295.96708
937.131	797.92298
937.305	622.35116
937.479	403.53092
937.653	400.30918
937.827	848.63435
938.001	-68.96837
938.175	-105.08706
938.349	68.74399
938.523	574.63817
938.697	239.55965
938.87	-83.64532
939.044	-102.85926
939.218	772.37781
939.392	1293.98859
939.566	-187.99332
939.739	-450.12767
939.913	154.2396
940.087	-10.15467
940.261	-249.29829
940.434	30.45577
940.608	700.92763
940.782	1030.2807
940.955	49.61346
941.129	-259.43042
941.302	493.29136
941.476	-93.82397
941.65	219.04939
941.823	-73.42775
941.997	551.46847
942.17	153.09913
942.344	60.94106
942.517	849.86778
942.691	886.17323
942.864	9.0311
943.038	-243.65637
943.211	231.56806
943.385	381.11027
943.558	548.60948
943.731	24.8048
943.905	67.60795
944.078	-140.20147
944.251	298.54647
944.425	-29.3431
944.598	-46.26377
944.771	-41.84635
944.945	71.01427
945.118	-246.10915
945.291	269.53559
945.464	187.78674
945.638	235.99335
945.811	766.65214
945.984	406.36014
946.157	116.04063
946.33	173.25046
946.503	-175.58779
946.677	81.21711
946.85	758.33165
947.023	404.4794
947.196	-375.62235
947.369	-457.74783
947.542	59.72148
947.715	71.00062
947.888	591.79762
948.061	-373.33756
948.234	-79.0376
948.407	157.55407
948.58	11.27708
948.753	111.55555
948.926	1126.53559
949.099	228.30364
949.271	412.10236
949.444	298.72574
949.617	188.99368
949.79	206.80545
949.963	670.29767
950.136	-165.35615
950.308	609.42617
950.481	73.22371
950.654	684.36599
950.827	-515.86238
950.999	543.32857
951.172	417.7871
951.345	426.49693
951.517	285.20576
951.69	288.87366
951.863	1099.44442
952.035	441.81126
952.208	-218.66244
952.381	305.61387
952.553	432.54996
952.726	513.90119
952.898	-438.6706
953.071	203.52977
953.243	1068.68316
953.416	-246.10915
953.588	254.03213
953.761	264.03428
953.933	-232.08396
954.106	398.49776
954.278	-89.34781
954.45	1019.55524
954.623	280.79851
954.795	-475.15789
954.967	-38.37473
955.14	-293.80451
955.312	570.67061
955.484	384.99718
955.657	0
955.829	318.50027
956.001	1544.06567
956.173	-390.35302
956.346	620.81398
956.518	205.79438
956.69	197.91849
956.862	-152.70178
957.034	130.61918
957.207	-131.24883
957.379	533.06596
957.551	-76.82123
957.723	502.33354
957.895	-16.93758
958.067	173.21098
958.239	383.65218
958.411	-502.89283
958.583	1297.06686
958.755	1046.59954
958.927	-3.38844
959.099	584.24451
959.271	-160.88312
959.443	-97.13745
959.615	-16.94022
959.787	1197.92378
959.959	-378.01339
960.13	151.96469
960.302	567.3403
960.474	-210.85285
960.646	428.78342
960.818	649.71172
960.99	-45.26689
961.161	-182.09734
961.333	363.34969
961.505	485.36233
961.677	1486.66646
961.848	204.5575
962.02	224.64509
962.192	-141.35708
962.363	319.55638
962.535	365.75651
962.707	-340.66561
962.878	470.01329
963.05	1044.99698
963.221	197.77632
963.393	513.27883
963.564	469.37739
963.736	577.60336
963.907	126.26994
964.079	421.12437
964.25	383.06834
964.422	131.72761
964.593	355.67799
964.765	468.46625
964.936	694.85674
965.108	477.89195
965.279	43.95103
965.45	1079.92643
965.622	130.5544
965.793	-325.88265
965.964	978.83751
966.136	168.96942
966.307	-299.16083
966.478	1130.23006
966.65	55.21207
966.821	545.58485
966.992	1028.86525
967.163	23.68233
967.334	90.0888
967.506	105.84232
967.677	224.89974
967.848	-351.8103
968.019	486.9185
968.19	-138.05396
968.361	-240.09924
968.532	-68.89032
968.703	197.99362
968.874	689.91241
969.045	2056.6552
969.216	-400.76766
969.387	112.54244
969.558	-170.91444
969.729	624.35694
969.9	-76.77042
970.071	64.25593
970.242	146.29446
970.413	612.3013
970.584	-77.94032
970.755	220.16861
970.926	94.60051
971.097	389.83276
971.267	738.53348
971.438	-185.66957
971.609	671.82667
971.78	-92.69899
971.951	43.95441
972.121	240.47956
972.292	492.9436
972.463	573.8032
972.633	117.00855
972.804	541.27024
972.975	-29.3659
973.145	14.67354
973.316	148.53953
973.487	-173.01488
973.657	419.38155
973.828	632.14302
973.998	167.71788
974.169	-30.46283
974.339	431.22963
974.51	821.54316
974.68	1274.41534
974.851	183.67363
975.021	3.38712
975.192	-81.43887
975.362	-219.73013
975.533	-47.45204
975.703	469.26564
975.874	414.66443
976.044	175.64769
976.214	-11.27621
976.385	1204.28488
976.555	149.66769
976.725	-11.2915
976.896	410.76284
977.066	182.05749
977.236	424.71269
977.406	613.36315
977.577	-170.8875
977.747	583.05304
977.917	225.7726
978.087	834.4321
978.257	-185.69157
978.427	867.1118
978.598	449.43616
978.768	93.46537
978.938	114.70174
979.108	181.28793
979.278	-162.79587
979.448	244.63437
979.618	-12.41414
979.788	923.09689
979.958	436.72587
980.128	132.83068
980.298	138.34595
980.468	122.74394
980.638	-38.40157
980.808	383.92498
980.978	-124.34774
981.148	834.13481
981.317	650.79307
981.487	-28.22601
981.657	263.10447
981.827	204.69696
981.997	71.0252
982.167	67.60795
982.336	-220.90217
982.506	569.16146
982.676	500.68532
982.846	424.2266
983.015	791.85401
983.185	249.48866
983.355	306.40919
983.524	304.53042
983.694	-123.22935
983.864	310.7479
984.033	-59.87415
984.203	-337.23834
984.372	-234.52456
984.542	240.46142
984.712	867.00256
984.881	-13.54297
985.051	344.56005
985.22	237.1754
985.39	141.84168
985.559	202.29427
985.728	495.11255
985.898	485.96907
986.067	88.9746
986.237	93.57661
986.406	193.42756
986.576	542.93288
986.745	-54.27973
986.914	-41.76965
987.084	47.37841
987.253	633.29465
987.422	872.28068
987.591	489.41013
987.761	20.3176
987.93	326.54008
988.099	722.27016
988.268	2165.39876
988.438	881.27953
988.607	382.39481
988.776	166.43712
988.945	394.59193
989.114	-187.80063
989.283	231.62065
989.452	432.69021
989.621	331.06609
989.791	-33.85874
989.96	132.80536
990.129	674.77448
990.298	31.56732
990.467	-389.52277
990.636	37.18933
990.805	415.00389
990.974	-323.42983
991.142	241.8826
991.311	1041.17307
991.48	396.05972
991.649	-81.35601
991.818	176.83112
991.987	324.90364
992.156	348.80211
992.325	625.66731
992.493	359.15851
992.662	7284.26332
992.831	1044.41456
993	574.95122
993.168	-174.37556
993.337	67.62613
993.506	320.86307
993.675	-3.38554
993.843	249.49809
994.012	102.41159
994.181	665.80135
994.349	196.91729
994.518	-100.48884
994.686	21.43018
994.855	925.24864
995.024	29.34083
995.192	63.16881
995.361	495.69251
995.529	573.32126
995.698	47.32552
995.866	418.99253
996.035	758.26766
996.203	288.77551
996.371	601.41
996.54	278.66746
996.708	909.74166
996.877	297.69783
997.045	67.63393
997.213	-150.48682
997.382	532.63425
997.55	723.99566
997.718	943.30329
997.887	-370.59597
998.055	342.07227
998.223	-157.21401
998.391	456.22958
998.56	-157.30679
998.728	1984.98598
998.896	113.78303
999.064	-72.38723
999.232	760.09953
999.401	640.13747
999.569	323.07083
999.737	-12.42428
999.905	-137.98341
1000.073	-139.02997
1000.241	923.55355
1000.409	253.93624
1000.577	1009.19009
1000.745	353.51309
1000.913	919.64507
1001.081	-29.31025
1001.249	290.6732
1001.417	347.97298
1001.585	142.932
1001.753	511.60501
1001.921	-27.08384
1002.089	77.71194
1002.256	583.86339
1002.424	47.34371
1002.592	233.77219
1002.76	345.34072
1002.928	838.38279
1003.096	-510.24045
1003.263	-370.17784
1003.431	662.46654
1003.599	144.15374
1003.767	91.40642
1003.934	-344.93144
1004.102	793.49183
1004.27	57.46122
1004.437	412.60665
1004.605	-266.49283
1004.773	242.74545
1004.94	1059.41255
1005.108	-7.89838
1005.275	-239.11355
1005.443	534.34415
1005.61	137.32823
1005.778	-57.61699
1005.945	-264.01454
1006.113	357.42977
1006.28	-54.16562
1006.448	-174.29986
1006.615	60.91513
1006.783	453.7853
1006.95	-15.80626
1007.118	12.41222
1007.285	-528.3158
1007.452	1198.68406
1007.62	306.34039
1007.787	360.16643
1007.954	-380.75892
1008.122	499.72965
1008.289	440.15887
1008.456	-153.7515
1008.623	-70.07294
1008.791	353.56605
1008.958	693.70364
1009.125	-607.91433
1009.292	-306.24069
1009.459	277.32972
1009.627	165.44137
1009.794	-376.28814
1009.961	-56.4466
1010.128	490.03391
1010.295	434.74309
1010.462	126.10538
1010.629	-241.55312
1010.796	489.68182
1010.963	119.23155
1011.13	-451.29189
1011.297	828.54922
1011.464	-157.22018
1011.631	965.39417
1011.798	156.58711
1011.965	234.8917
1012.132	656.69705
1012.299	529.16984
1012.466	-105.05018
1012.633	-160.81303
1012.799	410.01392
1012.966	662.20506
1013.133	-117.70367
1013.3	-400.96105
1013.467	729.95765
1013.633	982.73347
1013.8	267.3799
1013.967	408.38002
1014.134	987.54992
1014.3	181.03289
1014.467	-264.31964
1014.634	623.20581
1014.8	1047.76755
1014.967	437.87006
1015.134	-113.15428
1015.3	-322.43063
1015.467	1012.64651
1015.633	183.59618
1015.8	-176.55658
1015.966	178.98118
1016.133	756.01898
1016.3	514.93561
1016.466	-479.47431
1016.632	600.95045
1016.799	91.35343
1016.965	126.24079
1017.132	425.54209
1017.298	-153.7515
1017.465	272.79738
1017.631	594.41962
1017.797	-37.26269
1017.964	127.18038
1018.13	87.91744
1018.296	698.49297
1018.463	-163.88473
1018.629	205.99795
1018.795	557.54997
1018.961	547.05334
1019.128	9.03145
1019.294	294.27762
1019.46	436.8388
1019.626	-24.84034
1019.792	-180.04079
1019.959	74.42027
1020.125	-44.02576
1020.291	195.64712
1020.457	148.51127
1020.623	387.95179
1020.789	-42.87944
1020.955	374.59316
1021.121	96.81591
1021.287	842.44978
1021.453	474.54262
1021.619	279.58592
1021.785	514.74625
1021.951	119.4182
1022.117	425.19753
1022.283	25.9288
1022.449	370.56389
1022.615	205.91165
1022.781	1781.67304
1022.946	342.28955
1023.112	433.88815
1023.278	59.77668
1023.444	265.11293
1023.61	721.53022
1023.775	-255.9961
1023.941	-83.54107
1024.107	27.07127
1024.273	-405.40717
1024.438	-323.26174
1024.604	104.71033
1024.77	11126.27188
1024.935	11.2915
1025.101	90.17868
1025.267	713.01611
1025.432	230.396
1025.598	628.75734
1025.763	218.16079
1025.929	-219.75624
1026.095	376.8786
1026.26	881.38246
1026.426	-362.03234
1026.591	301.06254
1026.757	780.42029
1026.922	1348.40089
1027.087	187.79385
1027.253	197.76886
1027.418	933.96154
1027.584	349.98249
1027.749	-423.57895
1027.914	617.31819
1028.08	111.60273
1028.245	-150.48682
1028.41	-346.12852
1028.576	-74.55015
1028.741	1005.69962
1028.906	440.43598
1029.072	68.75984
1029.237	-467.72095
1029.402	196.70084
1029.567	440.59012
1029.732	-12.43009
1029.898	48.4607
1030.063	511.22911
1030.228	-152.60005
1030.393	251.52794
1030.558	33.82865
1030.723	665.15276
1030.888	-102.81106
1031.053	-348.67824
1031.218	-74.5734
1031.383	179.02902
1031.548	289.63222
1031.713	-587.08357
1031.878	196.90231
1032.043	66.50286
1032.208	614.6708
1032.373	-110.93489
1032.538	283.68484
1032.703	431.26152
1032.868	-196.84376
1033.033	-306.41218
1033.198	-553.59685
1033.362	83.3864
1033.527	892.848
1033.692	-66.61348
1033.857	-203.76005
1034.021	341.05879
1034.186	1213.43824
1034.351	469.61329
1034.516	279.62794
1034.68	273.85334
1034.845	-41.82668
1035.01	-372.22504
1035.174	126.10057
1035.339	176.64232
1035.504	-40.62734
1035.668	938.81505
1035.833	-555.89828
1035.997	-19.17956
1036.162	705.34266
1036.326	-676.43947
1036.491	-437.68434
1036.655	596.65481
1036.82	-137.77328
1036.984	92.41184
1037.149	653.77707
1037.313	-98.23829
1037.478	540.20112
1037.642	505.5885
1037.807	-564.41813
1037.971	337.77488
1038.135	143.97804
1038.3	132.85096
1038.464	824.42655
1038.628	257.10886
1038.792	129.28892
1038.957	-240.443
1039.121	-29.31703
1039.285	1035.79543
1039.449	74.33741
1039.614	-213.05238
1039.778	-582.23578
1039.942	443.93863
1040.106	254.00334
1040.27	305.29246
1040.434	-316.55693
1040.599	-109.59841
1040.763	-236.65935
1040.927	-109.62838
1041.091	430.40428
1041.255	-306.38764
1041.419	578.6052
1041.583	194.52637
1041.747	-57.59455
1041.911	-124.33801
1042.075	513.16628
1042.239	-489.0585
1042.403	-3.38699
1042.567	873.56384
1042.731	585.03386
1042.894	-400.01045
1043.058	-173.21243
1043.222	39.52104
1043.386	394.84178
1043.55	307.5835
1043.714	-377.34116
1043.877	-10.148
1044.041	643.46711
1044.205	56.4466
1044.369	-157.25726
1044.532	-153.78162
1044.696	-31.58437
1044.86	-386.57537
1045.023	169.94974
1045.187	463.53667
1045.351	767.17878
1045.514	-550.3253
1045.678	791.48816
1045.841	865.05217
