Data from 1003 pointing at moon_Subt2__12__22-14-42-087.txt Node

Date: Tue Oct 07 22:14:42 EDT 2025
User: brett
Spectrometer: USB4F03499
Trigger mode: 4
Integration Time (sec): 2.000000E-1
Scans to average: 1
Electric dark correction enabled: true
Nonlinearity correction enabled: true
Boxcar width: 0
XAxis mode: Wavelengths
Number of Pixels in Spectrum: 3648
>>>>>Begin Spectral Data<<<<<
345.386	-229.15091
345.605	-229.15091
345.824	-229.15091
346.044	-150.97709
346.263	-190.68116
346.482	39.11732
346.701	-28.59459
346.92	-8.28705
347.139	26.72218
347.358	44.74281
347.577	45.78367
347.796	21.07378
348.015	-20.68824
348.234	-28.57468
348.453	-8.28059
348.672	-30.80564
348.891	-52.31733
349.11	-31.98638
349.329	84.25286
349.548	-3.76669
349.767	21.04528
349.986	53.73757
350.205	35.73701
350.424	-63.64107
350.643	-69.31811
350.862	19.91364
351.08	98.68091
351.299	102.13003
351.518	-12.78785
351.737	-39.86804
351.956	19.91517
352.174	30.0949
352.393	-24.0694
352.612	3.00879
352.831	26.67779
353.049	-29.7216
353.268	40.21696
353.487	33.47604
353.705	-94.16764
353.924	24.44785
354.143	-1.50376
354.361	30.10307
354.58	-12.77897
354.798	-31.98142
355.017	51.50269
355.236	39.11127
355.454	9.78312
355.673	-36.48089
355.891	59.33676
356.11	40.23093
356.328	3.00856
356.547	92.12844
356.765	-1.50329
356.984	59.38011
357.202	-4.88787
357.42	6.39678
357.639	44.72383
357.857	58.256
358.076	13.14496
358.294	4.13461
358.512	1.88082
358.731	102.12612
358.949	-27.47706
359.167	87.48463
359.386	67.15269
359.604	-21.82557
359.822	81.88551
360.04	53.70866
360.259	49.29477
360.477	45.83985
360.695	24.43462
360.913	60.42986
361.131	103.29013
361.35	36.83209
361.568	-0.37615
361.786	16.53303
362.004	150.45517
362.222	3.00821
362.44	95.35678
362.658	-22.93184
362.876	127.04358
363.094	86.39299
363.312	80.8255
363.53	111.11181
363.749	61.65645
363.967	35.68878
364.184	18.7724
364.402	19.90065
364.62	111.24838
364.838	-4.88976
365.056	-10.53036
365.274	90.87607
365.492	50.36421
365.71	16.54195
365.928	89.71
366.146	52.57283
366.364	134.748
366.581	52.64574
366.799	55.9923
367.017	50.35257
367.235	19.91671
367.453	120.16696
367.67	79.57991
367.888	24.46017
368.106	16.54899
368.323	180.69232
368.541	44.76532
368.759	22.18683
368.977	69.41686
369.194	85.23833
369.412	15.41677
369.629	36.86912
369.847	167.27258
370.065	49.22622
370.282	27.8077
370.5	90.89001
370.717	35.68878
370.935	86.38636
371.152	50.38559
371.37	95.37869
371.588	133.69103
371.805	22.16716
372.022	52.59705
372.24	120.12096
372.457	19.89532
372.675	95.452
372.892	44.73245
373.11	115.72284
373.327	-22.93538
373.544	-6.01665
373.762	71.69286
373.979	158.30735
374.196	31.19392
374.414	136.02785
374.631	51.47888
374.848	81.91699
375.066	151.85126
375.283	97.60558
375.5	-3.76172
375.717	63.86052
375.935	18.79405
376.152	110.06367
376.369	30.02551
376.586	41.35491
376.803	143.67957
377.02	99.83895
377.238	60.47618
377.455	68.38673
377.672	177.46334
377.889	84.26591
378.106	24.42803
378.323	26.68601
378.54	39.10824
378.757	213.26338
378.974	63.89246
379.191	143.81136
379.408	-10.5271
379.625	89.79948
379.842	73.9648
380.059	-8.26747
380.276	62.74683
380.493	54.86177
380.71	96.51447
380.927	157.35322
381.143	103.17956
381.36	73.98465
381.577	124.66371
381.794	168.48438
382.011	158.51332
382.228	134.76345
382.444	187.4759
382.661	68.37884
382.878	84.09733
383.095	35.68467
383.311	98.79807
383.528	85.2514
383.745	1.88148
383.962	69.48328
384.178	57.04633
384.395	61.64218
384.612	76.32608
384.828	215.73351
385.045	39.09315
385.261	157.03574
385.478	77.47352
385.695	71.71206
385.911	119.09752
386.128	84.21053
386.344	89.82368
386.561	47.00784
386.777	114.5275
386.994	148.28888
387.21	148.35139
387.427	98.82466
387.643	8.64843
387.86	64.97126
388.076	93.09
388.292	69.40627
388.509	149.41228
388.725	110.11873
388.942	116.82981
389.158	69.48595
389.374	50.34096
389.591	125.89413
389.807	55.98368
390.023	175.0856
390.239	140.23123
390.456	144.97396
390.672	143.70148
390.888	13.15558
391.104	201.04329
391.321	139.23621
391.537	54.86599
391.753	137.02628
391.969	237.01626
392.185	54.79659
392.401	79.64095
392.618	113.33811
392.834	187.53291
393.05	131.26224
393.266	194.32125
393.482	140.31661
393.698	162.96463
393.914	216.86325
394.13	130.23388
394.346	231.39507
394.562	111.09482
394.778	76.25555
394.994	106.5828
395.21	154.99313
395.426	158.41616
395.642	57.0988
395.858	99.96157
396.073	176.19366
396.289	172.994
396.505	115.58105
396.721	103.24264
396.937	125.66774
397.153	163.93137
397.369	147.21054
397.584	94.31553
397.8	147.06991
398.016	199.79277
398.232	171.62997
398.447	234.49935
398.663	147.14854
398.879	57.12516
399.094	200.86788
399.31	175.13881
399.526	161.7237
399.741	178.41593
399.957	132.50604
400.173	46.93912
400.388	139.09316
400.604	120.09801
400.82	136.84884
401.035	114.4793
401.251	261.64984
401.466	86.36648
401.682	162.73477
401.897	218.8649
402.113	178.25421
402.328	154.98721
402.544	138.08657
402.759	162.6361
402.974	193.01612
403.19	236.90831
403.405	232.32189
403.621	196.57962
403.836	222.06594
404.051	160.52765
404.267	159.46013
404.482	241.4159
404.697	219.85214
404.913	210.0375
405.128	164.94078
405.343	261.63992
405.559	220.07682
405.774	172.69219
405.989	253.77269
406.204	288.4227
406.42	250.14827
406.635	245.83999
406.85	392.48824
407.065	229.16222
407.28	108.83457
407.495	190.78179
407.71	225.55124
407.926	236.74704
408.141	239.13033
408.356	278.00008
408.571	212.998
408.786	208.77351
409.001	273.71548
409.216	232.33068
409.431	260.20563
409.646	305.15883
409.861	282.91598
410.076	316.19043
410.291	282.59623
410.506	251.40927
410.721	226.75678
410.936	307.22081
411.15	269.19159
411.365	318.18573
411.58	319.50449
411.795	257.04427
412.01	317.52177
412.225	241.25152
412.439	241.10608
412.654	316.16673
412.869	346.26244
413.084	252.55722
413.299	233.23047
413.513	261.4224
413.728	228.90176
413.943	286.94814
414.157	321.85799
414.372	298.1835
414.587	312.64109
414.801	252.17722
415.016	339.74707
415.231	169.42641
415.445	249.14227
415.66	279.80324
415.874	259.04829
416.089	300.62017
416.304	262.47187
416.518	346.39188
416.733	320.40536
416.947	287.05574
417.162	351.74729
417.376	308.38398
417.59	298.19467
417.805	327.25763
418.019	268.12385
418.234	252.21503
418.448	301.77173
418.663	266.12816
418.877	339.48044
419.091	298.27294
419.306	357.34814
419.52	311.67649
419.734	329.40343
419.949	416.51705
420.163	294.92115
420.377	363.23344
420.591	353.19187
420.806	263.25451
421.02	273.32592
421.234	329.40343
421.448	327.36785
421.663	293.70465
421.877	423.41485
422.091	252.24342
422.305	373.28572
422.519	349.80464
422.733	339.53111
422.947	325.20821
423.161	359.57772
423.376	300.12573
423.59	481.70449
423.804	370.94428
424.018	308.41871
424.232	456.5456
424.446	382.63838
424.66	365.36884
424.874	318.53134
425.088	295.06533
425.302	559.75936
425.515	372.4356
425.729	430.88808
425.943	362.80036
426.157	315.08551
426.371	409.65562
426.585	470.37137
426.799	446.14452
427.013	315.67197
427.226	376.28047
427.44	297.94963
427.654	357.33483
427.868	458.80266
428.081	338.5674
428.295	339.74707
428.509	395.36138
428.723	451.82586
428.936	339.19017
429.15	433.35336
429.364	405.35417
429.577	295.88319
429.791	366.78604
430.005	464.58354
430.218	327.13548
430.432	414.56815
430.645	396.43101
430.859	335.03106
431.073	343.80086
431.286	356.35285
431.5	336.2974
431.713	428.29979
431.927	408.66387
432.14	381.03441
432.354	347.52069
432.567	347.23544
432.781	324.90422
432.994	414.07605
433.207	437.65847
433.421	405.279
433.634	361.84755
433.848	428.64748
434.061	402.07354
434.274	398.77683
434.488	377.84524
434.701	455.97508
434.914	393.78056
435.127	379.76383
435.341	426.80247
435.554	361.63236
435.767	434.46619
435.98	426.3281
436.194	464.70407
436.407	362.8408
436.62	362.77342
436.833	393.04601
437.046	421.64555
437.259	434.17677
437.473	425.35741
437.686	462.20565
437.899	481.00968
438.112	462.01803
438.325	463.40296
438.538	445.6253
438.751	389.71928
438.964	733.17986
439.177	421.8166
439.39	513.54685
439.603	438.2857
439.816	453.64737
440.029	423.05383
440.242	632.50729
440.455	440.07869
440.668	509.97131
440.881	470.03845
441.094	415.05066
441.306	568.03431
441.519	617.91097
441.732	612.47965
441.945	475.56039
442.158	589.00694
442.37	542.02586
442.583	509.04869
442.796	553.29263
443.009	590.70506
443.222	491.68265
443.434	530.76259
443.647	592.00591
443.86	565.05184
444.072	558.22396
444.285	590.96338
444.498	625.02238
444.71	552.92871
444.923	596.58655
445.136	581.18722
445.348	531.17126
445.561	574.53853
445.773	568.91353
445.986	530.93744
446.198	638.70555
446.411	569.73017
446.623	627.72675
446.836	627.46147
447.048	595.13221
447.261	653.99552
447.473	688.11273
447.686	652.77214
447.898	701.90421
448.11	664.73266
448.323	1412.0577
448.535	628.24836
448.748	660.07719
448.96	630.61917
449.172	708.74718
449.385	586.9154
449.597	691.34922
449.809	614.164
450.021	685.90505
450.234	662.26139
450.446	743.24444
450.658	686.61332
450.87	526.13528
451.083	737.37672
451.295	764.05106
451.507	702.43373
451.719	618.14085
451.931	730.34566
452.143	745.14056
452.356	678.07914
452.568	667.75665
452.78	841.93775
452.992	728.61459
453.204	776.87407
453.416	687.60557
453.628	694.96505
453.84	734.07163
454.052	717.10888
454.264	752.20671
454.476	747.42356
454.688	760.93814
454.9	773.3011
455.112	731.1855
455.324	647.32499
455.536	709.28264
455.747	731.05428
455.959	839.1403
456.171	858.00679
456.383	708.69635
456.595	754.22068
456.807	800.82445
457.018	686.86036
457.23	785.30177
457.442	747.26332
457.654	813.44831
457.865	788.37889
458.077	785.33976
458.289	743.68416
458.501	783.94883
458.712	814.63443
458.924	743.23019
459.136	815.01142
459.347	810.00358
459.559	775.22633
459.77	855.59118
459.982	744.11891
460.194	876.45529
460.405	749.70691
460.617	884.8926
460.828	804.56671
461.04	822.67122
461.251	885.52207
461.463	1009.27759
461.674	878.09258
461.886	984.51667
462.097	763.94191
462.309	931.10374
462.52	884.39444
462.731	875.85429
462.943	906.14635
463.154	828.77676
463.366	973.19706
463.577	895.71463
463.788	931.87251
464	951.19008
464.211	927.88137
464.422	946.47497
464.634	927.52302
464.845	953.37479
465.056	990.63115
465.267	979.14934
465.478	872.52799
465.69	948.93214
465.901	998.17907
466.112	1014.43412
466.323	888.43451
466.534	1085.4985
466.745	1062.93141
466.957	982.63631
467.168	986.53247
467.379	993.11005
467.59	1002.1541
467.801	1033.42054
468.012	1093.92477
468.223	1112.78666
468.434	1021.20062
468.645	1066.49965
468.856	1158.59264
469.067	1035.19496
469.278	1077.56077
469.489	1106.45504
469.7	1038.14833
469.911	1017.84579
470.122	1074.5626
470.333	1084.90778
470.543	1048.52534
470.754	1158.12398
470.965	1145.53292
471.176	1103.62544
471.387	1264.18707
471.598	1145.82016
471.808	1130.52225
472.019	1157.12871
472.23	1091.44213
472.441	1145.15027
472.651	1144.82995
472.862	1167.17716
473.073	1353.71365
473.283	1148.81217
473.494	1222.39617
473.705	1182.0809
473.915	1160.15643
474.126	1389.52936
474.337	1196.90105
474.547	1270.62597
474.758	1312.66926
474.968	1291.72123
475.179	1248.66827
475.389	1361.5226
475.6	1480.60957
475.81	1282.90423
476.021	1433.7246
476.231	1379.09747
476.442	1392.72879
476.652	1317.05067
476.863	1343.92004
477.073	1275.82794
477.284	1389.23939
477.494	1418.25857
477.704	1512.58546
477.915	1436.52252
478.125	1332.19104
478.335	1438.60179
478.546	1505.23407
478.756	1519.83374
478.966	1512.88542
479.177	1408.95621
479.387	1565.91266
479.597	1482.81733
479.807	1501.2167
480.018	1566.73035
480.228	1558.62775
480.438	1546.68967
480.648	1572.16958
480.858	1751.29999
481.068	1674.85075
481.279	1603.57748
481.489	1614.22789
481.699	1633.13427
481.909	1607.88006
482.119	1789.81868
482.329	1682.73533
482.539	1875.29684
482.749	1703.32828
482.959	1718.21644
483.169	1806.14437
483.379	1813.34664
483.589	1815.16841
483.799	1847.0114
484.009	1798.50157
484.219	1851.01146
484.429	1850.05982
484.639	1804.31837
484.849	1770.41507
485.059	1926.38739
485.268	1934.9252
485.478	1931.17585
485.688	1894.23124
485.898	1952.10021
486.108	1954.35841
486.317	2067.02464
486.527	1985.30472
486.737	2077.69731
486.947	1985.06555
487.156	2152.55964
487.366	2003.23623
487.576	2013.83452
487.785	2088.48211
487.995	2076.53915
488.205	2073.03315
488.414	1956.22594
488.624	2094.36508
488.834	2007.49827
489.043	2071.67134
489.253	2045.45568
489.462	2030.93202
489.672	2146.51803
489.882	2079.53666
490.091	2107.62276
490.301	2071.95891
490.51	2134.10444
490.72	2076.66755
490.929	2085.68915
491.138	2261.20514
491.348	2153.28979
491.557	2112.37737
491.767	2212.27022
491.976	2249.89386
492.185	2121.74763
492.395	2255.28118
492.604	2245.9297
492.813	2262.95367
493.023	2241.55215
493.232	2137.55133
493.441	2248.11748
493.651	2311.10698
493.86	2260.68655
494.069	2286.71108
494.278	2274.08626
494.488	2392.52077
494.697	2336.29344
494.906	2360.91599
495.115	2346.64895
495.324	2433.19573
495.533	2339.82425
495.743	2435.48961
495.952	2393.38401
496.161	2413.71651
496.37	2485.00511
496.579	2456.91799
496.788	2431.95543
496.997	2503.92349
497.206	2484.87751
497.415	2475.19708
497.624	2484.98862
497.833	2551.85867
498.042	2511.06439
498.251	2568.01254
498.46	2510.01045
498.669	2524.6342
498.878	2557.41233
499.087	2440.76422
499.296	2577.41641
499.504	2588.56839
499.713	2538.99161
499.922	2582.69281
500.131	2704.2131
500.34	2613.62689
500.549	2624.57873
500.757	2529.8066
500.966	2552.14913
501.175	2498.96849
501.384	2723.63707
501.592	2701.40835
501.801	2715.29801
502.01	2687.60623
502.218	2682.71113
502.427	2655.98059
502.636	2714.52673
502.844	2665.24579
503.053	2682.39849
503.262	2559.21865
503.47	2583.51654
503.679	2690.33036
503.887	2749.37709
504.096	2748.60007
504.304	2625.09381
504.513	2658.58662
504.721	2758.9972
504.93	2679.56005
505.138	2689.2383
505.347	2764.35947
505.555	2710.90447
505.764	2630.14116
505.972	2670.88614
506.18	2709.59316
506.389	2576.3639
506.597	2684.88411
506.806	2667.45967
507.014	2736.56695
507.222	2672.82922
507.431	2635.61078
507.639	2641.96388
507.847	2719.22245
508.055	2757.38921
508.264	2750.35443
508.472	2763.52207
508.68	2786.83335
508.888	2692.00643
509.096	2633.40332
509.305	2775.80654
509.513	2699.09251
509.721	2740.11236
509.929	2729.73881
510.137	2671.00033
510.345	2702.45563
510.553	2719.99291
510.762	2765.12384
510.97	2710.98323
511.178	2804.64964
511.386	2796.42958
511.594	2844.83678
511.802	2702.45791
512.01	2853.05793
512.218	2751.5876
512.426	2796.58469
512.634	2848.05034
512.842	2877.35402
513.049	2816.58514
513.257	2776.67248
513.465	2945.04498
513.673	2741.95319
513.881	2762.78007
514.089	2797.55306
514.297	2819.87616
514.504	2724.15385
514.712	2825.59986
514.92	2820.75889
515.128	2947.52191
515.336	2883.65023
515.543	2914.47765
515.751	2850.23214
515.959	2987.12125
516.166	2831.62954
516.374	2904.46595
516.582	2947.47866
516.789	2913.56697
516.997	2897.33118
517.205	2833.80366
517.412	2899.28593
517.62	2976.61153
517.827	2942.7041
518.035	2900.27899
518.243	2893.88978
518.45	2820.12628
518.658	2828.65062
518.865	2915.13575
519.073	2812.94525
519.28	2930.16084
519.488	2921.63097
519.695	2851.4322
519.902	2829.30245
520.11	2735.45758
520.317	3028.6793
520.525	2936.30555
520.732	2820.35745
520.939	2816.99233
521.147	2855.72276
521.354	2772.55171
521.561	2919.8103
521.769	2882.50192
521.976	2809.31979
522.183	2842.20754
522.391	2724.17883
522.598	2874.54297
522.805	2898.0473
523.012	2825.85383
523.219	2841.94959
523.427	2994.54145
523.634	2799.8096
523.841	2865.94418
524.048	2922.87881
524.255	2889.90462
524.462	2874.7885
524.669	3010.08799
524.877	2964.44293
525.084	2909.63275
525.291	2816.81207
525.498	3002.15381
525.705	2872.55117
525.912	2923.63892
526.119	2891.16409
526.326	2882.05111
526.533	2923.88812
526.74	2953.95562
526.947	3030.32005
527.153	2935.1023
527.36	3090.03671
527.567	2982.81314
527.774	3061.19262
527.981	2954.5755
528.188	3090.04381
528.395	2965.35702
528.602	3143.95984
528.808	2987.25782
529.015	3012.65752
529.222	3010.99234
529.429	3040.87987
529.635	2987.73671
529.842	3039.38968
530.049	3025.37821
530.256	2946.17981
530.462	2999.62048
530.669	3029.36173
530.876	3097.08078
531.082	3078.30951
531.289	3076.04098
531.495	3112.71387
531.702	3067.7084
531.909	3134.23904
532.115	3115.75037
532.322	3065.63472
532.528	3188.8466
532.735	3013.07911
532.941	3074.53562
533.148	3017.3687
533.354	3105.24204
533.561	3102.63586
533.767	3010.34199
533.974	3049.47916
534.18	3055.77756
534.387	3083.64005
534.593	3041.22039
534.799	3081.47053
535.006	3133.71981
535.212	2995.91676
535.418	3108.21144
535.625	3053.73606
535.831	3072.66456
536.037	3181.33446
536.244	3149.34096
536.45	2986.28051
536.656	3134.41744
536.862	3140.23814
537.068	3022.14031
537.275	3087.44176
537.481	3263.8915
537.687	3182.33465
537.893	3154.19729
538.099	3093.0921
538.305	3170.31828
538.512	3177.18459
538.718	3060.43731
538.924	3249.03685
539.13	3176.57035
539.336	3055.89155
539.542	3210.97106
539.748	3231.51646
539.954	3035.1815
540.16	3257.32082
540.366	3101.26464
540.572	3102.72869
540.778	3104.19978
540.984	3161.38946
541.19	3058.43746
541.396	3076.51686
541.602	3117.92074
541.807	3091.78331
542.013	3146.23664
542.219	3154.14572
542.425	3128.33742
542.631	3135.88714
542.837	3104.30342
543.042	3234.01495
543.248	3101.25551
543.454	3181.45127
543.66	3107.18176
543.865	3119.39934
544.071	3126.68821
544.277	3101.15958
544.483	3092.91999
544.688	3223.46511
544.894	3061.30913
545.1	3209.04056
545.305	3110.38021
545.511	3116.62196
545.716	3192.94689
545.922	3206.65054
546.128	3028.50275
546.333	3159.75267
546.539	3089.52634
546.744	3137.53524
546.95	3166.76738
547.155	3058.26678
547.361	3162.7735
547.566	3075.90254
547.772	3131.8086
547.977	3166.61328
548.182	3129.29588
548.388	3183.41517
548.593	3093.70395
548.799	3148.89975
549.004	3175.95733
549.209	3024.50012
549.415	3246.7798
549.62	3160.60544
549.825	3241.43376
550.031	3010.06606
550.236	3215.22283
550.441	3177.00897
550.646	3179.81065
550.852	3207.71052
551.057	3149.5928
551.262	3116.09917
551.467	3302.62072
551.672	3076.79007
551.878	3163.7327
552.083	3064.86397
552.288	3193.25374
552.493	3113.66634
552.698	3221.49812
552.903	3067.62236
553.108	3134.76314
553.313	3369.52047
553.518	3122.60932
553.723	3154.27508
553.928	3263.17411
554.133	3212.69592
554.338	3253.67032
554.543	3202.17659
554.748	3245.80157
554.953	3212.97849
555.158	3224.7706
555.363	3293.49631
555.568	3245.5999
555.773	3137.88253
555.978	3271.41935
556.182	3177.34798
556.387	3213.38396
556.592	3265.51405
556.797	3313.53562
557.002	3280.30079
557.206	3303.34059
557.411	3262.24852
557.616	3217.38306
557.821	3208.3618
558.025	3287.30304
558.23	3214.44037
558.435	3275.10615
558.64	3399.99491
558.844	3261.86572
559.049	3268.74903
559.253	3264.93095
559.458	3261.06197
559.663	3383.15227
559.867	3212.00847
560.072	3323.69494
560.276	3319.58425
560.481	3210.28128
560.685	3347.19403
560.89	3302.34153
561.094	3366.28264
561.299	3248.20809
561.503	3379.85793
561.708	3255.83709
561.912	3238.64174
562.117	3173.78187
562.321	3257.74411
562.525	3202.66666
562.73	3289.64999
562.934	3294.30384
563.139	3246.72142
563.343	3285.09947
563.547	3298.40968
563.752	3274.47927
563.956	3379.70811
564.16	3205.54161
564.364	3160.95978
564.569	3322.11291
564.773	3228.39779
564.977	3216.71736
565.181	3331.45601
565.385	3260.08173
565.59	3182.4523
565.794	3250.27259
565.998	3163.37889
566.202	3247.73013
566.406	3250.40292
566.61	3121.74281
566.814	3244.05297
567.018	3342.45967
567.222	3353.21652
567.426	3183.15227
567.63	3233.86153
567.834	3073.40846
568.038	3262.15949
568.242	3224.5934
568.446	3217.71782
568.65	3229.90676
568.854	3227.71252
569.058	3212.89018
569.262	3137.71155
569.466	3251.47262
569.67	3239.77033
569.874	3128.42852
570.078	3146.29656
570.281	3168.43181
570.485	3277.58294
570.689	3322.42743
570.893	3136.49592
571.097	3220.19184
571.3	3199.63436
571.504	3278.58199
571.708	3124.95417
571.912	3175.2788
572.115	3194.18603
572.319	3185.36928
572.523	3181.0836
572.726	3201.36224
572.93	3267.42085
573.133	3267.56468
573.337	3149.43764
573.541	3209.1719
573.744	3182.63789
573.948	3078.48216
574.151	3113.14713
574.355	3132.7678
574.558	3208.68533
574.762	3234.2166
574.965	3072.16142
575.169	3153.69141
575.372	3206.07257
575.576	3131.20163
575.779	3063.82139
575.983	3223.69492
576.186	3162.60468
576.389	3090.31013
576.593	3100.99012
576.796	3101.69451
577	3154.98481
577.203	3133.45722
577.406	3116.2777
577.609	3087.28029
577.813	3262.51574
578.016	3149.42216
578.219	3099.33496
578.423	3066.14964
578.626	3103.77789
578.829	3126.96408
579.032	3010.31611
579.235	3053.80533
579.438	3184.09564
579.642	3133.12036
579.845	3009.72191
580.048	3178.55371
580.251	3083.19781
580.454	3133.28376
580.657	3112.36357
580.86	3104.72067
581.063	3207.26842
581.266	3102.02851
581.469	3082.73597
581.672	3183.60436
581.875	3154.45268
582.078	3193.56899
582.281	3006.8524
582.484	3168.95928
582.687	3163.12196
582.89	3057.72045
583.093	3009.83421
583.296	3092.73099
583.499	3156.88356
583.702	3067.47846
583.904	3196.55312
584.107	3041.66768
584.31	3070.67652
584.513	3038.3689
584.716	3067.05153
584.918	3174.39252
585.121	3162.7735
585.324	3076.06112
585.527	3132.33399
585.729	3086.83942
585.932	3171.11557
586.135	3025.65948
586.337	3164.26766
586.54	3127.55616
586.743	3166.86434
586.945	3184.61996
587.148	3075.27645
587.35	3183.14294
587.553	3154.45958
587.755	3114.10737
587.958	3143.95984
588.161	3111.5868
588.363	3241.49351
588.566	3077.88833
588.768	3177.57118
588.971	3125.56071
589.173	3084.42521
589.375	3116.27228
589.578	3039.04904
589.78	3071.78592
589.983	3125.64772
590.185	3110.2813
590.387	3219.02814
590.59	3047.03311
590.792	3062.07828
590.994	3023.69646
591.197	2959.80657
591.399	3056.01103
591.601	2977.51973
591.803	2962.85783
592.006	2976.81218
592.208	2994.66745
592.41	2903.38747
592.612	2894.05503
592.815	2931.78951
593.017	2953.15458
593.219	2870.03147
593.421	2800.05118
593.623	2797.15001
593.825	3032.17196
594.027	2884.96812
594.229	2885.90703
594.432	2839.73774
594.634	2900.30384
594.836	2806.82708
595.038	2903.27616
595.24	2884.00563
595.442	2840.90254
595.644	2885.2451
595.846	2796.34451
596.048	2812.46669
596.249	2720.6906
596.451	2787.63378
596.653	2719.93341
596.855	2758.84897
597.057	2690.64317
597.259	2867.21941
597.461	2745.10729
597.663	2832.2007
597.864	2763.47003
598.066	2670.26156
598.268	2743.53211
598.47	2700.43703
598.671	2760.30939
598.873	2675.20368
599.075	2678.58777
599.277	2779.24966
599.478	2705.97045
599.68	2818.10496
599.882	2715.42582
600.083	2714.58003
600.285	2900.63398
600.487	2755.14649
600.688	2670.02771
600.89	2804.0007
601.091	2790.2151
601.293	2712.48381
601.494	2830.02037
601.696	2719.69894
601.898	2886.9785
602.099	2701.16806
602.301	2760.77526
602.502	2781.12454
602.703	2875.30177
602.905	2884.16931
603.106	2786.83335
603.308	2690.76897
603.509	2819.72015
603.711	2827.55475
603.912	2683.48471
604.113	2776.03316
604.315	2859.66455
604.516	2823.1747
604.717	2933.46236
604.919	2889.53986
605.12	2813.51456
605.321	2815.60525
605.522	2854.71301
605.724	2890.5036
605.925	2777.24098
606.126	2931.12299
606.327	3027.01823
606.528	2987.17333
606.729	2914.5847
606.931	2881.91102
607.132	2881.86552
607.333	2798.35969
607.534	2952.15382
607.735	3009.21353
607.936	2910.48688
608.137	2972.80186
608.338	3010.06131
608.539	2950.52451
608.74	2898.68615
608.941	2972.87475
609.142	2942.7969
609.343	2811.01397
609.544	2807.06317
609.745	2985.36969
609.946	2934.8425
610.147	2885.41382
610.348	2878.19458
610.549	3027.91341
610.75	2921.73535
610.95	2933.34427
611.151	2912.7179
611.352	2978.63721
611.553	3018.7765
611.754	3054.35205
611.954	2948.89105
612.155	2936.34833
612.356	2965.10567
612.557	2978.76732
612.757	2976.92431
612.958	2972.66889
613.159	2922.89258
613.359	2875.42549
613.56	2993.77821
613.761	2927.78717
613.961	2987.5765
614.162	2976.09126
614.362	2967.49352
614.563	2937.4781
614.764	2965.57201
614.964	2882.79257
615.165	2910.41059
615.365	2936.09964
615.566	2914.97558
615.766	2863.82369
615.967	2916.92243
616.167	2885.2496
616.368	2920.66845
616.568	2985.62254
616.768	2952.36067
616.969	2910.34786
617.169	2913.53952
617.37	2799.09154
617.57	2950.27058
617.77	2851.04595
617.971	2806.58274
618.171	2918.71133
618.371	2865.11363
618.571	2923.27585
618.772	2952.61194
618.972	2905.69792
619.172	2887.99933
619.372	2861.13943
619.573	2916.6035
619.773	2971.1679
619.973	2837.60976
620.173	2815.44369
620.373	2864.882
620.573	2827.44524
620.774	2942.9546
620.974	2848.32785
621.174	2875.67095
621.374	2835.00964
621.574	2857.2446
621.774	2911.67207
621.974	2839.59856
622.174	2860.79297
622.374	2875.05498
622.574	2835.9023
622.774	2833.74612
622.974	2884.90311
623.174	2822.20957
623.374	2864.23028
623.574	2828.41143
623.774	2799.72911
623.973	2873.51558
624.173	2821.96692
624.373	2904.63222
624.573	2935.93318
624.773	2826.15568
624.973	2829.45846
625.172	2790.05354
625.372	2808.59505
625.572	2780.62519
625.772	2835.49725
625.971	2756.34037
626.171	2826.80272
626.371	2922.53289
626.57	2847.11704
626.77	2859.32474
626.97	2841.63588
627.169	2824.16581
627.369	2818.26282
627.569	2839.13391
627.768	2789.50506
627.968	2825.4465
628.167	2837.59087
628.367	2827.46048
628.566	2741.43456
628.766	2799.72911
628.965	2701.78997
629.165	2879.92778
629.364	2774.00182
629.564	2659.14579
629.763	2796.3495
629.963	2806.82262
630.162	2778.60239
630.362	2808.75665
630.561	2726.22592
630.76	2792.55471
630.96	2680.02927
631.159	2661.46703
631.358	2752.3184
631.558	2652.74675
631.757	2785.29514
631.956	2759.49953
632.155	2699.82794
632.355	2522.67678
632.554	2710.4324
632.753	2684.65529
632.952	2672.59697
633.152	2618.60039
633.351	2692.32002
633.55	2656.71817
633.749	2708.07019
633.948	2711.21963
634.147	2652.64213
634.346	2644.84199
634.545	2770.61472
634.744	2707.41434
634.944	2603.58919
635.143	2650.06298
635.342	2681.15808
635.541	2760.92729
635.74	2716.57197
635.939	2612.55719
636.138	2742.22692
636.336	2671.85876
636.535	2628.4231
636.734	2652.1236
636.933	2767.47682
637.132	2688.66818
637.331	2725.51907
637.53	2611.06509
637.729	2620.01241
637.928	2636.54282
638.126	2708.17613
638.325	2630.93953
638.524	2634.16816
638.723	2648.73664
638.921	2633.16728
639.12	2733.26031
639.319	2702.42765
639.518	2685.94029
639.716	2661.12224
639.915	2598.38544
640.114	2636.54282
640.312	2576.72721
640.511	2634.34536
640.71	2623.66073
640.908	2629.45509
641.107	2679.36268
641.305	2572.60007
641.504	2629.93619
641.702	2632.11596
641.901	2682.20132
642.099	2591.69196
642.298	2610.54869
642.496	2568.3855
642.695	2568.01879
642.893	2580.80193
643.092	2600.76442
643.29	2566.582
643.489	2649.12528
643.687	2595.13882
643.885	2543.58035
644.084	2649.44366
644.282	2597.10445
644.48	2664.93026
644.679	2645.27253
644.877	2688.89001
645.075	2551.69798
645.274	2596.05246
645.472	2572.68501
645.67	2646.90528
645.868	2655.62825
646.067	2609.74843
646.265	2673.92773
646.463	2582.97122
646.661	2542.8975
646.859	2617.24153
647.057	2594.40611
647.256	2557.12651
647.454	2586.29279
647.652	2505.64572
647.85	2726.21314
648.048	2584.93557
648.246	2500.6608
648.444	2496.84242
648.642	2499.68083
648.84	2504.59172
649.038	2478.52943
649.236	2572.97193
649.434	2603.69015
649.632	2487.745
649.83	2485.30139
650.028	2592.744
650.226	2428.90018
650.423	2463.61463
650.621	2494.95644
650.819	2510.60709
651.017	2580.49779
651.215	2403.49196
651.413	2509.13391
651.61	2458.36914
651.808	2567.79159
652.006	2418.66518
652.204	2488.45095
652.401	2414.4573
652.599	2454.19235
652.797	2389.71042
652.995	2425.91182
653.192	2409.39531
653.39	2485.54184
653.588	2394.94575
653.785	2393.67241
653.983	2450.83964
654.18	2480.67974
654.378	2424.56681
654.576	2425.18556
654.773	2374.68822
654.971	2461.6064
655.168	2352.0767
655.366	2395.59657
655.563	2407.09182
655.761	2228.52119
655.958	2350.95521
656.156	2400.3473
656.353	2402.5079
656.55	2462.75607
656.748	2377.71509
656.945	2337.84203
657.143	2229.34598
657.34	2325.16727
657.537	2405.89172
657.735	2273.32092
657.932	2308.5712
658.129	2410.21018
658.326	2292.4723
658.524	2332.33877
658.721	2261.34278
658.918	2214.88698
659.115	2219.24778
659.313	2245.4155
659.51	2244.35615
659.707	2357.02712
659.904	2300.29505
660.101	2234.13173
660.298	2133.51233
660.496	2280.80738
660.693	2307.22347
660.89	2271.29095
661.087	2177.24033
661.284	2237.41661
661.481	2158.27426
661.678	2352.01279
661.875	2299.94422
662.072	2266.91539
662.269	2260.46529
662.466	2209.08767
662.663	2275.09278
662.86	2280.36032
663.057	2350.73639
663.254	2215.92877
663.45	2276.33277
663.647	2228.55816
663.844	2330.78864
664.041	2241.62063
664.238	2341.99648
664.435	2202.51897
664.631	2256.83023
664.828	2238.61249
665.025	2189.71832
665.222	2222.19669
665.419	2307.78395
665.615	2367.30273
665.812	2263.09174
666.009	2241.85984
666.205	2237.82557
666.402	2330.79501
666.599	2309.55951
666.795	2269.81707
666.992	2321.89692
667.188	2284.64334
667.385	2292.39029
667.582	2272.19185
667.778	2328.25039
667.975	2372.29085
668.171	2244.01555
668.368	2338.19193
668.564	2380.82732
668.761	2350.24554
668.957	2266.22597
669.154	2346.23514
669.35	2357.56923
669.547	2314.48601
669.743	2252.5925
669.939	2401.02659
670.136	2293.53111
670.332	2343.41672
670.528	2262.97975
670.725	2306.80394
670.921	2326.83728
671.117	2249.77117
671.314	2346.73335
671.51	2366.87536
671.706	2310.18211
671.902	2341.71526
672.099	2320.84697
672.295	2273.96392
672.491	2317.10563
672.687	2425.14689
672.883	2330.9272
673.08	2212.50226
673.276	2220.32263
673.472	2359.2855
673.668	2391.48671
673.864	2218.87991
674.06	2301.2217
674.256	2218.67649
674.452	2379.71679
674.648	2277.4054
674.844	2285.54685
675.04	2330.09217
675.236	2168.35501
675.432	2336.21807
675.628	2288.89701
675.824	2181.27557
676.02	2261.98931
676.216	2263.43726
676.412	2278.86449
676.608	2385.69919
676.804	2250.37472
676.999	2348.56445
677.195	2222.51044
677.391	2242.10051
677.587	2343.06131
677.783	2308.98295
677.978	2151.23508
678.174	2200.82269
678.37	2271.98366
678.566	2227.2557
678.761	2290.07631
678.957	2253.52878
679.153	2243.12452
679.348	2204.68861
679.544	2295.70775
679.74	2280.14655
679.935	2171.33672
680.131	2199.01867
680.327	2148.64459
680.522	2222.91737
680.718	2224.99821
680.913	2155.2169
681.109	2154.28705
681.304	2212.31443
681.5	2239.46888
681.695	2242.85121
681.891	2180.36745
682.086	2089.39668
682.282	2191.30261
682.477	3040.45402
682.672	2212.77531
682.868	2177.12853
683.063	2132.77079
683.259	2198.36381
683.454	2179.2898
683.649	2149.17425
683.845	2106.34323
684.04	2157.33819
684.235	2250.67912
684.43	2235.63887
684.626	2196.76065
684.821	2142.46739
685.016	2097.18956
685.211	2204.00236
685.407	2195.74832
685.602	2152.5611
685.797	2107.75278
685.992	2127.54628
686.187	2094.67174
686.382	2038.0846
686.577	2153.89144
686.773	2133.29972
686.968	2094.64864
687.163	2155.28275
687.358	2259.59218
687.553	2124.19429
687.748	2113.58765
687.943	2203.8303
688.138	1990.96165
688.333	2125.93306
688.528	2043.88295
688.723	2080.43673
688.918	1974.79683
689.112	2046.34839
689.307	2027.84868
689.502	1934.22991
689.697	2028.85565
689.892	2011.82282
690.087	1993.89512
690.282	2081.85908
690.476	1982.60474
690.671	1945.62367
690.866	2014.83701
691.061	1909.90836
691.255	1971.50532
691.45	1907.1273
691.645	1962.01516
691.84	1879.63154
692.034	1903.64068
692.229	1909.64852
692.424	1898.44376
692.618	1824.39252
692.813	1857.06396
693.007	1819.3609
693.202	1804.49926
693.397	1817.48289
693.591	1820.43835
693.786	1887.76181
693.98	1785.87804
694.175	1726.80002
694.369	1757.2814
694.564	1772.11923
694.758	1711.19525
694.953	1822.28779
695.147	1836.49421
695.342	1779.16371
695.536	1749.38112
695.73	1817.14773
695.925	1731.98744
696.119	1803.6825
696.313	1685.62927
696.508	1635.56983
696.702	1717.8108
696.896	1752.42933
697.091	1680.82602
697.285	1682.20783
697.479	1696.3365
697.673	1634.97335
697.868	1629.28002
698.062	1669.6829
698.256	1673.81668
698.45	1677.14741
698.644	1729.18213
698.839	1693.83469
699.033	1638.63428
699.227	1733.18057
699.421	1765.41338
699.615	1710.04113
699.809	1653.29751
700.003	1755.47513
700.197	1690.94276
700.391	1760.888
700.585	1727.75056
700.779	1740.29578
700.973	1740.11968
701.167	1728.68203
701.361	1706.61167
701.555	1661.78488
701.749	1596.29053
701.943	1701.09894
702.137	1671.28936
702.331	1702.53
702.525	1688.15959
702.718	1594.4161
702.912	1618.98686
703.106	1740.74111
703.3	1621.15473
703.494	1574.11688
703.687	1586.46621
703.881	1669.00205
704.075	1623.27206
704.269	1598.61632
704.462	1629.69315
704.656	1645.13419
704.85	1710.01306
705.043	1677.94945
705.237	1508.24637
705.431	1661.3042
705.624	1686.53917
705.818	1664.63608
706.012	1642.08192
706.205	1678.11257
706.399	1634.38902
706.592	1635.29283
706.786	1797.57224
706.979	1639.86836
707.173	1618.58177
707.366	1643.7297
707.56	1637.33011
707.753	1622.49484
707.947	1679.55372
708.14	1642.60054
708.333	1570.98497
708.527	1585.71771
708.72	1563.29608
708.914	1659.85806
709.107	1589.24272
709.3	1576.31514
709.494	1612.23471
709.687	1557.49808
709.88	1602.31627
710.073	1675.43455
710.267	1590.86136
710.46	1588.01005
710.653	1691.27137
710.846	1606.20066
711.04	1677.32787
711.233	1560.31993
711.426	1664.52779
711.619	1666.77769
711.812	1641.75128
712.005	1664.14926
712.198	1514.9927
712.391	1715.94236
712.585	1620.62677
712.778	1676.76699
712.971	1602.79456
713.164	1625.13862
713.357	1583.23739
713.55	1654.74852
713.743	1670.16138
713.936	1566.73927
714.129	1594.55483
714.322	1632.82333
714.514	1682.73533
714.707	1582.41079
714.9	1631.84467
715.093	1692.48098
715.286	1621.45809
715.479	1613.65057
715.672	1623.92584
715.864	1685.1567
716.057	1594.72947
716.25	1649.05281
716.443	1627.23591
716.636	1538.41101
716.828	1572.52427
717.021	1673.88527
717.214	1680.30175
717.406	1718.66138
717.599	1592.47215
717.792	2153.16686
717.984	1591.12023
718.177	1592.819
718.37	1649.16044
718.562	1656.68237
718.755	1632.22692
718.947	1555.60072
719.14	1484.53359
719.333	1604.25864
719.525	1553.08906
719.718	1413.65462
719.91	1585.28632
720.103	1498.21539
720.295	1446.06671
720.487	1455.57453
720.68	1532.18206
720.872	1480.51052
721.065	1395.83445
721.257	1416.14613
721.449	1406.08592
721.642	1384.67595
721.834	1440.97667
722.026	1339.09193
722.219	1281.29801
722.411	1298.80755
722.603	1270.09914
722.796	1198.58644
722.988	1178.94201
723.18	1235.18385
723.372	1251.81359
723.565	1102.64917
723.757	1145.26826
723.949	1326.67312
724.141	1077.22586
724.333	1133.67514
724.525	1175.71352
724.717	1151.68446
724.91	1135.11287
725.102	1188.37459
725.294	1158.32386
725.486	1008.39863
725.678	1072.45532
725.87	1012.34885
726.062	1162.36188
726.254	1055.98676
726.446	1045.17865
726.638	1095.50219
726.83	1052.19952
727.022	1099.73469
727.213	1033.0814
727.405	1074.24991
727.597	1010.7953
727.789	1181.87903
727.981	982.194
728.173	1032.13233
728.365	1060.16404
728.556	1050.12511
728.748	1080.95652
728.94	1059.18264
729.132	976.1739
729.324	959.75144
729.515	1054.02225
729.707	958.94629
729.899	1077.62849
730.09	1100.31652
730.282	1031.52236
730.474	1068.38707
730.665	950.75616
730.857	1084.87064
731.049	1034.62012
731.24	1105.67049
731.432	953.48172
731.623	1012.98144
731.815	1068.53463
732.006	1023.78045
732.198	1032.02448
732.389	1059.81542
732.581	979.38893
732.772	972.20446
732.964	987.93601
733.155	970.66661
733.347	1027.00981
733.538	948.56585
733.729	965.44399
733.921	982.08918
734.112	960.57726
734.304	999.11748
734.495	963.86144
734.686	951.02032
734.877	1109.15285
735.069	955.10293
735.26	993.04041
735.451	1095.57753
735.643	996.33927
735.834	1061.16677
736.025	1062.82135
736.216	1139.82171
736.407	1058.02405
736.599	1100.77227
736.79	976.2464
736.981	987.0834
737.172	1135.81576
737.363	1062.35452
737.554	1022.67533
737.745	1097.6823
737.936	1076.96595
738.127	1128.41988
738.318	1065.16627
738.509	968.00308
738.7	1177.20518
738.891	1119.69681
739.082	1118.14288
739.273	1271.39472
739.464	1046.48701
739.655	1172.81037
739.846	1155.72314
740.037	1153.72554
740.228	1100.87658
740.419	1170.75958
740.609	1156.2191
740.8	1179.26093
740.991	1142.34538
741.182	1102.07514
741.373	1240.07641
741.563	1178.89753
741.754	1105.17318
741.945	1178.21358
742.136	1165.55853
742.326	1296.21381
742.517	1269.01378
742.708	1188.56744
742.898	1275.5658
743.089	1217.50164
743.28	1221.74358
743.47	1327.74943
743.661	1258.35674
743.851	1240.45685
744.042	1157.34656
744.233	1219.34334
744.423	1265.14405
744.614	1174.63077
744.804	1223.23325
744.995	1121.72274
745.185	1185.62404
745.376	1180.02726
745.566	1286.20194
745.756	1226.32626
745.947	1288.37154
746.137	1156.39713
746.328	1208.4297
746.518	1273.44127
746.708	1299.95058
746.899	1179.8646
747.089	1319.88813
747.279	1195.97679
747.47	1270.36887
747.66	1239.62397
747.85	1244.49493
748.04	1286.72403
748.231	1305.51991
748.421	1212.20074
748.611	1144.99311
748.801	1177.60807
748.991	1240.11863
749.182	1242.66032
749.372	1225.15449
749.562	1239.20094
749.752	1181.83869
749.942	1333.08579
750.132	1213.81694
750.322	1206.80746
750.512	1209.35202
750.702	1239.69692
750.892	1172.5357
751.082	1191.87116
751.272	1194.16874
751.462	1170.27172
751.652	1242.01027
751.842	1255.37004
752.032	1172.40839
752.222	1229.2514
752.412	1244.49493
752.602	1295.74492
752.792	1193.59874
752.981	1271.22752
753.171	1279.34733
753.361	1243.26755
753.551	1171.92748
753.741	1187.60141
753.93	1198.31478
754.12	1233.97192
754.31	1210.52177
754.5	1226.74319
754.689	1210.86702
754.879	1197.10491
755.069	1205.3516
755.258	1140.5586
755.448	1172.28802
755.638	1168.73656
755.827	1174.91071
756.017	1209.25695
756.206	1176.3995
756.396	1140.44999
756.586	1154.31877
756.775	1133.98471
756.965	1209.86258
757.154	1176.88556
757.344	1192.40114
757.533	1176.68276
757.723	1178.89753
757.912	1219.64178
758.101	1164.8032
758.291	1130.09364
758.48	1122.11691
758.67	1175.75378
758.859	1112.00246
759.048	1246.69986
759.238	1175.39186
759.427	1093.51005
759.616	1187.1961
759.806	1207.92046
759.995	1143.51227
760.184	1121.77013
760.373	1140.4413
760.563	1079.40756
760.752	1177.16479
760.941	1122.07833
761.13	1090.05135
761.319	1075.75076
761.509	1093.28752
761.698	1111.37144
761.887	1075.39435
762.076	1037.01046
762.265	1060.13427
762.454	1035.78404
762.643	1049.87182
762.832	1062.61244
763.021	965.20885
763.21	932.57627
763.399	991.52922
763.588	1077.10388
763.777	801.79904
763.966	919.65936
764.155	899.34214
764.344	955.57209
764.533	898.08699
764.722	806.12504
764.911	793.23169
765.1	749.51933
765.288	778.23703
765.477	836.55615
765.666	784.28508
765.855	770.51949
766.044	752.07141
766.232	686.8851
766.421	631.54175
766.61	668.06943
766.799	676.01751
766.987	662.38067
767.176	577.27286
767.365	618.58949
767.553	607.88152
767.742	791.65184
767.931	611.50689
768.119	719.75724
768.308	507.7886
768.497	584.1696
768.685	625.74308
768.874	631.63323
769.062	524.41724
769.251	597.21536
769.439	473.89108
769.628	486.06355
769.816	566.34491
770.005	606.64478
770.193	586.64094
770.382	550.67261
770.57	551.86103
770.758	591.74734
770.947	616.332
771.135	643.7446
771.323	687.03369
771.512	616.24242
771.7	611.57335
771.888	707.74615
772.077	722.07956
772.265	689.31598
772.453	666.60496
772.642	800.56723
772.83	680.13998
773.018	821.34695
773.206	701.83685
773.394	785.78025
773.583	744.45055
773.771	769.14368
773.959	816.89123
774.147	857.24187
774.335	841.63215
774.523	796.47341
774.711	785.33976
774.899	836.05129
775.087	847.002
775.275	872.39168
775.463	933.68935
775.651	908.14791
775.839	823.3701
776.027	910.59792
776.215	929.14077
776.403	832.57518
776.591	1049.57953
776.779	852.02387
776.967	944.32273
777.155	909.02049
777.343	951.78458
777.531	903.8249
777.718	907.08325
777.906	891.00437
778.094	1006.63295
778.282	865.96159
778.47	1034.53465
778.657	978.84198
778.845	928.8794
779.033	909.35115
779.22	987.24837
779.408	913.72713
779.596	928.04462
779.783	929.90991
779.971	985.51641
780.159	948.8988
780.346	925.97336
780.534	938.80657
780.722	875.71334
780.909	1021.54726
781.097	910.50154
781.284	930.00791
781.472	937.94167
781.659	909.12879
781.847	977.9186
782.034	988.17758
782.222	893.66728
782.409	876.68693
782.597	1003.00312
782.784	1046.70305
782.971	1033.59959
783.159	916.72622
783.346	967.7217
783.533	891.75769
783.721	956.14422
783.908	939.77023
784.095	924.72341
784.283	869.00878
784.47	839.25851
784.657	967.24683
784.844	994.08343
785.032	890.15825
785.219	895.5241
785.406	928.94469
785.593	890.69196
785.78	968.47712
785.968	894.2681
786.155	879.74845
786.342	932.00321
786.529	913.72713
786.716	868.16479
786.903	873.61167
787.09	949.49472
787.277	810.38064
787.464	881.63222
787.651	963.52468
787.838	865.41446
788.025	871.94047
788.212	876.95265
788.399	859.49797
788.586	914.04958
788.773	879.25159
788.96	832.36808
789.147	874.98633
789.334	721.84682
789.521	802.65307
789.707	897.30666
789.894	838.48623
790.081	819.5567
790.268	818.19431
790.455	836.79356
790.641	850.92562
790.828	846.56225
791.015	874.67796
791.202	770.1355
791.388	843.80608
791.575	829.55254
791.762	874.94255
791.948	834.44758
792.135	843.53608
792.322	772.50063
792.508	859.22513
792.695	760.00005
792.881	727.46048
793.068	805.94757
793.254	685.26405
793.441	764.43402
793.627	783.58581
793.814	739.50064
794	706.94838
794.187	756.26138
794.373	845.73375
794.56	803.8389
794.746	796.98261
794.933	753.5244
795.119	735.35759
795.305	845.64369
795.492	693.58128
795.678	815.73382
795.864	810.53163
796.051	795.68461
796.237	785.39542
796.423	740.84045
796.61	719.26353
796.796	705.18635
796.982	824.22077
797.168	671.18839
797.355	720.08159
797.541	714.59334
797.727	740.68147
797.913	742.42135
798.099	785.32986
798.285	608.21144
798.471	763.14099
798.658	719.7716
798.844	827.61933
799.03	746.05037
799.216	754.8906
799.402	839.94115
799.588	727.69511
799.774	754.68072
799.96	775.30949
800.146	791.40072
800.332	708.02615
800.518	720.77059
800.704	702.15599
800.89	692.57758
801.075	773.19031
801.261	627.12016
801.447	738.51716
801.633	665.47938
801.819	642.26853
802.005	663.53261
802.19	681.29272
802.376	816.4609
802.562	726.5928
802.748	753.38912
802.934	687.37131
803.119	668.42846
803.305	681.1701
803.491	773.4909
803.676	683.54934
803.862	664.90072
804.048	744.46559
804.233	732.70803
804.419	747.36865
804.605	652.77214
804.79	658.41577
804.976	734.43993
805.161	770.93255
805.347	663.55654
805.532	649.40998
805.718	745.00748
805.903	644.84957
806.089	754.03188
806.274	701.17905
806.46	676.53668
806.645	665.02096
806.831	709.59001
807.016	759.56494
807.201	740.05699
807.387	729.47944
807.572	744.92773
807.757	675.8711
807.943	701.17905
808.128	734.59821
808.313	698.94764
808.499	825.17351
808.684	678.12807
808.869	737.21866
809.054	747.50378
809.24	732.60403
809.425	687.38136
809.61	721.97605
809.795	631.77063
809.98	671.38189
810.165	704.00836
810.35	704.58952
810.536	762.23074
810.721	721.97605
810.906	614.73505
811.091	712.10598
811.276	636.74592
811.461	723.33757
811.646	681.90834
811.831	596.8908
812.016	643.7446
812.201	711.92731
812.386	558.3458
812.571	589.89911
812.756	667.06153
812.941	665.52518
813.125	692.8778
813.31	709.89839
813.495	681.19461
813.68	625.0904
813.865	692.25345
814.05	660.60175
814.234	611.66206
814.419	712.23381
814.604	641.53455
814.789	653.59358
814.973	736.82957
815.158	557.15718
815.343	635.08756
815.528	570.79621
815.712	597.20036
815.897	612.83478
816.081	592.15713
816.266	530.99583
816.451	589.94219
816.635	592.37367
816.82	641.12738
817.004	575.81559
817.189	593.22123
817.374	566.17983
817.558	626.87076
817.743	473.89108
817.927	546.46015
818.111	559.73892
818.296	514.58135
818.48	517.04004
818.665	428.59995
818.849	529.69262
819.034	510.61311
819.218	519.9597
819.402	446.52286
819.587	533.44898
819.771	545.59144
819.955	469.77844
820.14	597.47597
820.324	526.40458
820.508	526.34678
820.692	439.62322
820.877	497.72237
821.061	485.47048
821.245	389.82073
821.429	456.51189
821.613	462.46241
821.798	422.20727
821.982	531.17126
822.166	441.58553
822.35	457.84336
822.534	516.6116
822.718	385.02077
822.902	428.4102
823.086	368.75554
823.27	442.81122
823.454	374.01048
823.638	399.99496
823.822	426.43844
824.006	421.91012
824.19	441.9768
824.374	419.11703
824.558	377.63349
824.742	354.95993
824.926	508.88001
825.11	378.90385
825.294	381.61002
825.477	428.9654
825.661	384.13535
825.845	357.92378
826.029	339.44247
826.213	426.77073
826.396	311.58315
826.58	452.34982
826.764	420.012
826.948	418.41799
827.131	469.84767
827.315	348.32444
827.499	369.60884
827.682	440.94637
827.866	328.31228
828.05	401.76065
828.233	411.85076
828.417	360.6656
828.6	413.69459
828.784	404.48137
828.967	465.12905
829.151	427.55091
829.335	398.46617
829.518	382.93599
829.701	436.87016
829.885	417.50635
830.068	413.19297
830.252	380.39833
830.435	366.1974
830.619	457.70792
830.802	435.59513
830.985	462.53105
831.169	407.64142
831.352	356.12726
831.535	413.3619
831.719	448.18311
831.902	443.59788
832.085	387.34775
832.269	575.58351
832.452	338.22642
832.635	434.61144
832.818	431.04765
833.002	395.59705
833.185	471.84402
833.368	381.65238
833.551	391.97599
833.734	414.19867
833.917	418.30006
834.1	400.60335
834.284	371.76845
834.467	323.61977
834.65	437.35153
834.833	386.10549
835.016	456.41088
835.199	401.64192
835.382	398.68789
835.565	384.30694
835.748	347.18376
835.931	373.89947
836.114	360.78653
836.297	412.75003
836.479	409.86829
836.662	460.83885
836.845	462.3767
837.028	380.68006
837.211	426.67559
837.394	420.58023
837.577	364.34897
837.759	476.74202
837.942	410.75324
838.125	398.24537
838.308	417.86292
838.49	408.60328
838.673	559.45329
838.856	378.73409
839.039	398.83621
839.221	366.11581
839.404	420.79765
839.587	418.47978
839.769	394.43841
839.952	357.25507
840.134	405.099
840.317	310.58303
840.499	451.15383
840.682	513.24454
840.865	381.13407
841.047	428.04333
841.23	405.53501
841.412	477.76515
841.595	422.69509
841.777	343.81364
841.959	299.02109
842.142	377.76043
842.324	489.78681
842.507	497.86907
842.689	441.10961
842.871	378.70585
843.054	455.99178
843.236	430.82438
843.418	487.99779
843.601	359.6313
843.783	363.88759
843.965	490.16593
844.147	431.1436
844.33	480.58578
844.512	477.04215
844.694	413.25434
844.876	430.95186
845.059	505.49383
845.241	467.67717
845.423	417.27501
845.605	406.1967
845.787	400.75161
845.969	442.04211
846.151	424.91819
846.333	349.50429
846.515	423.99402
846.697	494.17312
846.879	492.95458
847.061	397.23551
847.243	419.23684
847.425	413.26969
847.607	335.14373
847.789	436.75655
847.971	339.44247
848.153	520.05527
848.335	403.15724
848.517	389.22997
848.699	394.35023
848.881	479.12407
849.062	382.86497
849.244	325.93485
849.426	398.45142
849.608	318.29269
849.789	383.7655
849.971	461.86495
850.153	348.29853
850.335	404.33086
850.516	396.41628
850.698	350.84176
850.88	291.44872
851.061	406.37712
851.243	481.00968
851.425	375.22214
851.606	351.97053
851.788	417.6611
851.969	439.9482
852.151	376.23854
852.333	429.53779
852.514	309.44297
852.696	416.27042
852.877	380.69419
853.059	358.74407
853.24	506.58526
853.422	507.39733
853.603	421.95693
853.784	347.37785
853.966	338.36503
854.147	348.15627
854.329	294.93222
854.51	426.34385
854.691	359.72521
854.873	440.14404
855.054	376.30844
855.235	481.51946
855.416	317.99623
855.598	491.95305
855.779	388.50446
855.96	361.9015
856.141	328.14104
856.323	402.97785
856.504	462.77191
856.685	383.22102
856.866	403.30719
857.047	437.39989
857.228	378.94638
857.409	335.219
857.591	341.67293
857.772	434.49844
857.953	399.66805
858.134	376.6453
858.315	378.69174
858.496	442.36973
858.677	380.66594
858.858	414.26008
859.039	309.2578
859.22	361.8206
859.401	309.26935
859.582	299.31157
859.762	336.07143
859.943	386.24853
860.124	339.37927
860.305	376.01551
860.486	401.10909
860.667	374.13565
860.848	347.42974
861.028	309.09644
861.209	325.8621
861.39	364.49917
861.571	358.50301
861.751	401.65675
861.932	408.69419
862.113	357.46806
862.293	324.01861
862.474	393.08981
862.655	334.04025
862.835	331.74607
863.016	387.69351
863.197	325.02557
863.377	348.6626
863.558	229.91728
863.738	417.92516
863.919	330.46975
864.099	446.29228
864.28	330.7539
864.46	454.43984
864.641	300.39469
864.821	356.43272
865.002	328.5088
865.182	388.73554
865.363	366.79981
865.543	303.8129
865.723	319.62431
865.904	336.27224
866.084	322.99902
866.264	370.95813
866.445	367.20262
866.625	311.64146
866.805	402.90327
866.986	395.31731
867.166	330.51904
867.346	427.07835
867.526	296.04957
867.707	281.41516
867.887	407.27923
868.067	313.93337
868.247	362.86778
868.427	392.16568
868.607	371.11072
868.788	326.00771
868.968	340.00244
869.148	380.93495
869.328	383.30684
869.508	281.33081
869.688	312.80491
869.868	333.06144
870.048	321.90634
870.228	298.27294
870.408	250.22374
870.588	258.21238
870.768	332.89929
870.948	329.76123
871.128	374.38693
871.307	217.79419
871.487	331.79569
871.667	388.21703
871.847	234.41095
872.027	267.02553
872.207	333.22416
872.387	287.15283
872.566	330.82832
872.746	359.44402
872.926	296.16087
873.106	267.73202
873.285	276.96584
873.465	359.05382
873.645	324.16454
873.824	304.1214
874.004	229.96928
874.184	216.58343
874.363	272.45381
874.543	290.47333
874.723	213.23916
874.902	318.43572
875.082	235.7435
875.261	289.34487
875.441	401.12403
875.62	225.45761
875.8	274.96843
875.979	198.4918
876.159	269.23212
876.338	280.48745
876.518	291.51427
876.697	296.18316
876.876	288.41182
877.056	338.61813
877.235	371.09683
877.415	253.80156
877.594	290.4188
877.773	257.93005
877.953	245.54354
878.132	301.56784
878.311	266.82477
878.49	316.51169
878.67	282.73446
878.849	307.14024
879.028	274.0675
879.207	353.04655
879.387	313.95691
879.566	241.24241
879.745	261.49147
879.924	356.32626
880.103	242.2612
880.282	225.70506
880.461	235.60096
880.64	234.54365
880.819	275.87921
880.998	248.17324
881.178	252.41423
881.357	270.72901
881.536	318.60318
881.715	195.20582
881.893	247.0064
882.072	307.80081
882.251	313.83934
882.43	228.67776
882.609	218.96449
882.788	249.11404
882.967	296.08292
883.146	240.08685
883.325	179.61879
883.503	260.23501
883.682	218.70788
883.861	264.8283
884.04	243.31591
884.219	206.20551
884.397	245.8493
884.576	375.25006
884.755	262.44224
884.933	161.66825
885.112	242.39829
885.291	274.97881
885.469	283.63934
885.648	238.21843
885.827	223.2694
886.005	236.80966
886.184	248.09802
886.363	281.70125
886.541	204.27557
886.72	241.43421
886.898	557.94043
887.077	217.86032
887.255	265.86688
887.434	188.38326
887.612	217.82724
887.791	230.33566
887.969	224.52489
888.147	237.88435
888.326	247.17528
888.504	315.15647
888.682	233.59209
888.861	235.69889
889.039	246.81042
889.218	317.33092
889.396	268.26553
889.574	278.12529
889.752	252.33821
889.931	292.8516
890.109	161.59452
890.287	171.65596
890.465	227.98932
890.643	231.4479
890.822	215.23601
891	309.60566
891.178	321.64109
891.356	193.09665
891.534	185.19801
891.712	163.80685
891.89	257.03455
892.068	232.02452
892.247	232.29554
892.425	204.16742
892.603	242.33425
892.781	234.41095
892.959	197.53615
893.137	245.6544
893.314	210.82329
893.492	235.78817
893.67	255.98308
893.848	380.90657
894.026	321.78557
894.204	240.00545
894.382	298.58756
894.56	210.99851
894.738	194.1148
894.915	181.8895
895.093	277.24766
895.271	217.6377
895.449	288.40094
895.626	351.708
895.804	288.34659
895.982	346.48269
896.16	199.85343
896.337	206.53236
896.515	154.90454
896.693	244.85025
896.87	162.67305
897.048	213.20689
897.225	160.53987
897.403	260.40196
897.581	251.27647
897.758	331.02738
897.936	147.08674
898.113	236.97124
898.291	216.50163
898.468	279.22211
898.646	268.225
898.823	276.08712
899.001	190.86867
899.178	298.76842
899.356	168.37535
899.533	180.81598
899.71	175.15214
899.888	158.27121
900.065	241.28798
900.242	103.21106
900.42	180.71289
900.597	182.04906
900.774	231.04505
900.952	105.54781
901.129	147.10357
901.306	197.41664
901.483	189.73287
901.661	177.42954
901.838	161.7052
902.015	188.64737
902.192	155.99122
902.369	110.07213
902.546	144.76919
902.723	153.85844
902.901	159.45405
903.078	156.09815
903.255	163.91265
903.432	161.84743
903.609	125.5295
903.786	204.51652
903.963	113.2647
904.14	237.97431
904.317	103.16776
904.494	132.57203
904.671	147.1598
904.848	101.04039
905.024	99.84658
905.201	120.04305
905.378	70.58164
905.555	160.47885
905.732	112.16729
905.909	93.10781
906.086	190.80348
906.262	59.34815
906.439	126.74732
906.616	128.11939
906.793	140.44001
906.969	58.18226
907.146	130.12476
907.323	75.08686
907.5	41.33419
907.676	50.33129
907.853	140.42925
908.03	175.42011
908.206	84.14571
908.383	118.9471
908.559	145.84725
908.736	148.30023
908.912	96.48489
909.089	147.18233
909.266	219.78589
909.442	126.90211
909.619	90.87607
909.795	124.60173
909.972	116.74922
910.148	130.11487
910.324	96.46644
910.501	110.0679
910.677	43.59214
910.854	28.93448
911.03	138.12348
911.206	37.93844
911.383	172.94783
911.559	62.72995
911.735	175.19215
911.912	108.89704
912.088	107.77257
912.264	116.70017
912.44	185.03693
912.617	122.26596
912.793	152.70641
912.969	112.38673
913.145	59.29817
913.321	130.20902
913.498	158.35564
913.674	166.14425
913.85	68.3029
914.026	172.87545
914.202	100.94375
914.378	126.88754
914.554	118.98799
914.73	139.2788
914.906	147.15417
915.082	117.85515
915.258	113.51656
915.434	156.27755
915.61	100.9399
915.786	23.29117
915.962	139.22558
916.138	40.1953
916.314	69.56629
916.49	110.11449
916.665	91.95512
916.841	120.30571
917.017	-2.6301
917.193	88.68764
917.369	104.339
917.545	151.59525
917.72	70.59786
917.896	64.98872
918.072	103.2941
918.247	84.14248
918.423	95.36043
918.599	26.68807
918.775	88.64673
918.95	95.4373
919.126	130.29867
919.301	139.26281
919.477	140.34337
919.653	85.3104
919.828	97.60558
920.004	158.38588
920.179	143.5813
920.355	566.4657
920.53	121.18925
920.706	60.48314
920.881	15.40489
921.057	111.16288
921.232	121.18001
921.408	60.44835
921.583	43.6039
921.759	108.83041
921.934	50.34096
922.109	95.37504
922.285	89.76844
922.46	56.00524
922.635	74.04155
922.811	159.55151
922.986	35.71491
923.161	103.2545
923.336	63.85071
923.512	108.73102
923.687	97.64298
923.862	116.77604
924.037	104.339
924.212	107.75193
924.388	33.43989
924.563	96.58125
924.738	220.16045
924.913	74.0959
925.088	120.18539
925.263	40.16297
925.438	34.57307
925.613	142.62757
925.788	78.5608
925.963	94.35187
926.138	53.74585
926.313	99.88098
926.488	67.28928
926.663	207.77913
926.838	104.29522
927.013	78.49134
927.188	61.63268
927.363	69.55285
927.538	78.41634
927.713	70.62224
927.888	118.05908
928.062	105.56808
928.237	180.88495
928.412	55.94288
928.587	84.06839
928.761	117.91833
928.936	102.16528
929.111	81.83532
929.286	109.96255
929.46	95.452
929.635	49.22622
929.81	50.38754
929.984	15.41201
930.159	105.40666
930.334	8.64177
930.508	-1.50416
930.683	52.67837
930.857	67.34657
931.032	88.69106
931.206	-6.01317
931.381	37.94427
931.556	50.41095
931.73	162.97712
931.904	-8.27321
932.079	80.79124
932.253	86.37311
932.428	15.41023
932.602	81.93592
932.777	12.04497
932.951	58.27623
933.125	126.98979
933.3	186.34748
933.474	-9.39323
933.648	33.48123
933.823	116.79843
933.997	106.67671
934.171	67.28409
934.345	12.02819
934.52	8.65077
934.694	36.79955
934.868	-0.37602
935.042	-41.01625
935.217	26.69013
935.391	-65.88512
935.565	45.82928
935.739	-20.66987
935.913	116.81636
936.087	115.5546
936.261	-52.29702
936.435	-18.43634
936.609	48.10538
936.783	40.19993
936.957	74.02445
937.131	77.37209
937.305	111.18421
937.479	-10.53321
937.653	-30.83415
937.827	13.14546
938.001	-21.82388
938.175	45.85751
938.349	13.16881
938.523	22.18426
938.697	6.39306
938.87	52.63963
939.044	17.6763
939.218	-29.70664
939.392	113.32513
939.566	-35.39037
939.739	44.74973
939.913	-7.1474
940.087	-71.44784
940.261	26.71907
940.434	-34.22832
940.608	44.71866
940.782	32.34576
940.955	-3.75968
941.129	21.05015
941.302	85.32684
941.476	-116.74528
941.65	35.72318
941.823	-12.80926
941.997	18.78537
942.17	-1.50428
942.344	-36.54337
942.517	80.7726
942.691	-31.93943
942.864	-44.34885
943.038	-2.63274
943.211	15.40964
943.385	-13.90947
943.558	77.38695
943.731	227.76492
943.905	3.01113
944.078	89.78912
944.251	-27.43773
944.425	15.41796
944.598	22.16716
944.771	-44.41413
944.945	30.10892
945.118	-8.26397
945.291	-17.29988
945.464	15.41499
945.638	-48.92512
945.811	50.33322
945.984	50.37586
946.157	36.82358
946.33	15.42992
946.503	-60.19453
946.677	-60.18054
946.85	-9.40338
947.023	-25.18743
947.196	-6.01642
947.369	9.77933
947.542	-54.52489
947.715	60.48779
947.888	76.38224
948.061	3.00474
948.234	18.79333
948.407	31.22407
948.58	-53.43299
948.753	8.6431
948.926	10.90034
949.099	-63.63115
949.271	36.84346
949.444	6.38641
949.617	-62.51744
949.79	-69.22374
949.963	-52.30717
950.136	16.53049
950.308	18.7955
950.481	-31.95051
950.654	15.41856
950.827	5.26315
950.999	-50.04153
951.172	59.38011
951.345	49.2414
951.517	12.02356
951.69	-63.67837
951.863	14.27578
952.035	6.39158
952.208	-7.1474
952.381	0.75281
952.553	-61.32199
952.726	32.35202
952.898	-19.55411
953.071	35.74532
953.243	43.57873
953.416	-81.72309
953.588	77.41374
953.761	-6.02483
953.933	35.75365
954.106	-18.45212
954.278	33.43989
954.45	31.22407
954.623	0.7522
954.795	25.59357
954.967	-24.08059
955.14	-32.01628
955.312	0.75214
955.484	-6.01479
955.657	-71.4755
955.829	18.80131
956.001	-27.42085
956.173	5.26477
956.346	-33.12239
956.518	-38.75696
956.69	-55.67777
956.862	-77.14675
957.034	16.54068
957.207	4.14054
957.379	92.11065
957.551	13.16066
957.723	51.4591
957.895	-21.84342
958.067	-6.0141
958.239	-31.99633
958.411	-26.30154
958.583	81.88865
958.755	23.32264
958.927	-42.13288
959.099	39.11127
959.271	14.27414
959.443	-88.39543
959.615	-20.68424
959.787	44.70319
959.959	0.75243
960.13	-30.83653
960.302	5.26845
960.474	4.14038
960.646	-10.54058
960.818	30.05313
960.99	9.77366
961.161	-27.46639
961.333	51.47096
961.505	44.73073
961.677	77.41374
961.848	22.19972
962.02	-4.8907
962.192	-141.80086
962.363	-15.04221
962.535	93.1578
962.707	-9.40156
962.878	24.45922
963.05	8.65144
963.221	13.16779
963.393	17.67016
963.564	88.60935
963.736	52.65388
963.907	35.74671
964.079	26.67882
964.25	27.83132
964.422	78.51244
964.593	-83.93369
964.765	45.90543
964.936	64.98622
965.108	7.52169
965.279	65.03628
965.45	-19.55563
965.622	-65.86206
965.793	-11.66245
965.964	-50.02602
966.136	-74.93834
966.307	-107.74471
966.478	32.30091
966.65	15.43472
966.821	41.33578
966.992	7.51878
967.163	52.63354
967.334	36.87055
967.506	-21.82727
967.677	-18.42421
967.848	66.2063
968.019	-74.93542
968.19	-43.28411
968.361	-19.57232
968.532	42.51318
968.703	-4.88787
968.874	81.88237
969.045	4.13605
969.216	17.66811
969.387	-48.91752
969.558	15.41499
969.729	52.6011
969.9	-18.44637
970.071	28.95122
970.242	-17.29586
970.413	19.92438
970.584	36.82642
970.755	19.9344
970.926	39.09918
971.097	45.87876
971.267	24.42803
971.438	-38.76901
971.609	-7.14823
971.78	52.66204
971.951	-38.75997
972.121	51.50468
972.292	60.50875
972.463	96.62595
972.633	-17.29586
972.804	22.18083
972.975	-1.5044
973.145	-17.2972
973.316	34.59441
973.487	-20.67864
973.657	18.82027
973.828	-13.92835
973.998	-6.02553
974.169	57.18923
974.339	-45.54242
974.51	-16.16569
974.68	74.01875
974.851	-38.76148
975.021	-1.50358
975.192	33.47993
975.362	59.35499
975.533	-33.14433
975.703	17.66675
975.874	50.35839
976.044	-18.43634
976.214	-37.62447
976.385	31.18192
976.555	35.72456
976.725	24.47063
976.896	44.75319
977.066	-2.63376
977.236	-2.63223
977.406	61.69462
977.577	13.16269
977.747	143.69052
977.917	33.45019
978.087	50.36421
978.257	22.21007
978.427	98.83988
978.598	-7.1427
978.768	-4.88749
978.938	-0.37593
979.108	84.14248
979.278	13.14496
979.448	45.85221
979.618	-17.31599
979.788	18.78392
979.958	83.02673
980.128	22.20317
980.298	-36.48089
980.468	-42.12635
980.638	71.73956
980.808	31.23497
980.978	71.80031
981.148	39.0826
981.317	43.61737
981.487	-4.8907
981.657	-12.79231
981.827	66.17047
981.997	-13.9224
982.167	17.6859
982.336	-34.23893
982.506	0.75237
982.676	74.02445
982.846	112.24869
983.015	89.80294
983.185	1.88111
983.355	62.72754
983.524	60.52041
983.694	-67.00806
983.864	-10.53444
984.033	-4.89413
984.203	-26.33814
984.372	0.75299
984.542	-33.09927
984.712	14.30507
984.881	-17.30189
985.051	58.28073
985.22	3.00961
985.39	-3.76493
985.559	-7.13748
985.728	41.32942
985.898	27.77041
986.067	15.40193
986.237	26.66959
986.406	22.17228
986.576	7.51907
986.745	-0.37616
986.914	31.21199
987.084	-8.26906
987.253	1.8806
987.422	-16.16881
987.591	-4.89033
987.761	-17.31061
987.93	59.41449
988.099	126.86329
988.268	34.57307
988.438	99.95003
988.607	-20.7027
988.776	85.30711
988.945	12.03983
989.114	44.71866
989.283	-36.48937
989.452	-47.75443
989.621	51.4769
989.791	-9.39648
989.96	-45.54419
990.129	15.42393
990.298	13.17598
990.467	25.55007
990.636	-61.34579
990.805	17.67494
990.974	-21.80278
991.142	-2.63397
991.311	64.99621
991.48	104.30715
991.649	54.8681
991.818	-0.37598
991.987	-55.65838
992.156	-29.73776
992.325	34.60244
992.493	19.92977
992.662	765.40819
992.831	67.3283
993	58.21346
993.168	-18.42564
993.337	44.75492
993.506	15.42214
993.675	4.14183
993.843	-6.01502
994.012	-3.76303
994.181	90.82046
994.349	49.28139
994.518	-52.27879
994.686	-56.80968
994.855	55.93859
995.024	15.41201
995.192	48.10353
995.361	62.8244
995.529	-8.27738
995.698	-73.73263
995.866	-57.96197
996.035	62.80494
996.203	40.20457
996.371	57.0988
996.54	87.58894
996.708	131.34729
996.877	1.88002
997.045	-30.85326
997.213	10.91257
997.382	39.11732
997.55	63.85807
997.718	140.37553
997.887	19.9398
998.055	27.80128
998.223	1.88148
998.391	-4.88204
998.56	14.29341
998.728	40.22316
998.896	-44.41585
999.064	-19.56624
999.232	95.4888
999.401	156.08029
999.569	-43.2606
999.737	-88.502
999.905	12.02866
1000.073	49.22622
1000.241	40.25272
1000.409	-63.61877
1000.577	-1.50277
1000.745	53.73964
1000.913	72.93511
1001.081	40.18913
1001.249	7.52547
1001.417	83.0076
1001.585	-52.28487
1001.753	-0.37614
1001.921	-73.76124
1002.089	-15.0492
1002.256	28.94228
1002.424	14.29896
1002.592	22.20403
1002.76	83.04909
1002.928	12.03703
1003.096	-51.15344
1003.263	48.11837
1003.431	43.65456
1003.599	-90.79709
1003.767	-0.37595
1003.934	-2.63183
1004.102	-1.50568
1004.27	45.82752
1004.437	59.34587
1004.605	-45.54065
1004.773	115.55901
1004.94	15.41916
1005.108	-36.49503
1005.275	-65.84672
1005.443	-21.81205
1005.61	25.5432
1005.778	10.91469
1005.945	-81.71035
1006.113	-39.88968
1006.28	-74.85395
1006.448	-87.23491
1006.615	-2.63376
1006.783	-3.76449
1006.95	6.3901
1007.118	7.52285
1007.285	-67.03417
1007.452	24.43368
1007.62	3.00926
1007.787	4.13765
1007.954	-70.35648
1008.122	37.92099
1008.289	-25.21181
1008.456	-54.57776
1008.623	-18.43849
1008.791	-0.37606
1008.958	18.78609
1009.125	7.53074
1009.292	-37.60408
1009.459	51.46503
1009.627	-22.96743
1009.794	34.59575
1009.961	96.51817
1010.128	69.61481
1010.295	6.39504
1010.462	-13.92186
1010.629	-34.23097
1010.796	-16.16881
1010.963	-83.9729
1011.13	-8.27802
1011.297	-13.9197
1011.464	5.2664
1011.631	-8.27321
1011.798	58.25376
1011.965	6.3943
1012.132	1.87879
1012.299	40.21231
1012.466	84.1943
1012.633	-45.57258
1012.799	9.78312
1012.966	6.38961
1013.133	-50.05125
1013.3	-17.30524
1013.467	15.42513
1013.633	37.99556
1013.8	-3.76113
1013.967	22.19026
1014.134	95.50724
1014.3	12.0431
1014.467	-11.66426
1014.634	-20.68264
1014.8	16.57151
1014.967	26.69734
1015.134	-87.32626
1015.3	-1.50428
1015.467	36.83067
1015.633	-36.49503
1015.8	39.10976
1015.966	-44.44181
1016.133	-44.42968
1016.3	93.19362
1016.466	-61.35772
1016.632	14.29176
1016.799	-37.63323
1016.965	56.02037
1017.132	46.96797
1017.298	-20.67704
1017.465	36.85485
1017.631	72.79807
1017.797	0.75281
1017.964	15.41677
1018.13	54.847
1018.296	5.26416
1018.463	-25.22063
1018.629	-31.9715
1018.795	4.13477
1018.961	-44.3574
1019.128	-18.44781
1019.294	46.99694
1019.46	-15.05095
1019.626	30.09374
1019.792	-29.70894
1019.959	4.13573
1020.125	-64.73425
1020.291	-9.4012
1020.457	-20.70511
1020.623	34.5904
1020.789	23.31452
1020.955	-73.82446
1021.121	-53.48084
1021.287	26.68293
1021.453	15.4132
1021.619	-31.98514
1021.785	24.45258
1021.951	-20.69787
1022.117	-26.36275
1022.283	37.97792
1022.449	48.07765
1022.615	-6.02178
1022.781	62.70109
1022.946	79.66852
1023.112	-37.60263
1023.278	66.16536
1023.444	-55.69289
1023.61	-4.89565
1023.775	-30.85326
1023.941	-43.28748
1024.107	-72.67322
1024.273	-10.54592
1024.438	-59.11295
1024.604	31.20957
1024.77	334.78168
1024.935	-6.02015
1025.101	-39.94572
1025.267	63.88508
1025.432	-13.91108
1025.598	-55.70587
1025.763	-10.52142
1025.929	-2.63427
1026.095	42.48687
1026.26	84.25938
1026.426	-33.1121
1026.591	34.57307
1026.757	42.48195
1026.922	-18.42635
1027.087	-7.14325
1027.253	-107.70686
1027.418	-25.21867
1027.584	88.59918
1027.749	-77.2824
1027.914	21.06725
1028.08	-26.35145
1028.245	-36.49644
1028.41	-36.51346
1028.576	-39.88658
1028.741	-6.01642
1028.906	14.28348
1029.072	-57.97099
1029.237	-13.91916
1029.402	-8.27931
1029.567	114.50119
1029.732	-10.53158
1029.898	6.40126
1030.063	67.30487
1030.228	-28.5957
1030.393	58.21793
1030.558	-27.46746
1030.723	-50.09414
1030.888	36.83351
1031.053	-16.19457
1031.218	-60.23195
1031.383	39.09013
1031.548	56.01605
1031.713	-67.08661
1031.878	-13.9316
1032.043	-77.15874
1032.208	27.80235
1032.373	-1.50615
1032.538	54.86599
1032.703	50.35257
1032.868	5.26294
1033.033	-61.33627
1033.198	-89.69315
1033.362	-1.50644
1033.527	-16.17569
1033.692	63.93936
1033.857	12.04263
1034.021	9.77857
1034.186	-31.96038
1034.351	-34.24291
1034.516	-35.35193
1034.68	51.53656
1034.845	6.40026
1035.01	-31.99135
1035.174	-0.37622
1035.339	-30.84369
1035.504	-35.37661
1035.668	86.42288
1035.833	-50.08632
1035.997	-24.07592
1036.162	33.49683
1036.326	-61.33627
1036.491	-61.41519
1036.655	54.86388
1036.82	57.10538
1036.984	49.20164
1037.149	30.06238
1037.313	6.39827
1037.478	42.48195
1037.642	17.67699
1037.807	-106.63328
1037.971	24.43934
1038.135	63.82869
1038.3	-37.67726
1038.464	45.86105
1038.628	-30.84489
1038.792	82.98532
1038.957	-12.7948
1039.121	36.82217
1039.285	-7.14934
1039.449	28.97027
1039.614	-24.08339
1039.778	-73.90837
1039.942	68.36308
1040.106	-40.97342
1040.27	-48.93273
1040.434	-9.40156
1040.599	5.26926
1040.763	-66.97682
1040.927	-31.97274
1041.091	-42.14595
1041.255	16.56764
1041.419	-21.80194
1041.583	-39.86033
1041.747	10.91215
1041.911	30.06933
1042.075	40.26365
1042.239	-79.52562
1042.403	22.19112
1042.567	56.01605
1042.731	96.53299
1042.894	14.30451
1043.058	-8.27706
1043.222	-7.15156
1043.386	15.40252
1043.55	-8.2864
1043.714	-29.72852
1043.877	18.80567
1044.041	-24.07406
1044.205	-31.99135
1044.369	-4.88579
1044.532	21.07297
1044.696	9.78084
1044.86	-26.37511
1045.023	28.93559
1045.187	31.20355
1045.351	3.00972
1045.514	-78.29855
1045.678	68.38937
1045.841	-15.04512
