Data from 1003 pointing at moon_Subt2__9__22-09-26-080.txt Node

Date: Tue Oct 07 22:09:26 EDT 2025
User: brett
Spectrometer: USB4F03499
Trigger mode: 4
Integration Time (sec): 1.000000E-1
Scans to average: 1
Electric dark correction enabled: true
Nonlinearity correction enabled: true
Boxcar width: 0
XAxis mode: Wavelengths
Number of Pixels in Spectrum: 3648
>>>>>Begin Spectral Data<<<<<
345.386	-125.3311
345.605	-125.3311
345.824	-125.3311
346.044	-98.10324
346.263	-55.19488
346.482	38.52695
346.701	0.18801
346.92	-42.71276
347.139	-24.6492
347.358	66.73936
347.577	55.38482
347.796	5.82794
348.015	-13.36625
348.234	-3.19671
348.453	-42.73936
348.672	13.72252
348.891	-54.02139
349.11	-11.09638
349.329	17.10187
349.548	-0.94054
349.767	8.08798
349.986	-4.3242
350.205	-0.94046
350.424	-63.076
350.643	-23.53167
350.862	-16.74803
351.08	65.58985
351.299	8.08173
351.518	-32.52365
351.737	44.18125
351.956	-24.63392
352.174	-19.00471
352.393	-28.01819
352.612	-28.02145
352.831	-0.93974
353.049	14.85931
353.268	-7.7109
353.487	-32.52994
353.705	-17.87885
353.924	5.82974
354.143	21.61726
354.361	-12.22649
354.58	9.21743
354.798	-37.0485
355.017	19.36528
355.236	-14.48537
355.454	-15.62229
355.673	-23.5335
355.891	61.11003
356.11	15.98322
356.328	14.85988
356.547	-26.8915
356.765	13.72146
356.984	13.72624
357.202	-23.5335
357.42	0.18817
357.639	-43.83407
357.857	62.22739
358.076	-21.25281
358.294	-7.71149
358.512	0.18813
358.731	21.61226
358.949	-42.69785
359.167	2.44487
359.386	-37.03704
359.604	-21.26022
359.822	12.59635
360.04	32.90728
360.259	-26.89775
360.477	17.11774
360.695	-20.11772
360.913	50.93765
361.131	20.48269
361.35	-11.08653
361.568	3.57293
361.786	3.57431
362.004	58.79017
362.222	35.1665
362.44	38.5329
362.658	9.2228
362.876	-2.06866
363.094	-12.22365
363.312	73.513
363.53	5.82749
363.749	-23.5216
363.967	10.33869
364.184	5.82434
364.402	32.91237
364.62	-11.09038
364.838	53.17884
365.056	-2.07115
365.274	39.66605
365.492	-91.26051
365.71	-0.94032
365.928	73.4733
366.146	-37.0643
366.364	-29.16056
366.581	22.7614
366.799	39.67832
367.017	-3.19609
367.235	-11.09982
367.453	0.18794
367.67	32.89203
367.888	-19.00324
368.106	17.11112
368.323	118.39517
368.541	-23.50883
368.759	-15.61258
368.977	32.92386
369.194	28.38112
369.412	13.72836
369.629	-11.08653
369.847	76.83354
370.065	50.96916
370.282	11.47342
370.5	27.24971
370.717	-11.09081
370.935	46.41224
371.152	-26.90192
371.37	56.58634
371.588	12.59586
371.805	84.85954
372.022	13.72464
372.24	10.33989
372.457	-6.57955
372.675	6.9574
372.892	32.93409
373.11	1.31558
373.327	-48.3642
373.544	-64.16451
373.762	-3.19832
373.979	32.88695
374.196	4.69859
374.414	30.66146
374.631	38.48995
374.848	40.82005
375.066	39.66605
375.283	54.27812
375.5	14.85069
375.717	37.43042
375.935	-11.09896
376.152	48.71222
376.369	32.87936
376.586	9.22208
376.803	62.21778
377.02	100.55982
377.238	27.26655
377.455	52.10268
377.672	61.06289
377.889	-31.4267
378.106	26.13879
378.323	-3.19485
378.54	6.95633
378.757	49.80123
378.974	37.41305
379.191	56.5776
379.408	49.80891
379.625	35.1353
379.842	19.36379
380.059	4.70277
380.276	-11.09681
380.493	44.19834
380.71	-9.96043
380.927	49.7725
381.143	-4.32054
381.36	49.83201
381.577	50.93961
381.794	34.03092
382.011	62.19859
382.228	88.11179
382.444	36.23826
382.661	23.87758
382.878	-6.58031
383.095	-16.74998
383.311	13.71512
383.528	75.71076
383.745	20.50089
383.962	94.97045
384.178	0.18797
384.395	-0.94021
384.612	23.87205
384.828	66.67513
385.045	36.28151
385.261	84.69591
385.478	14.85758
385.695	65.62024
385.911	-16.73634
386.128	-6.57701
386.344	38.56571
386.561	-32.54758
386.777	39.64312
386.994	39.66605
387.21	61.06524
387.427	44.1915
387.643	15.99438
387.86	108.45221
388.076	74.5021
388.292	40.78062
388.509	91.45309
388.725	4.70149
388.942	-2.0673
389.158	58.78791
389.374	-9.95851
389.591	61.06054
389.807	57.69983
390.023	72.36396
390.239	73.47896
390.456	48.6915
390.672	67.82419
390.888	17.10253
391.104	79.03928
391.321	105.05879
391.537	6.95875
391.753	79.0514
391.969	80.17034
392.185	49.76104
392.401	38.51953
392.618	89.15179
392.834	58.79243
393.05	75.71367
393.266	85.81446
393.482	89.30961
393.698	67.86342
393.914	100.4439
394.13	-0.93833
394.346	81.34213
394.562	97.09237
394.778	44.1659
394.994	72.40312
395.21	84.75783
395.426	56.60165
395.642	85.89702
395.858	24.99071
396.073	125.33243
396.289	50.89649
396.505	112.885
396.721	36.26054
396.937	56.52321
397.153	99.33074
397.369	68.9263
397.584	91.47767
397.8	77.98319
398.016	129.68288
398.232	120.7762
398.447	166.91006
398.663	65.53942
398.879	117.51969
399.094	146.543
399.31	126.44283
399.526	90.33502
399.741	65.5369
399.957	142.11575
400.173	82.51853
400.388	127.43563
400.604	129.8272
400.82	83.56753
401.035	140.90043
401.251	147.53118
401.466	57.66874
401.682	86.92947
401.897	70.03838
402.113	125.09274
402.328	54.27187
402.544	103.79354
402.759	94.76255
402.974	134.06442
403.19	156.577
403.405	151.10405
403.621	149.82627
403.836	179.26409
404.051	110.48721
404.267	138.65957
404.482	140.85211
404.697	140.9058
404.913	129.65316
405.128	201.84413
405.343	167.92418
405.559	149.82057
405.774	153.15217
405.989	146.50388
406.204	199.1281
406.42	183.60802
406.635	169.99458
406.85	193.59237
407.065	161.09588
407.28	130.7615
407.495	167.83463
407.71	161.17571
407.926	149.75234
408.141	206.11422
408.356	256.66127
408.571	247.56787
408.786	209.41451
409.001	228.19708
409.216	163.54616
409.431	207.17256
409.646	236.34974
409.861	179.14091
410.076	193.69526
410.291	173.34531
410.506	194.7353
410.721	202.58053
410.936	183.55915
411.15	209.43838
411.365	207.93192
411.58	285.86642
411.795	229.70663
412.01	252.03725
412.225	199.20344
412.439	249.40291
412.654	214.9453
412.869	258.51996
413.084	231.66717
413.299	221.5578
413.513	246.50411
413.728	212.5839
413.943	243.98683
414.157	342.8875
414.372	228.36927
414.587	248.52787
414.801	246.12274
415.016	255.01134
415.231	230.72224
415.445	230.72224
415.66	199.3017
415.874	277.58899
416.089	239.7009
416.304	241.79444
416.518	299.10343
416.733	221.59126
416.947	248.58418
417.162	285.21026
417.376	281.12251
417.59	229.28152
417.805	249.5247
418.019	251.97052
418.234	231.57117
418.448	257.53742
418.663	257.44033
418.877	283.45576
419.091	333.7471
419.306	340.58875
419.52	295.32666
419.734	315.77629
419.949	342.4115
420.163	232.64631
420.377	255.4249
420.591	311.00363
420.806	309.89885
421.02	272.02957
421.234	267.50588
421.448	312.08496
421.663	271.98862
421.877	269.57014
422.091	295.40408
422.305	281.99681
422.519	275.3427
422.733	266.26757
422.947	267.54616
423.161	362.78664
423.376	387.38464
423.59	340.8134
423.804	380.45098
424.018	321.44656
424.232	334.22635
424.446	366.63431
424.66	349.40608
424.874	345.05687
425.088	328.98282
425.302	357.49633
425.515	294.45283
425.729	401.77348
425.943	296.42121
426.157	320.06472
426.371	400.689
426.585	363.41375
426.799	370.43059
427.013	319.99286
427.226	380.38005
427.44	348.27656
427.654	348.92297
427.868	382.46668
428.081	336.75678
428.295	376.14635
428.509	277.23577
428.723	273.07589
428.936	331.21494
429.15	358.40344
429.364	337.68357
429.577	310.108
429.791	395.20467
430.005	358.13489
430.218	321.16914
430.432	336.53094
430.645	322.22522
430.859	286.2843
431.073	330.02488
431.286	320.92932
431.5	313.36522
431.713	393.67839
431.927	360.3254
432.14	361.6436
432.354	344.28363
432.567	311.07345
432.781	353.46136
432.994	354.61601
433.207	375.64203
433.421	341.07933
433.634	358.40344
433.848	401.78848
434.061	431.79898
434.274	404.7399
434.488	366.948
434.701	429.44489
434.914	387.13868
435.127	390.30762
435.341	335.61599
435.554	308.77086
435.767	372.2449
435.98	363.18462
436.194	358.98248
436.407	357.94777
436.62	368.02168
436.833	400.31624
437.046	366.64791
437.259	439.57399
437.473	459.78691
437.686	401.35528
437.899	469.27771
438.112	401.39993
438.325	384.60901
438.538	374.40317
438.751	411.11469
438.964	538.64803
439.177	402.61791
439.39	407.88321
439.603	464.0648
439.816	433.67146
440.029	427.108
440.242	484.65072
440.455	445.0718
440.668	482.35957
440.881	369.81164
441.094	439.52504
441.306	469.24313
441.519	493.54868
441.732	554.59392
441.945	501.87026
442.158	502.55539
442.37	425.83756
442.583	461.80641
442.796	442.24208
443.009	518.20321
443.222	494.20361
443.434	507.57347
443.647	541.59383
443.86	592.58469
444.072	514.21903
444.285	573.6941
444.498	591.78005
444.71	541.29669
444.923	553.26429
445.136	487.15741
445.348	504.96046
445.561	531.7488
445.773	523.90417
445.986	486.78165
446.198	510.49189
446.411	529.31589
446.623	610.76272
446.836	446.62074
447.048	511.37653
447.261	593.69186
447.473	539.97163
447.686	592.34736
447.898	586.96263
448.11	559.70531
448.323	832.83381
448.535	622.91886
448.748	582.72485
448.96	567.7204
449.172	574.71791
449.385	601.79235
449.597	578.81068
449.809	532.66276
450.021	634.69985
450.234	629.95596
450.446	646.11442
450.658	657.16764
450.87	537.02016
451.083	645.16744
451.295	634.69985
451.507	567.88567
451.719	546.57886
451.931	597.46893
452.143	622.17145
452.356	576.17931
452.568	535.442
452.78	717.05379
452.992	586.5359
453.204	653.0924
453.416	624.58659
453.628	666.86314
453.84	629.05574
454.052	595.5593
454.264	692.40504
454.476	597.44732
454.688	657.11984
454.9	636.22037
455.112	651.52024
455.324	600.05025
455.536	638.27256
455.747	571.73394
455.959	688.88155
456.171	715.94342
456.383	541.51448
456.595	650.50918
456.807	676.30526
457.018	608.74601
457.23	627.65396
457.442	632.37319
457.654	617.16819
457.865	642.80145
458.077	697.54817
458.289	621.24602
458.501	655.65714
458.712	652.43634
458.924	592.39045
459.136	663.68051
459.347	573.86185
459.559	664.32843
459.77	681.99615
459.982	701.96214
460.194	738.32852
460.405	643.0333
460.617	688.39599
460.828	682.95237
461.04	633.62307
461.251	732.03064
461.463	857.64338
461.674	706.60476
461.886	724.20555
462.097	695.01562
462.309	760.28309
462.52	673.26075
462.731	707.97172
462.943	625.32988
463.154	650.69525
463.366	752.62674
463.577	718.63861
463.788	686.0165
464	722.60913
464.211	678.57028
464.422	716.78911
464.634	745.45615
464.845	765.78933
465.056	764.03407
465.267	737.27926
465.478	699.52855
465.69	754.74893
465.901	755.1497
466.112	732.73829
466.323	710.22713
466.534	780.12916
466.745	797.02774
466.957	821.78469
467.168	759.68652
467.379	807.00528
467.59	749.16061
467.801	762.82527
468.012	804.8927
468.223	808.41958
468.434	782.47028
468.645	820.01728
468.856	850.87848
469.067	813.97389
469.278	839.99012
469.489	782.65115
469.7	760.20153
469.911	738.75335
470.122	814.58252
470.333	842.96169
470.543	727.09615
470.754	816.4625
470.965	856.20621
471.176	807.87561
471.387	917.8939
471.598	852.45735
471.808	785.24056
472.019	854.98637
472.23	924.63719
472.441	883.75163
472.651	908.22226
472.862	923.27302
473.073	868.64883
473.283	956.98563
473.494	906.38055
473.705	926.79787
473.915	952.44805
474.126	1021.63915
474.337	994.13129
474.547	914.02329
474.758	956.11607
474.968	952.07112
475.179	962.15768
475.389	1008.17357
475.6	1037.71623
475.81	1042.48327
476.021	1015.79047
476.231	973.48431
476.442	988.59224
476.652	1040.80665
476.863	997.39634
477.073	1007.71317
477.284	1001.97506
477.494	1005.84682
477.704	1116.3601
477.915	1058.20957
478.125	1011.3829
478.335	1150.0769
478.546	1122.70132
478.756	1038.52041
478.966	1070.62179
479.177	1162.71305
479.387	1190.89821
479.597	1123.09339
479.807	1120.67522
480.018	1115.27001
480.228	1218.59903
480.438	1158.56996
480.648	1158.15679
480.858	1262.96526
481.068	1185.69284
481.279	1257.75063
481.489	1259.94226
481.699	1234.2332
481.909	1154.65104
482.119	1319.52123
482.329	1298.72553
482.539	1343.16028
482.749	1254.74875
482.959	1234.06498
483.169	1358.9942
483.379	1388.14651
483.589	1406.02364
483.799	1317.53147
484.009	1306.27166
484.219	1352.7794
484.429	1362.56034
484.639	1360.27178
484.849	1397.79202
485.059	1391.16017
485.268	1466.59513
485.478	1350.91991
485.688	1366.66151
485.898	1470.36598
486.108	1389.08911
486.317	1545.01815
486.527	1460.29786
486.737	1445.39103
486.947	1491.16955
487.156	1434.59075
487.366	1521.48662
487.576	1419.14015
487.785	1455.01243
487.995	1489.39527
488.205	1398.88168
488.414	1433.60567
488.624	1462.79817
488.834	1498.62638
489.043	1471.34085
489.253	1439.81978
489.462	1458.83042
489.672	1582.29026
489.882	1563.99636
490.091	1509.20038
490.301	1493.66535
490.51	1543.42165
490.72	1584.82294
490.929	1558.71493
491.138	1582.2942
491.348	1578.15355
491.557	1474.88648
491.767	1604.54307
491.976	1673.63001
492.185	1535.25462
492.395	1590.44948
492.604	1678.07474
492.813	1621.03529
493.023	1577.48074
493.232	1535.84365
493.441	1590.15481
493.651	1635.0307
493.86	1559.22598
494.069	1565.99642
494.278	1623.16503
494.488	1677.42159
494.697	1625.42062
494.906	1651.96544
495.115	1587.11676
495.324	1552.31561
495.533	1652.98409
495.743	1668.18164
495.952	1705.3871
496.161	1683.42856
496.37	1702.66326
496.579	1741.8574
496.788	1761.84035
496.997	1744.00998
497.206	1784.56734
497.415	1766.56675
497.624	1790.80419
497.833	1766.05697
498.042	1749.75608
498.251	1750.21492
498.46	1852.43322
498.669	1763.74874
498.878	1825.69366
499.087	1784.26521
499.296	1785.63886
499.504	1801.15818
499.713	1795.91668
499.922	1790.15493
500.131	1812.44451
500.34	1870.43738
500.549	1809.67004
500.757	1873.12722
500.966	1883.02042
501.175	1876.08595
501.384	1839.38585
501.592	1851.61453
501.801	1841.86023
502.01	1854.99824
502.218	1943.01698
502.427	1849.183
502.636	1919.51829
502.844	1781.16653
503.053	1818.17059
503.262	1832.30842
503.47	1778.45593
503.679	1868.59644
503.887	1801.28013
504.096	1899.34839
504.304	1883.98035
504.513	1854.23406
504.721	1936.90272
504.93	1885.21576
505.138	1864.14631
505.347	1917.07064
505.555	1854.41016
505.764	1808.68353
505.972	1821.23631
506.18	1866.8181
506.389	1902.87386
506.597	1882.373
506.806	1879.58486
507.014	1903.31995
507.222	1862.77674
507.431	1823.20412
507.639	1823.51919
507.847	1835.2068
508.055	1941.12778
508.264	1958.42955
508.472	2030.28343
508.68	1939.40483
508.888	1869.07178
509.096	1865.03283
509.305	1917.13167
509.513	1831.82191
509.721	1876.13681
509.929	1890.55514
510.137	1920.86611
510.345	1863.25056
510.553	1909.84799
510.762	1942.66848
510.97	1883.68092
511.178	1944.65908
511.386	1903.66671
511.594	1977.34746
511.802	1948.58057
512.01	1876.96778
512.218	1902.65906
512.426	1925.4986
512.634	2018.00813
512.842	1976.8223
513.049	2014.88439
513.257	1947.35566
513.465	1996.57023
513.673	1963.64004
513.881	1925.28193
514.089	1943.61307
514.297	1989.23356
514.504	1968.15454
514.712	1980.96228
514.92	1902.29942
515.128	2000.14927
515.336	2047.89219
515.543	1970.19662
515.751	2052.25655
515.959	2029.20403
516.166	1987.16376
516.374	2056.88764
516.582	2089.19985
516.789	2003.78222
516.997	1990.80043
517.205	2041.63127
517.412	1966.3454
517.62	2092.78047
517.827	2136.43516
518.035	2100.87868
518.243	1997.13439
518.45	2029.74135
518.658	2002.71618
518.865	1975.38482
519.073	1951.02214
519.28	2091.304
519.488	2042.1019
519.695	2006.78769
519.902	2017.13224
520.11	1940.04345
520.317	1975.69427
520.525	1988.79265
520.732	1902.37229
520.939	1970.90218
521.147	1917.74668
521.354	1917.04299
521.561	2068.25115
521.769	2026.02382
521.976	1903.71627
522.183	1979.44385
522.391	1942.42305
522.598	2030.91769
522.805	1976.43871
523.012	2003.71675
523.219	1983.77822
523.427	1980.70408
523.634	1943.51664
523.841	1981.01553
524.048	1984.14871
524.255	2028.78742
524.462	2006.28747
524.669	1977.96414
524.877	1957.9979
525.084	2022.64934
525.291	2040.99422
525.498	2083.55815
525.705	1994.24967
525.912	2073.56584
526.119	2114.11412
526.326	2057.89673
526.533	2044.88965
526.74	2066.38376
526.947	2054.68392
527.153	2095.97134
527.36	2081.7922
527.567	2083.59573
527.774	2086.39805
527.981	2033.71935
528.188	2053.23877
528.395	2091.91196
528.602	2058.96086
528.808	2094.32255
529.015	2168.82583
529.222	2081.75414
529.429	2064.6403
529.635	2050.38324
529.842	2118.1845
530.049	2081.27304
530.256	2021.51142
530.462	2097.60226
530.669	2130.92376
530.876	2280.42858
531.082	2092.45544
531.289	2179.57956
531.495	2080.65707
531.702	2148.38929
531.909	2040.93062
532.115	2159.4124
532.322	2197.03216
532.528	2202.83827
532.735	2117.84173
532.941	2142.14878
533.148	2060.05178
533.354	2142.74714
533.561	2161.93121
533.767	2138.35918
533.974	2035.92491
534.18	2138.56039
534.387	2126.00516
534.593	2099.24904
534.799	2104.36903
535.006	1997.91941
535.212	2110.07446
535.418	2119.82426
535.625	2104.52865
535.831	2183.31793
536.037	2149.31788
536.244	2189.14861
536.45	2057.57698
536.656	2142.61182
536.862	2160.00403
537.068	2107.10228
537.275	2218.90427
537.481	2218.8363
537.687	2101.70046
537.893	2095.64592
538.099	2099.31401
538.305	2109.94396
538.512	2202.13499
538.718	2229.20677
538.924	2140.88425
539.13	2222.94215
539.336	2132.11259
539.542	2215.40966
539.748	2177.65765
539.954	2178.97697
540.16	2227.14676
540.366	2169.35825
540.572	2161.20289
540.778	2095.51588
540.984	2075.53296
541.19	2102.6985
541.396	2101.85363
541.602	2104.8247
541.807	2154.49637
542.013	2098.51082
542.219	2148.4555
542.425	2181.36721
542.631	2096.70936
542.837	2118.10403
543.042	2115.75385
543.248	2138.70726
543.454	2150.57979
543.66	2155.36304
543.865	2135.17023
544.071	2074.56534
544.277	2051.98369
544.483	2121.96176
544.688	2079.75749
544.894	2123.61585
545.1	2045.28663
545.305	2128.58966
545.511	2144.4055
545.716	2120.30957
545.922	2137.36554
546.128	2134.50811
546.333	2142.81029
546.539	2107.99648
546.744	2130.79193
546.95	2063.92359
547.155	2214.28066
547.361	2097.21396
547.566	2124.00424
547.772	2065.2454
547.977	2125.70277
548.182	2141.69534
548.388	2149.32381
548.593	2171.22083
548.799	2015.49897
549.004	2080.30273
549.209	2070.56699
549.415	2155.02773
549.62	2157.88283
549.825	2174.95578
550.031	2136.56743
550.236	2091.35371
550.441	2142.0827
550.646	2131.86433
550.852	2162.93415
551.057	2183.23406
551.262	2115.49537
551.467	2162.78988
551.672	2072.08547
551.878	2064.83231
552.083	2055.12984
552.288	2081.01389
552.493	2074.24267
552.698	2208.29745
552.903	2176.40694
553.108	2130.85783
553.313	2270.8222
553.518	2093.23627
553.723	2180.30592
553.928	2123.10439
554.133	2111.26799
554.338	2153.69914
554.543	2198.09337
554.748	2150.05002
554.953	2187.74961
555.158	2083.23514
555.363	2194.43747
555.568	2249.14017
555.773	2200.48646
555.978	2205.88695
556.182	2100.92056
556.387	2188.42475
556.592	2178.57608
556.797	2151.77537
557.002	2146.79535
557.206	2266.88089
557.411	2182.64349
557.616	2183.16683
557.821	2057.81138
558.025	2207.28361
558.23	2176.78036
558.435	2115.01666
558.64	2166.04553
558.844	2224.41114
559.049	2192.31521
559.253	2124.07042
559.458	2132.61286
559.663	2249.61283
559.867	2137.43165
560.072	2198.8167
560.276	2047.70052
560.481	2160.07023
560.685	2128.27185
560.89	2143.211
561.094	2125.37654
561.299	2143.81855
561.503	2137.9739
561.708	2173.53705
561.912	2189.94015
562.117	2099.01604
562.321	2196.61084
562.525	2212.29478
562.73	2092.87
562.934	2075.5002
563.139	2103.91425
563.343	2162.27392
563.547	2166.70686
563.752	2202.06737
563.956	2155.09867
564.16	2153.90025
564.364	2168.91811
564.569	2166.7037
564.773	2086.10244
564.977	2118.76105
565.181	2165.38454
565.385	2128.80886
565.59	2152.97111
565.794	2106.47516
565.998	2089.13019
566.202	2126.87038
566.406	2193.73346
566.61	2168.97262
566.814	2163.3272
567.018	2167.77645
567.222	2078.85224
567.426	2094.41346
567.63	2044.37911
567.834	2059.30892
568.038	2060.00241
568.242	2144.27916
568.446	2058.51316
568.65	2137.76771
568.854	2089.74487
569.058	2179.00227
569.262	2125.4699
569.466	2101.76557
569.67	2120.0218
569.874	2088.20111
570.078	2147.069
570.281	2095.02382
570.485	2083.58925
570.689	2139.299
570.893	2128.33759
571.097	2041.60047
571.3	2141.6818
571.504	2157.94952
571.708	2116.99128
571.912	2175.06594
572.115	2049.8098
572.319	2075.69398
572.523	2079.20973
572.726	2177.40163
572.93	2141.74736
573.133	2100.72599
573.337	2093.80361
573.541	2128.65938
573.744	2089.68013
573.948	2014.44117
574.151	2078.88601
574.355	2069.05152
574.558	2118.85505
574.762	2102.1388
574.965	2083.27132
575.169	2122.3557
575.372	2138.02751
575.576	2106.82041
575.779	2035.62369
575.983	2011.67845
576.186	2002.90308
576.389	2000.33251
576.593	2013.49092
576.796	2070.53609
577	2039.29458
577.203	2090.80821
577.406	2075.73066
577.609	2053.3845
577.813	2066.15244
578.016	2082.14258
578.219	2039.42144
578.423	2051.83078
578.626	2134.24377
578.829	2106.32817
579.032	1962.20285
579.235	2062.4385
579.438	2076.11244
579.642	2018.50107
579.845	2016.18633
580.048	2088.81098
580.251	2002.40064
580.454	2061.82526
580.657	2129.65636
580.86	2105.19895
581.063	2033.64829
581.266	2091.78183
581.469	2021.33065
581.672	2065.05223
581.875	2118.88039
582.078	2057.69468
582.281	1944.9177
582.484	2056.12999
582.687	2173.00398
582.89	2024.78014
583.093	2036.30657
583.296	2087.13746
583.499	2034.62221
583.702	1993.43512
583.904	1978.35119
584.107	2062.83273
584.31	2092.17242
584.513	2001.52427
584.716	2004.53149
584.918	2060.40957
585.121	2024.33657
585.324	2035.49624
585.527	2024.45375
585.729	2031.6653
585.932	2123.28712
586.135	1917.242
586.337	2106.67128
586.54	2032.47647
586.743	2122.28019
586.945	2081.33787
587.148	2001.14751
587.35	2069.83023
587.553	2116.37172
587.755	1954.79764
587.958	1928.67635
588.161	2046.6586
588.363	2062.18086
588.566	2069.43821
588.768	1981.07787
588.971	2016.69033
589.173	1994.00104
589.375	2026.3537
589.578	2013.43135
589.78	2012.30305
589.983	1987.22619
590.185	2074.70665
590.387	1986.1051
590.59	1987.0361
590.792	1881.1219
590.994	1988.98054
591.197	1822.4207
591.399	1961.80227
591.601	1892.15454
591.803	1815.8577
592.006	1853.45877
592.208	1979.62877
592.41	1817.7376
592.612	1844.43919
592.815	1766.90123
593.017	1817.01547
593.219	1786.29266
593.421	1859.33335
593.623	1856.53917
593.825	1896.2996
594.027	1812.84991
594.229	1834.82825
594.432	1844.70655
594.634	1900.49424
594.836	1736.71994
595.038	1822.33368
595.24	1835.51693
595.442	1748.18412
595.644	1794.41792
595.846	1785.46665
596.048	1737.34482
596.249	1793.92196
596.451	1757.26063
596.653	1779.89757
596.855	1760.81297
597.057	1795.6037
597.259	1829.23915
597.461	1783.47964
597.663	1766.91725
597.864	1807.52776
598.066	1768.09274
598.268	1696.4174
598.47	1670.7721
598.671	1620.91006
598.873	1733.05589
599.075	1743.16179
599.277	1767.29813
599.478	1752.80596
599.68	1867.7056
599.882	1781.45169
600.083	1771.52202
600.285	1795.6037
600.487	1732.3878
600.688	1749.81579
600.89	1798.34949
601.091	1813.17471
601.293	1802.92608
601.494	1823.51826
601.696	1686.85201
601.898	1796.67455
602.099	1774.40873
602.301	1828.80902
602.502	1813.7213
602.703	1841.97776
602.905	1770.12238
603.106	1870.38011
603.308	1734.99213
603.509	1753.8776
603.711	1755.22992
603.912	1758.44754
604.113	1868.41822
604.315	1814.81681
604.516	1833.12553
604.717	1789.69463
604.919	1853.56723
605.12	1825.57709
605.321	1779.99475
605.522	1794.99309
605.724	1752.58157
605.925	1800.00219
606.126	1876.38561
606.327	1879.12582
606.528	1817.1316
606.729	1884.52036
606.931	1891.7027
607.132	1852.07799
607.333	1839.79455
607.534	1870.7982
607.735	1861.5271
607.936	1910.35467
608.137	1815.48148
608.338	1838.72519
608.539	1928.57805
608.74	1808.51965
608.941	1865.27395
609.142	1866.1615
609.343	1858.50042
609.544	1767.75182
609.745	1872.161
609.946	1868.7748
610.147	1867.82453
610.348	1822.33368
610.549	1881.31275
610.75	1880.64834
610.95	1812.734
611.151	1843.23672
611.352	1862.89368
611.553	1843.13699
611.754	1836.14516
611.954	1860.46139
612.155	1860.04271
612.356	1872.21872
612.557	1799.33504
612.757	1822.36669
612.958	1829.97403
613.159	1913.10097
613.359	1838.47482
613.56	1851.0048
613.761	1914.54297
613.961	1894.24718
614.162	1805.81863
614.362	1775.58401
614.563	1841.49624
614.764	1860.04838
614.964	1773.7935
615.165	1819.62139
615.365	1696.4174
615.566	1890.10681
615.766	1844.24747
615.967	1822.75555
616.167	1815.68458
616.368	1754.7215
616.568	1829.95753
616.768	1847.69019
616.969	1767.69505
617.169	1793.95893
617.37	1708.33067
617.57	1848.68605
617.77	1752.29628
617.971	1874.0169
618.171	1813.66309
618.371	1793.69181
618.571	1848.33059
618.772	1831.57067
618.972	1819.19215
619.172	1784.93692
619.372	1722.96053
619.573	1797.19292
619.773	1812.38665
619.973	1810.39226
620.173	1838.45394
620.373	1733.00013
620.573	1745.24229
620.774	1893.79751
620.974	1755.28619
621.174	1823.92537
621.374	1893.94698
621.574	1705.82834
621.774	1801.51008
621.974	1766.96414
622.174	1752.69174
622.374	1839.00302
622.574	1806.97733
622.774	1702.22258
622.974	1866.10221
623.174	1848.2714
623.374	1821.50911
623.574	1836.62819
623.774	1746.25824
623.973	1790.21254
624.173	1766.79374
624.373	1738.98632
624.573	1785.92618
624.773	1775.98194
624.973	1778.69464
625.172	1833.02857
625.372	1773.39417
625.572	1766.79374
625.772	1830.67614
625.971	1674.84006
626.171	1735.98346
626.371	1782.69417
626.57	1730.68853
626.77	1760.64644
626.97	1762.90386
627.169	1761.60501
627.369	1792.64411
627.569	1822.50575
627.768	1709.90037
627.968	1647.55687
628.167	1791.51477
628.367	1791.11119
628.566	1703.6264
628.766	1729.6505
628.965	1756.64137
629.165	1724.97718
629.364	1758.55906
629.564	1712.26801
629.763	1817.57609
629.963	1755.17366
630.162	1753.31143
630.362	1742.30633
630.561	1674.85204
630.76	1691.81737
630.96	1659.43148
631.159	1788.06942
631.358	1767.13468
631.558	1673.35703
631.757	1690.32828
631.956	1676.1306
632.155	1707.91974
632.355	1662.22316
632.554	1642.3966
632.753	1760.88178
632.952	1639.97942
633.152	1774.93873
633.351	1697.62582
633.55	1665.3992
633.749	1675.98077
633.948	1682.39234
634.147	1714.24808
634.346	1680.60548
634.545	1647.66879
634.744	1623.21779
634.944	1666.5824
635.143	1711.74916
635.342	1736.26386
635.541	1668.23558
635.74	1675.65418
635.939	1655.51632
636.138	1733.26968
636.336	1756.76173
636.535	1632.85564
636.734	1624.59473
636.933	1729.65896
637.132	1665.9264
637.331	1683.24737
637.53	1649.27619
637.729	1613.36034
637.928	1606.51299
638.126	1709.26963
638.325	1625.34028
638.524	1687.52232
638.723	1673.72335
638.921	1724.11503
639.12	1691.90604
639.319	1631.76408
639.518	1613.14954
639.716	1693.99768
639.915	1636.3286
640.114	1603.02073
640.312	1657.22861
640.511	1605.28281
640.71	1678.49542
640.908	1666.94625
641.107	1713.23039
641.305	1624.10416
641.504	1610.52519
641.702	1591.25255
641.901	1708.69486
642.099	1666.47384
642.298	1628.68467
642.496	1734.67966
642.695	1601.36752
642.893	1614.85865
643.092	1626.72604
643.29	1607.40341
643.489	1628.31258
643.687	1623.16503
643.885	1527.5756
644.084	1607.77869
644.282	1647.18207
644.48	1663.26111
644.679	1642.71793
644.877	1612.49542
645.075	1633.58247
645.274	1617.03027
645.472	1578.19581
645.67	1632.80289
645.868	1706.84645
646.067	1674.01281
646.265	1650.13894
646.463	1688.72977
646.661	1611.05072
646.859	1589.36008
647.057	1595.93473
647.256	1560.71527
647.454	1584.51071
647.652	1632.33802
647.85	1660.98746
648.048	1592.67445
648.246	1564.76514
648.444	1503.85857
648.642	1561.69881
648.84	1646.32246
649.038	1549.73465
649.236	1630.07307
649.434	1496.80333
649.632	1511.88812
649.83	1619.60318
650.028	1517.37622
650.226	1511.80498
650.423	1529.18933
650.621	1561.79045
650.819	1505.25141
651.017	1552.86489
651.215	1544.13467
651.413	1463.63503
651.61	1485.32583
651.808	1469.23812
652.006	1492.78396
652.204	1490.77374
652.401	1577.64745
652.599	1472.02987
652.797	1396.34779
652.995	1517.07067
653.192	1444.04598
653.39	1544.55026
653.588	1410.6786
653.785	1424.35559
653.983	1461.47498
654.18	1467.75399
654.378	1544.64566
654.576	1444.55053
654.773	1458.63704
654.971	1474.48802
655.168	1363.72307
655.366	1433.81369
655.563	1441.18849
655.761	1427.78817
655.958	1376.97704
656.156	1362.19568
656.353	1452.25463
656.55	1440.70861
656.748	1513.93433
656.945	1403.06609
657.143	1315.67384
657.34	1415.09886
657.537	1507.13185
657.735	1353.85388
657.932	1380.431
658.129	1376.98049
658.326	1336.88563
658.524	1455.13929
658.721	1333.27642
658.918	1342.7549
659.115	1403.67346
659.313	1392.849
659.51	1401.22528
659.707	1371.90907
659.904	1376.51714
660.101	1429.72797
660.298	1289.78803
660.496	1340.49931
660.693	1352.18277
660.89	1280.54571
661.087	1284.84258
661.284	1360.44083
661.481	1344.87643
661.678	1317.84105
661.875	1374.09871
662.072	1255.28092
662.269	1400.70981
662.466	1385.10123
662.663	1392.81204
662.86	1301.36513
663.057	1373.96115
663.254	1459.15811
663.45	1346.9545
663.647	1398.35441
663.844	1363.65916
664.041	1284.9736
664.238	1376.65631
664.435	1299.63465
664.631	1338.78253
664.828	1396.71008
665.025	1315.78737
665.222	1379.76537
665.419	1358.90332
665.615	1347.26844
665.812	1365.76201
666.009	1397.88562
666.205	1371.449
666.402	1375.22653
666.599	1372.23931
666.795	1380.70892
666.992	1358.77706
667.188	1435.16256
667.385	1367.25659
667.582	1457.88268
667.778	1426.53138
667.975	1466.38018
668.171	1389.89211
668.368	1419.74837
668.564	1485.62322
668.761	1439.17089
668.957	1311.64792
669.154	1360.63862
669.35	1455.9775
669.547	1446.54385
669.743	1385.97117
669.939	1385.51782
670.136	1277.09623
670.332	1418.64009
670.528	1329.40193
670.725	1371.1277
670.921	1437.99396
671.117	1343.43309
671.314	1330.39582
671.51	1317.06742
671.706	1370.97558
671.902	1298.0697
672.099	1442.58186
672.295	1347.22145
672.491	1340.40654
672.687	1401.51972
672.883	1388.27771
673.08	1340.58721
673.276	1347.1342
673.472	1318.9246
673.668	1394.26617
673.864	1352.9526
674.06	1356.11017
674.256	1342.98096
674.452	1430.01523
674.648	1365.94497
674.844	1328.97889
675.04	1356.61098
675.236	1332.4618
675.432	1324.78708
675.628	1335.62247
675.824	1324.51983
676.02	1361.40086
676.216	1308.30773
676.412	1301.71542
676.608	1371.17356
676.804	1329.25578
676.999	1364.90818
677.195	1355.2035
677.391	1341.1304
677.587	1360.2586
677.783	1307.1797
677.978	1310.43158
678.174	1372.32422
678.37	1322.79779
678.566	1357.82098
678.761	1252.51614
678.957	1343.9278
679.153	1353.40713
679.348	1258.1971
679.544	1350.46978
679.74	1422.20504
679.935	1300.54368
680.131	1381.9307
680.327	1383.67803
680.522	1287.27385
680.718	1296.51288
680.913	1307.44394
681.109	1350.87745
681.304	1325.96001
681.5	1322.44166
681.695	1353.99991
681.891	1365.45803
682.086	1316.24955
682.282	1311.58225
682.477	1583.92535
682.672	1290.1799
682.868	1287.92327
683.063	1309.67906
683.259	1252.17808
683.454	1314.63438
683.649	1293.3128
683.845	1241.24897
684.04	1321.22476
684.235	1258.60285
684.43	1261.9225
684.626	1322.69663
684.821	1299.12033
685.016	1303.08011
685.211	1515.81867
685.407	1291.6089
685.602	1226.49924
685.797	1290.67126
685.992	1241.1226
686.187	1264.66564
686.382	1251.60004
686.577	1239.95242
686.773	1222.23463
686.968	1268.77927
687.163	1216.43747
687.358	1286.23098
687.553	1243.88612
687.748	1276.16166
687.943	1299.89764
688.138	1212.98858
688.333	1233.6032
688.528	1172.1982
688.723	1203.4198
688.918	1173.20042
689.112	1152.82966
689.307	1173.07979
689.502	1084.88994
689.697	1171.50604
689.892	1168.89506
690.087	1111.10093
690.282	1138.46342
690.476	1074.96616
690.671	1073.67335
690.866	1137.92044
691.061	1072.50793
691.255	1051.47784
691.45	1091.05361
691.645	1023.51198
691.84	1101.54132
692.034	1070.08714
692.229	1085.52508
692.424	1092.33295
692.618	1047.76481
692.813	1091.61788
693.007	1088.11978
693.202	1088.72207
693.397	1126.09193
693.591	993.75001
693.786	1099.33254
693.98	1055.98989
694.175	947.92413
694.369	1039.82243
694.564	983.22485
694.758	1034.77822
694.953	1041.36424
695.147	1005.42748
695.342	1056.35566
695.536	962.54692
695.73	993.36989
695.925	945.86645
696.119	929.38999
696.313	992.18615
696.508	934.22415
696.702	981.99325
696.896	948.48855
697.091	982.50493
697.285	993.16304
697.479	985.51675
697.673	949.9148
697.868	984.76052
698.062	1008.84583
698.256	1028.00975
698.45	998.47181
698.644	969.44721
698.839	1035.67528
699.033	952.97302
699.227	977.27498
699.421	995.05156
699.615	983.39687
699.809	932.36034
700.003	997.44768
700.197	1041.6817
700.391	1022.38355
700.585	912.31844
700.779	1012.33519
700.973	1014.80338
701.167	967.86758
701.361	993.12859
701.555	995.86768
701.749	911.19089
701.943	998.08914
702.137	928.97649
702.331	961.72096
702.525	1000.17143
702.718	976.65851
702.912	945.13619
703.106	1058.72301
703.3	954.92932
703.494	990.98792
703.687	911.15899
703.881	1004.36091
704.075	1042.66561
704.269	888.67484
704.462	939.29391
704.656	991.1266
704.85	981.13919
705.043	965.56002
705.237	939.52489
705.431	933.71751
705.624	972.58699
705.818	1004.01012
706.012	982.47449
706.205	976.96866
706.399	957.54436
706.592	1000.44994
706.786	1003.94008
706.979	1023.99328
707.173	909.49132
707.366	974.51014
707.56	928.1569
707.753	941.4849
707.947	1018.86463
708.14	986.95665
708.333	992.65646
708.527	929.36747
708.72	897.51228
708.914	918.98811
709.107	951.64311
709.3	931.29759
709.494	915.79734
709.687	958.34985
709.88	910.89469
710.073	970.12491
710.267	916.41228
710.46	939.56725
710.653	1012.69165
710.846	945.80012
711.04	971.94036
711.233	940.75298
711.426	950.14756
711.619	967.01005
711.812	964.14477
712.005	959.51266
712.198	897.44908
712.391	944.27506
712.585	964.30112
712.778	982.44005
712.971	970.7039
713.164	988.35081
713.357	902.56748
713.55	933.68475
713.743	890.33737
713.936	948.22335
714.129	979.49702
714.322	977.1722
714.514	974.09485
714.707	955.50072
714.9	946.13213
715.093	952.53793
715.286	927.59998
715.479	973.75024
715.672	982.06985
715.864	1014.62684
716.057	947.55942
716.25	853.37445
716.443	974.67427
716.636	939.52289
716.828	873.77777
717.021	974.67427
717.214	964.38066
717.406	1022.2532
717.599	878.33717
717.792	1114.89467
717.984	933.54189
718.177	916.95765
718.37	887.92246
718.562	887.76571
718.755	918.08855
718.947	872.12478
719.14	797.39549
719.333	882.74769
719.525	846.70971
719.718	834.34773
719.91	829.02777
720.103	848.84776
720.295	774.45917
720.487	755.74227
720.68	779.79543
720.872	789.15921
721.065	726.25459
721.257	776.27338
721.449	684.47153
721.642	738.62039
721.834	669.94313
722.026	719.05357
722.219	671.96221
722.411	652.48141
722.603	649.89587
722.796	678.73317
722.988	633.1577
723.18	670.42348
723.372	628.23758
723.565	617.52476
723.757	611.0684
723.949	685.33251
724.141	631.96108
724.333	636.01382
724.525	623.39012
724.717	638.68323
724.91	582.21541
725.102	584.98464
725.294	598.68314
725.486	554.73564
725.678	601.50677
725.87	598.22923
726.062	583.89658
726.254	608.50379
726.446	591.17607
726.638	631.65787
726.83	630.55142
727.022	522.44953
727.213	566.65447
727.405	566.22291
727.597	532.40936
727.789	676.25654
727.981	531.43681
728.173	612.53029
728.365	577.6829
728.556	593.75683
728.748	591.04725
728.94	625.26207
729.132	531.72926
729.324	541.37581
729.515	566.9022
729.707	592.32582
729.899	591.52063
730.09	600.00668
730.282	655.82359
730.474	563.29164
730.665	539.75558
730.857	643.84983
731.049	570.14196
731.24	565.46498
731.432	563.66128
731.623	537.97152
731.815	553.48603
732.006	522.27768
732.198	534.76335
732.389	601.59453
732.581	532.17625
732.772	516.99884
732.964	513.57645
733.155	604.65146
733.347	572.21095
733.538	545.98915
733.729	555.49941
733.921	591.78005
734.112	512.14875
734.304	584.79075
734.495	578.01927
734.686	524.34187
734.877	609.05536
735.069	570.3916
735.26	545.63017
735.451	619.98248
735.643	567.02637
735.834	587.26275
736.025	589.74827
736.216	634.28582
736.407	651.2601
736.599	614.27491
736.79	592.54148
736.981	593.84353
737.172	618.58547
737.363	690.72693
737.554	672.22926
737.745	648.5566
737.936	606.99708
738.127	664.35244
738.318	644.55765
738.509	631.70393
738.7	632.16688
738.891	613.86045
739.082	587.89856
739.273	667.61774
739.464	660.84756
739.655	632.00677
739.846	649.98994
740.037	645.3826
740.228	637.5782
740.419	704.27042
740.609	639.16617
740.8	640.66188
740.991	654.40984
741.182	694.06223
741.373	767.0551
741.563	730.42891
741.754	616.17438
741.945	666.58559
742.136	715.38084
742.326	710.78832
742.517	669.79953
742.708	675.07981
742.898	693.91244
743.089	686.98261
743.28	731.48468
743.47	753.4588
743.661	739.56342
743.851	643.28908
744.042	729.01118
744.233	752.58072
744.423	721.73992
744.614	729.77234
744.804	714.3807
744.995	642.8246
745.185	699.93192
745.376	724.89159
745.566	713.84093
745.756	718.61273
745.947	710.20171
746.137	687.19374
746.328	753.03197
746.518	757.19587
746.708	683.56471
746.899	675.37187
747.089	715.22627
747.279	728.98485
747.47	703.51176
747.66	690.40422
747.85	707.22438
748.04	830.24601
748.231	732.26625
748.421	745.02108
748.611	711.04453
748.801	730.53372
748.991	679.00681
749.182	731.60978
749.372	702.73686
749.562	745.34242
749.752	658.16451
749.942	746.63715
750.132	679.73917
750.322	727.5666
750.512	693.91244
750.702	697.97434
750.892	739.35112
751.082	692.17975
751.272	659.62418
751.462	746.5524
751.652	701.63394
751.842	708.6841
752.032	741.06559
752.222	707.30062
752.412	648.22958
752.602	715.73828
752.792	737.33221
752.981	722.7128
753.171	685.57409
753.361	663.152
753.551	716.02046
753.741	705.0439
753.93	638.66015
754.12	675.22572
754.31	660.68077
754.5	764.43709
754.689	727.57386
754.879	645.28933
755.069	773.77325
755.258	630.07014
755.448	649.66114
755.638	666.44114
755.827	673.30942
756.017	639.71888
756.206	697.79996
756.396	630.51466
756.586	611.88633
756.775	667.6901
756.965	684.12996
757.154	680.62241
757.344	650.55462
757.533	676.69602
757.723	680.40228
757.912	650.97721
758.101	675.83627
758.291	595.21404
758.48	637.14317
758.67	684.3027
758.859	714.69042
759.048	703.9156
759.238	659.3867
759.427	713.5091
759.616	621.4755
759.806	607.64012
759.995	717.7166
760.184	655.75222
760.373	674.29204
760.563	636.72666
760.752	698.6769
760.941	600.11567
761.13	627.51775
761.319	663.84935
761.509	557.91737
761.698	569.28371
761.887	582.55466
762.076	496.84168
762.265	560.52174
762.454	515.12063
762.643	537.97152
762.832	503.27812
763.021	492.52918
763.21	444.15473
763.399	420.02684
763.588	470.33678
763.777	470.59709
763.966	494.38669
764.155	413.66009
764.344	402.72272
764.533	412.37914
764.722	365.65609
764.911	417.09164
765.1	394.73357
765.288	362.65079
765.477	459.78691
765.666	380.49359
765.855	372.30016
766.044	361.45418
766.232	298.75499
766.421	343.39899
766.61	333.30996
766.799	321.13308
766.987	401.83349
767.176	224.70495
767.365	240.45788
767.553	241.63059
767.742	406.04914
767.931	353.51408
768.119	288.61465
768.308	313.38871
768.497	320.94128
768.685	330.86943
768.874	314.65903
769.062	305.68504
769.251	303.35877
769.439	337.13567
769.628	335.8925
769.816	384.72332
770.005	375.62809
770.193	367.91212
770.382	374.59766
770.57	381.79397
770.758	415.97851
770.947	364.82714
771.135	392.53533
771.323	371.35176
771.512	407.25379
771.7	441.53778
771.888	466.39253
772.077	377.61803
772.265	469.53765
772.453	452.65745
772.642	433.65543
772.83	401.31066
773.018	454.64616
773.206	445.92021
773.394	490.65202
773.583	519.29366
773.771	477.17731
773.959	498.55622
774.147	493.60302
774.335	505.68082
774.523	512.3546
774.711	540.48491
774.899	502.83265
775.087	487.62385
775.275	526.04609
775.463	554.35161
775.651	527.78188
775.839	500.31729
776.027	501.26171
776.215	528.40064
776.403	516.73402
776.591	581.21425
776.779	548.24657
776.967	562.12303
777.155	450.01915
777.343	500.18886
777.531	599.42391
777.718	567.04709
777.906	548.83123
778.094	496.0051
778.282	578.01927
778.47	558.63271
778.657	552.74169
778.845	508.40293
779.033	534.70466
779.22	567.76168
779.408	538.82441
779.596	603.09848
779.783	613.06712
779.971	480.40413
780.159	551.59263
780.346	493.74812
780.534	515.26812
780.722	569.70084
780.909	529.19954
781.097	516.09783
781.284	496.29766
781.472	482.58997
781.659	514.9312
781.847	549.01401
782.034	523.71192
782.222	557.95806
782.409	504.81202
782.597	479.92834
782.784	532.44828
782.971	562.96541
783.159	508.02953
783.346	551.65325
783.533	554.15526
783.721	475.97848
783.908	577.3125
784.095	489.41474
784.283	481.2848
784.47	534.72422
784.657	493.16962
784.844	533.79141
785.032	550.54452
785.219	507.14336
785.406	531.37846
785.593	525.661
785.78	542.3852
785.968	439.32964
786.155	513.89699
786.342	535.97024
786.529	529.08339
786.716	475.00769
786.903	567.40011
787.09	477.63904
787.277	453.73569
787.464	469.41621
787.651	592.58469
787.838	418.9612
788.025	520.44127
788.212	459.41221
788.399	520.42217
788.586	558.32529
788.773	491.59981
788.96	404.4704
789.147	457.84474
789.334	421.46565
789.521	413.53758
789.707	467.2797
789.894	463.79032
790.081	490.43511
790.268	416.73687
790.455	498.79602
790.641	538.58341
790.828	416.29274
791.015	458.36826
791.202	439.60664
791.388	489.37869
791.575	426.04262
791.762	436.07337
791.948	435.99262
792.135	470.96333
792.322	466.42714
792.508	455.97575
792.695	370.56917
792.881	410.76383
793.068	397.97104
793.254	342.20715
793.441	411.26653
793.627	441.83246
793.814	415.96308
794	411.3426
794.187	435.87976
794.373	465.99588
794.56	448.21005
794.746	473.72167
794.933	380.01279
795.119	445.30328
795.305	479.64734
795.492	379.22311
795.678	465.10794
795.864	492.81924
796.051	436.91118
796.237	448.14383
796.423	413.73679
796.61	414.68092
796.796	312.01506
796.982	357.89444
797.168	443.97573
797.355	400.28653
797.541	400.28653
797.727	401.74351
797.913	373.22048
798.099	358.82245
798.285	328.99513
798.471	392.81319
798.658	449.08994
798.844	476.3831
799.03	370.93867
799.216	421.49688
799.402	425.72744
799.588	399.33626
799.774	436.12187
799.96	458.53809
800.146	474.86755
800.332	440.65412
800.518	439.31338
800.704	407.76274
800.89	377.8978
801.075	445.92021
801.261	361.26549
801.447	308.66707
801.633	344.28363
801.819	402.63287
802.005	373.33106
802.19	406.09446
802.376	449.7218
802.562	351.15276
802.748	464.97038
802.934	438.1525
803.119	402.84276
803.305	391.30525
803.491	462.79854
803.676	384.69472
803.862	392.69602
804.048	406.10958
804.233	369.08139
804.419	410.39705
804.605	381.39515
804.79	385.80868
804.976	400.42035
805.161	445.02231
805.347	336.75678
805.532	320.92932
805.718	390.39473
805.903	344.72023
806.089	438.29848
806.274	321.85332
806.46	365.83312
806.645	353.55366
806.831	417.2621
807.016	365.98341
807.201	346.84821
807.387	374.52811
807.572	391.1169
807.757	353.32982
807.943	359.12963
808.128	390.16275
808.313	414.86535
808.499	397.88263
808.684	394.0455
808.869	370.07204
809.054	380.28092
809.24	372.36931
809.425	304.20251
809.61	389.10697
809.795	392.81319
809.98	384.59474
810.165	378.82914
810.35	434.1868
810.536	369.0402
810.721	341.04125
810.906	425.04013
811.091	382.6661
811.276	335.36607
811.461	374.59766
811.646	422.64101
811.831	370.31999
812.016	368.07656
812.201	382.42405
812.386	313.27137
812.571	299.80453
812.756	339.11485
812.941	304.04381
813.125	400.62919
813.31	384.49496
813.495	399.54465
813.68	368.10401
813.865	387.06655
814.05	340.21812
814.234	326.64065
814.419	366.93432
814.604	388.51434
814.789	344.48858
814.973	379.32208
815.158	323.31717
815.343	344.73314
815.528	333.79733
815.712	355.58541
815.897	327.59766
816.081	283.01881
816.266	305.29592
816.451	378.19321
816.635	314.74195
816.82	306.37772
817.004	278.60225
817.189	336.04403
817.374	261.75691
817.558	299.89435
817.743	241.91329
817.927	286.63886
818.111	307.97785
818.296	287.89794
818.48	341.33403
818.665	244.12504
818.849	329.242
819.034	276.51265
819.218	265.13984
819.402	241.75796
819.587	279.8458
819.771	265.50974
819.955	220.65527
820.14	297.74973
820.324	217.22707
820.508	262.96347
820.692	236.36766
820.877	236.04647
821.061	240.88479
821.245	183.4339
821.429	198.07528
821.613	207.10967
821.798	201.52103
821.982	219.23593
822.166	253.13767
822.35	264.53081
822.534	253.05157
822.718	245.22604
822.902	245.41194
823.086	246.22464
823.27	227.22372
823.454	188.05203
823.638	189.15903
823.822	241.83097
824.006	218.31444
824.19	222.65215
824.374	251.0223
824.558	180.16018
824.742	204.85269
824.926	272.11159
825.11	213.71176
825.294	219.6264
825.477	197.9033
825.661	171.23947
825.845	172.23067
826.029	127.35785
826.213	236.171
826.396	229.64555
826.58	224.91631
826.764	184.72981
826.948	211.512
827.131	225.92511
827.315	194.74268
827.499	227.44772
827.682	250.94614
827.866	190.29473
828.05	275.57115
828.233	238.28387
828.417	172.30911
828.6	249.60927
828.784	288.94009
828.967	269.97631
829.151	226.36137
829.335	228.58584
829.518	242.90449
829.701	214.65367
829.885	248.67824
830.068	266.57858
830.252	212.6723
830.435	240.72064
830.619	251.75214
830.802	205.94214
830.985	177.90372
831.169	226.29253
831.352	200.41525
831.535	194.83144
831.719	240.58447
831.902	200.31648
832.085	214.91276
832.269	255.28972
832.452	212.80946
832.635	173.46379
832.818	234.07387
833.002	212.64817
833.185	266.56851
833.368	253.36832
833.551	221.65828
833.734	222.72779
833.917	213.97108
834.1	258.88165
834.284	181.24721
834.467	209.36683
834.65	238.58994
834.833	223.856
835.016	250.80379
835.199	269.75236
835.382	220.5382
835.565	163.30292
835.748	223.86446
835.931	230.51301
836.114	229.36782
836.297	259.65785
836.479	228.36064
836.662	269.78282
836.845	283.27399
837.028	150.81123
837.211	206.92183
837.394	236.28707
837.577	256.6223
837.759	199.33958
837.942	237.13844
838.125	219.20293
838.308	230.60002
838.49	187.95932
838.673	542.14797
838.856	210.1542
839.039	263.25118
839.221	164.38107
839.404	183.37151
839.587	245.86475
839.769	258.77374
839.952	220.52151
840.134	192.31883
840.317	201.56696
840.499	211.4481
840.682	278.665
840.865	227.30107
841.047	153.1638
841.23	181.19914
841.412	190.17214
841.595	339.31838
841.777	242.98708
841.959	236.171
842.142	179.00475
842.324	229.4024
842.507	229.58459
842.689	231.80732
842.871	218.38894
843.054	259.57001
843.236	257.51798
843.418	280.06745
843.601	230.68727
843.783	194.71316
843.965	322.39421
844.147	226.1382
844.33	216.94838
844.512	207.13324
844.694	258.72479
844.876	232.83924
845.059	237.18303
845.241	277.65166
845.423	232.87444
845.605	261.10155
845.787	259.6774
845.969	280.92146
846.151	301.27153
846.333	225.24894
846.515	261.06196
846.697	237.24556
846.879	275.29097
847.061	219.40147
847.243	250.80379
847.425	231.8161
847.607	175.74762
847.789	238.45456
847.971	202.51921
848.153	216.00841
848.335	239.55589
848.517	205.96555
848.699	180.27673
848.881	242.81298
849.062	196.96954
849.244	240.67519
849.426	183.55217
849.608	254.28601
849.789	206.94525
849.971	243.96844
850.153	239.68274
850.335	200.37722
850.516	212.55181
850.698	168.95659
850.88	176.75543
851.061	221.65828
851.243	223.82219
851.425	236.04647
851.606	203.7861
851.788	207.07044
851.969	176.69517
852.151	208.13576
852.333	273.24045
852.514	208.30147
852.696	304.64782
852.877	226.30972
853.059	190.33813
853.24	279.7827
853.422	243.73034
853.603	257.76173
853.784	281.29263
853.966	187.96644
854.147	217.25179
854.329	180.10552
854.51	211.40026
854.691	140.75049
854.873	231.56245
855.054	217.35085
855.235	253.02292
855.416	217.03826
855.598	189.00864
855.779	219.53456
855.96	209.39066
856.141	163.41486
856.323	274.40043
856.504	209.39066
856.685	219.60132
856.866	239.65552
857.047	201.48281
857.228	197.01435
857.409	219.36829
857.591	163.21623
857.772	214.85589
857.953	218.31444
858.134	164.32504
858.315	276.74232
858.496	236.17991
858.677	236.22452
858.858	263.08224
859.039	227.29247
859.22	247.4368
859.401	175.62078
859.582	188.10924
859.762	103.73807
859.943	211.62417
860.124	203.91018
860.305	138.36025
860.486	199.18836
860.667	166.70629
860.848	168.90525
861.028	201.58228
861.209	251.0509
861.39	199.09802
861.571	177.88347
861.751	216.21328
861.932	238.34665
862.113	155.40759
862.293	197.12672
862.474	233.96762
862.655	166.62402
862.835	200.40764
863.016	161.02244
863.197	111.6404
863.377	130.72165
863.558	188.13073
863.738	211.70455
863.919	167.78362
864.099	230.88887
864.28	208.46813
864.46	252.88951
864.641	192.48613
864.821	180.26986
865.002	123.97925
865.182	136.30412
865.363	174.55912
865.543	179.22981
865.723	146.43143
865.904	186.99461
866.084	165.48375
866.264	201.53633
866.445	164.39354
866.625	190.22976
866.805	237.14736
866.986	234.02956
867.166	171.41616
867.346	228.38654
867.526	156.62468
867.707	183.49645
867.887	204.75192
868.067	195.96031
868.247	218.47193
868.427	177.94427
868.607	140.75049
868.788	176.74203
868.968	183.48254
869.148	245.30957
869.328	178.97083
869.508	157.78323
869.688	132.99252
869.868	140.72916
870.048	201.62831
870.228	132.94697
870.408	110.36976
870.588	146.50946
870.768	182.40989
870.948	202.78075
871.128	155.40169
871.307	160.09576
871.487	238.78042
871.667	228.47304
871.847	140.88968
872.027	150.99448
872.207	194.77963
872.387	167.85379
872.566	132.99252
872.746	208.30939
872.926	143.10277
873.106	183.5731
873.285	186.97326
873.465	111.59785
873.645	235.28313
873.824	141.96933
874.004	120.67903
874.184	120.66981
874.363	168.98874
874.543	146.5486
874.723	115.03316
874.902	147.55359
875.082	140.82531
875.261	164.53745
875.441	213.76021
875.62	135.25379
875.8	138.78168
875.979	153.22203
876.159	186.97326
876.338	171.30476
876.518	135.2023
876.697	134.16661
876.876	144.27483
877.056	150.94852
877.235	221.77593
877.415	123.91798
877.594	125.10226
877.773	134.13589
877.953	183.51037
878.132	138.73381
878.311	163.4211
878.49	152.22157
878.67	160.98581
878.849	175.90205
879.028	154.43854
879.207	149.71264
879.387	201.50573
879.566	95.94165
879.745	128.54454
879.924	189.1088
880.103	144.32994
880.282	102.6223
880.461	84.60525
880.64	95.91227
880.819	131.87961
880.998	144.40181
881.178	173.4968
881.357	162.25511
881.536	165.63473
881.715	162.21805
881.893	108.29404
882.072	131.96023
882.251	175.69413
882.43	58.69809
882.609	93.62057
882.788	152.27404
882.967	131.97033
883.146	80.20419
883.325	116.15245
883.503	144.22536
883.682	124.10245
883.861	170.18871
884.04	165.65999
884.219	208.42837
884.397	145.39221
884.576	214.76674
884.755	168.96945
884.933	163.47729
885.112	144.25833
885.291	137.5469
885.469	167.93058
885.648	94.86792
885.827	117.29401
886.005	114.01856
886.184	164.55001
886.363	148.8117
886.541	142.17571
886.72	153.22203
886.898	364.62309
887.077	112.76404
887.255	127.37726
887.434	91.37962
887.612	102.63013
887.791	54.31782
887.969	143.10822
888.147	90.30039
888.326	140.87357
888.504	139.78804
888.682	160.1632
888.861	138.612
889.039	185.90819
889.218	185.72457
889.396	109.37212
889.574	221.81806
889.752	92.48604
889.931	117.19124
890.109	102.60665
890.287	118.38162
890.465	172.42068
890.643	123.9887
890.822	143.06467
891	167.85379
891.178	184.70872
891.356	107.1454
891.534	107.09231
891.712	126.31195
891.89	119.54608
892.068	188.20248
892.247	146.543
892.425	153.25705
892.603	131.8947
892.781	114.963
892.959	116.17464
893.137	122.93123
893.314	114.98928
893.492	112.77265
893.67	129.5643
893.848	152.13442
894.026	195.93051
894.204	94.84605
894.382	153.31553
894.56	158.99092
894.738	76.7014
894.915	83.57073
895.093	176.89662
895.271	89.12115
895.449	101.56843
895.626	181.62806
895.804	106.04586
895.982	139.77738
896.16	99.31932
896.337	142.0397
896.515	67.75399
896.693	96.99213
896.87	108.24443
897.048	129.80722
897.225	90.29347
897.403	166.79522
897.581	126.29746
897.758	146.53741
897.936	75.61509
898.113	88.09147
898.291	93.64559
898.468	121.78884
898.646	171.54128
898.823	155.49033
899.001	220.89075
899.178	111.67452
899.356	79.02718
899.533	106.15577
899.71	119.54608
899.888	85.77503
900.065	86.8564
900.242	45.2822
900.42	90.37322
900.597	63.32728
900.774	70.07335
900.952	71.22659
901.129	79.09391
901.306	93.69219
901.483	71.12824
901.661	82.46452
901.838	128.66278
902.015	93.6635
902.192	105.03451
902.369	48.66709
902.546	98.25504
902.723	67.7307
902.901	107.2604
903.078	90.32115
903.255	103.84125
903.432	56.58634
903.609	48.65773
903.786	48.67084
903.963	41.91062
904.14	83.44949
904.317	85.82434
904.494	79.10914
904.671	46.40331
904.848	87.06345
905.024	80.22887
905.201	45.25958
905.378	70.07335
905.555	66.65978
905.732	89.23045
905.909	78.02231
906.086	119.56894
906.262	40.77276
906.439	58.81052
906.616	76.81582
906.793	104.93777
906.969	36.28572
907.146	118.35005
907.323	81.35151
907.5	32.88062
907.676	90.36279
907.853	143.366
908.03	79.0302
908.206	46.40688
908.383	99.37652
908.559	97.14838
908.736	88.09486
908.912	49.81276
909.089	49.79547
909.266	63.23989
909.442	41.89287
909.619	40.76335
909.795	94.82421
909.972	112.86767
910.148	70.03569
910.324	71.15819
910.501	44.1642
910.677	59.95521
910.854	25.00711
911.03	106.0094
911.206	34.02698
911.383	79.02415
911.559	15.97705
911.735	144.28033
911.912	100.47857
912.088	99.41095
912.264	127.55785
912.44	116.21467
912.617	106.0094
912.793	107.24392
912.969	124.05022
913.145	58.81279
913.321	99.37652
913.498	37.36842
913.674	73.42248
913.85	68.91572
914.026	102.67327
914.202	67.68945
914.378	41.86555
914.554	59.95289
914.73	46.38015
914.906	89.25793
915.082	106.15986
915.258	49.76867
915.434	25.00035
915.61	76.80698
915.786	58.79695
915.962	116.36226
916.138	50.92783
916.314	66.70077
916.49	39.67525
916.665	103.95721
916.841	25.00711
917.017	28.37346
917.193	61.06054
917.369	55.4466
917.545	49.81276
917.72	47.55341
917.896	74.63676
918.072	67.82419
918.247	11.46588
918.423	26.13272
918.599	37.40582
918.775	40.74927
918.95	22.74117
919.126	76.85128
919.301	28.40968
919.477	55.40607
919.653	31.77473
919.828	44.13871
920.004	85.81775
920.179	83.57073
920.355	294.19889
920.53	31.73682
920.706	92.65642
920.881	46.39439
921.057	64.4139
921.232	40.79006
921.408	107.26865
921.583	58.80373
921.759	31.77104
921.934	63.34438
922.109	47.53509
922.285	84.87603
922.46	66.72905
922.635	53.16247
922.811	66.75226
922.986	68.96873
923.161	84.6667
923.336	71.21562
923.512	80.20419
923.687	73.47896
923.862	32.90219
924.037	59.95752
924.212	72.32773
924.388	39.66452
924.563	62.15557
924.738	99.27373
924.913	71.25684
925.088	26.10156
925.263	31.73925
925.438	47.55158
925.613	133.10433
925.788	63.34927
925.963	94.89348
926.138	118.65478
926.313	52.04035
926.488	17.09858
926.663	121.88682
926.838	64.39908
927.013	28.38989
927.188	24.98302
927.363	68.94749
927.538	35.14748
927.713	44.1659
927.888	32.86798
928.062	77.99221
928.237	71.16364
928.412	53.1686
928.587	59.90909
928.761	66.65467
928.936	52.02635
929.111	55.45944
929.286	75.70202
929.46	31.75145
929.635	85.88378
929.81	58.86504
929.984	44.18295
930.159	-26.86041
930.334	-9.95125
930.508	6.96091
930.683	24.99842
930.857	59.96909
931.032	64.49334
931.206	-2.0681
931.381	90.429
931.556	47.55158
931.73	84.78399
931.904	15.98199
932.079	99.3498
932.253	65.61264
932.428	-0.9397
932.602	56.56669
932.777	40.85179
932.951	9.20888
933.125	-2.06626
933.3	84.66994
933.474	43.04573
933.648	-5.45152
933.823	53.1727
933.997	36.27451
934.171	121.94776
934.345	34.00338
934.52	0.18804
934.694	62.15796
934.868	-12.23647
935.042	18.24886
935.217	36.27311
935.391	-24.65303
935.565	31.7735
935.739	29.51739
935.913	8.07737
936.087	64.36459
936.261	26.11862
936.435	-9.96659
936.609	27.24866
936.783	35.15019
936.957	4.70022
937.131	30.65908
937.305	-14.46413
937.479	-21.26187
937.653	-14.49099
937.827	11.47921
938.001	38.55823
938.175	-9.96504
938.349	5.82884
938.523	-3.19819
938.697	10.3499
938.87	43.04739
939.044	-29.16282
939.218	-20.13723
939.392	48.65211
939.566	-20.13723
939.739	0.18796
939.913	-5.45637
940.087	-2.06826
940.261	-5.45384
940.434	-19.00398
940.608	61.09822
940.782	50.94551
940.955	3.57348
941.129	-11.09209
941.302	13.71829
941.476	-11.09982
941.65	-42.68793
941.823	-32.54885
941.997	4.7035
942.17	-5.45574
942.344	20.51602
942.517	54.27812
942.691	4.69986
942.864	15.99065
943.038	15.9826
943.211	4.70186
943.385	-84.54242
943.558	-26.88527
943.731	137.47873
943.905	22.74117
944.078	-13.35017
944.251	-17.86567
944.425	-21.25198
944.598	-0.93959
944.771	49.87261
944.945	10.34348
945.118	4.70496
945.291	5.82839
945.464	-29.15604
945.638	-8.83949
945.811	-24.64825
945.984	-17.85051
946.157	31.77841
946.33	-38.19983
946.503	11.47965
946.677	5.83563
946.85	20.50725
947.023	-25.76868
947.196	-21.24049
947.369	34.05334
947.542	-18.99367
947.715	49.79356
947.888	-8.83403
948.061	-38.16876
948.234	-39.30374
948.407	8.08579
948.58	-32.54001
948.753	37.42028
948.926	-17.86429
949.099	0.18817
949.271	-26.8863
949.444	-3.19819
949.617	0.1881
949.79	-37.05567
949.963	14.87028
950.136	32.92002
950.308	20.51442
950.481	-67.56595
950.654	34.04277
950.827	-17.8726
950.999	-40.45167
951.172	29.49918
951.345	-29.13912
951.517	46.41045
951.69	12.61052
951.863	-0.9401
952.035	37.44495
952.208	36.28291
952.381	-16.75781
952.553	-42.73602
952.726	56.59728
952.898	-32.53497
953.071	-16.74218
953.243	-9.96427
953.416	-21.27594
953.588	41.9268
953.761	-3.19782
953.933	-24.62916
954.106	57.76686
954.278	28.40528
954.45	4.69895
954.623	-8.84155
954.795	-69.78919
954.967	-2.06794
955.14	-0.9405
955.312	-48.32858
955.484	20.51682
955.657	12.61346
955.829	-12.21703
956.001	21.61893
956.173	-57.34829
956.346	-41.58136
956.518	-43.85622
956.69	-11.09724
956.862	-55.14325
957.034	-16.74478
957.207	20.50089
957.379	76.92253
957.551	-34.80792
957.723	32.88695
957.895	26.1398
958.067	-4.32454
958.239	-3.19919
958.411	20.48032
958.583	-6.5798
958.755	26.1398
958.927	-25.79976
959.099	4.69949
959.271	53.24054
959.443	-66.41735
959.615	-2.06994
959.787	59.94365
959.959	11.46279
960.13	2.44515
960.302	26.15907
960.474	45.3312
960.646	-24.62916
960.818	4.70131
960.99	35.22124
961.161	-59.63001
961.333	9.21314
961.505	-29.13912
961.677	12.59489
961.848	15.97335
962.02	-25.75572
962.192	-22.38258
962.363	-15.59811
962.535	90.35932
962.707	12.6022
962.878	-16.73505
963.05	61.11948
963.221	-14.47305
963.393	-5.45173
963.564	-14.45747
963.736	10.33789
963.907	20.51841
964.079	-40.44539
964.25	-46.06664
964.422	22.74731
964.593	-28.04429
964.765	36.31243
964.936	21.61559
965.108	20.48742
965.279	-8.83573
965.45	19.36154
965.622	6.95498
965.793	30.65552
965.964	-74.32117
966.136	-6.59079
966.307	-77.70043
966.478	4.70131
966.65	-23.5061
966.821	3.57237
966.992	2.44506
967.163	-12.22459
967.334	-43.83067
967.506	-12.2227
967.677	32.90473
967.848	-29.15265
968.019	5.82996
968.19	27.26866
968.361	6.95418
968.532	-13.35121
968.703	9.21671
968.874	65.60757
969.045	26.12365
969.216	-25.75373
969.387	-63.02451
969.558	45.29442
969.729	-30.29818
969.9	-50.593
970.071	19.36678
970.242	10.33949
970.413	11.47342
970.584	-29.15604
970.755	10.33351
970.926	-3.19621
971.097	14.84211
971.267	3.57017
971.438	-22.39039
971.609	-0.94039
971.78	54.31363
971.951	-30.28055
972.121	20.49059
972.292	61.12422
972.463	47.57914
972.633	-35.90831
972.804	28.3855
972.975	27.26866
973.145	18.24674
973.316	11.46721
973.487	-24.6263
973.657	25.02164
973.828	48.67834
973.998	0.18814
974.169	-9.96274
974.339	-9.96736
974.51	24.99938
974.68	72.35838
974.851	51.01073
975.021	40.8074
975.192	67.87916
975.362	64.43122
975.533	10.34629
975.703	71.21562
975.874	49.80123
976.044	14.86565
976.214	9.20569
976.385	29.51283
976.555	12.59537
976.725	19.37353
976.896	-32.5111
977.066	-24.6225
977.236	3.57376
977.406	15.98508
977.577	-21.25857
977.747	38.50768
977.917	-4.32253
978.087	46.45888
978.257	23.87943
978.427	31.82785
978.598	61.1053
978.768	-4.32387
978.938	-95.73938
979.108	49.84359
979.278	15.96659
979.448	-2.06587
979.618	41.90577
979.788	40.80582
979.958	-2.0681
980.128	2.4444
980.298	32.8642
980.468	-11.09853
980.638	18.24179
980.808	27.29302
980.978	10.33829
981.148	29.52767
981.317	40.78062
981.487	-16.74413
981.657	54.34931
981.827	36.28151
981.997	-8.84326
982.167	-23.51156
982.336	-23.51977
982.506	-0.94072
982.676	93.78952
982.846	49.74579
983.015	36.27032
983.185	-32.55896
983.355	21.61559
983.524	76.89576
983.694	-30.2876
983.864	-42.69619
984.033	15.98322
984.203	22.75523
984.372	3.57293
984.542	-7.7106
984.712	-57.36161
984.881	10.34108
985.051	41.9268
985.22	22.75083
985.39	2.44487
985.559	-8.83505
985.728	-24.61302
985.898	71.2211
986.067	-9.96543
986.237	53.21374
986.406	38.52398
986.576	-23.49339
986.745	41.95929
986.914	-22.38258
987.084	27.27078
987.253	-20.13566
987.422	63.31997
987.591	41.93653
987.761	-22.40346
987.93	13.72464
988.099	22.73766
988.268	19.35185
988.438	21.62896
988.607	-17.87537
988.776	5.82614
988.945	2.44487
989.114	-26.88838
989.283	14.85873
989.452	-51.65865
989.621	25.00518
989.791	3.57168
989.96	-14.47976
990.129	15.97274
990.298	-20.12317
990.467	24.99167
990.636	-9.96274
990.805	-0.94127
990.974	3.5732
991.142	23.90166
991.311	35.16242
991.48	78.0193
991.649	44.16079
991.818	13.74169
991.987	-46.03289
992.156	28.37783
992.325	3.57473
992.493	-11.10586
992.662	127.30941
992.831	40.79793
993	21.59398
993.168	26.14081
993.337	3.57307
993.506	-2.06802
993.675	-7.71209
993.843	73.45633
994.012	-23.49611
994.181	53.13391
994.349	46.4409
994.518	-28.00413
994.686	-9.96852
994.855	38.4988
995.024	45.31541
995.192	49.83201
995.361	9.21243
995.529	21.61726
995.698	-60.77162
995.866	-12.22459
996.035	-7.70464
996.203	37.42607
996.371	38.55226
996.54	29.52653
996.708	81.45528
996.877	32.91237
997.045	-9.97045
997.213	21.62227
997.382	48.69338
997.55	63.34193
997.718	17.08479
997.887	55.4766
998.055	17.10319
998.223	36.26054
998.391	70.13825
998.56	-7.71329
998.728	43.01755
998.896	-26.91447
999.064	40.82638
999.232	71.19917
999.401	77.99221
999.569	0.18798
999.737	4.70478
999.905	4.70095
1000.073	23.85826
1000.241	28.4163
1000.409	-0.94039
1000.577	21.62227
1000.745	45.3119
1000.913	61.08172
1001.081	-4.31954
1001.249	-0.93984
1001.417	58.84228
1001.585	11.46765
1001.753	68.98203
1001.921	-38.18797
1002.089	-28.01928
1002.256	0.18786
1002.424	-0.94013
1002.592	-3.1972
1002.76	-4.32337
1002.928	17.11509
1003.096	-28.0432
1003.263	30.63303
1003.431	-29.14137
1003.599	17.11774
1003.767	53.26123
1003.934	-8.83607
1004.102	21.63315
1004.27	4.69877
1004.437	22.75964
1004.605	-11.10155
1004.773	65.5646
1004.94	32.89584
1005.108	-23.51339
1005.275	-2.06906
1005.443	8.08173
1005.61	30.63539
1005.778	-2.06922
1005.945	-51.74254
1006.113	-0.93934
1006.28	1.31528
1006.448	29.51169
1006.615	14.8645
1006.783	19.37503
1006.95	34.02961
1007.118	-6.58439
1007.285	-43.83918
1007.452	6.95686
1007.62	6.95471
1007.787	80.22578
1007.954	1.31716
1008.122	-35.90692
1008.289	18.23474
1008.456	-81.10738
1008.623	17.11575
1008.791	25.01873
1008.958	32.88442
1009.125	-46.02757
1009.292	-8.83881
1009.459	-22.38171
1009.627	-7.71329
1009.794	29.53568
1009.961	5.82659
1010.128	18.22982
1010.295	25.00808
1010.462	19.36379
1010.629	37.43042
1010.796	27.29089
1010.963	-59.60923
1011.13	-17.86222
1011.297	44.18125
1011.464	12.59343
1011.631	35.15019
1011.798	30.66979
1011.965	8.08547
1012.132	17.11907
1012.299	67.82941
1012.466	-13.34553
1012.633	21.63735
1012.799	-32.54127
1012.966	9.2025
1013.133	11.48055
1013.3	6.95471
1013.467	2.44364
1013.633	-16.74088
1013.8	13.7273
1013.967	50.97904
1014.134	4.69732
1014.3	20.48269
1014.467	2.44648
1014.634	2.44487
1014.8	4.69804
1014.967	29.50373
1015.134	-6.58848
1015.3	29.52538
1015.467	41.92194
1015.633	27.29302
1015.8	-22.38691
1015.966	-31.44383
1016.133	27.27289
1016.3	61.09586
1016.466	10.3499
1016.632	13.72305
1016.799	30.67098
1016.965	72.39192
1017.132	21.60893
1017.298	-16.72988
1017.465	-24.63392
1017.631	45.28918
1017.797	1.31649
1017.964	30.62595
1018.13	59.95521
1018.296	-26.91447
1018.463	-25.74578
1018.629	48.72166
1018.795	-12.21939
1018.961	11.47564
1019.128	4.70423
1019.294	39.66911
1019.46	8.08516
1019.626	10.34388
1019.792	45.3049
1019.959	34.03882
1020.125	-29.15491
1020.291	19.36005
1020.457	-44.96372
1020.623	18.23968
1020.789	-16.73052
1020.955	-39.34037
1021.121	-32.53119
1021.287	9.21314
1021.453	-16.73829
1021.619	1.31614
1021.785	15.98508
1021.951	14.85988
1022.117	-75.41063
1022.283	-7.70791
1022.449	52.12087
1022.615	15.99189
1022.781	43.03909
1022.946	68.96076
1023.112	31.79319
1023.278	63.34438
1023.444	-0.94035
1023.61	-5.4551
1023.775	-37.04993
1023.941	-42.68132
1024.107	-33.68621
1024.273	-35.91664
1024.438	-49.48084
1024.604	5.82704
1024.77	193.45338
1024.935	20.50964
1025.101	-15.62168
1025.267	13.73368
1025.432	3.57265
1025.598	-35.9459
1025.763	1.3168
1025.929	-34.81468
1026.095	2.44563
1026.26	-13.34502
1026.426	-15.60473
1026.591	29.52996
1026.757	45.32593
1026.922	27.27818
1027.087	-13.35224
1027.253	-26.88319
1027.418	-4.32789
1027.584	66.68538
1027.749	-48.32297
1027.914	9.20852
1028.08	9.22244
1028.245	-3.1977
1028.41	-22.38084
1028.576	-12.22365
1028.741	3.57265
1028.906	39.67678
1029.072	-22.39126
1029.237	28.39098
1029.402	-5.45131
1029.567	3.56688
1029.732	13.74222
1029.898	-9.96504
1030.063	46.40867
1030.228	-57.36605
1030.393	-5.45089
1030.558	-37.06861
1030.723	12.59732
1030.888	-28.02036
1031.053	6.96037
1031.218	-32.55517
1031.383	3.57626
1031.548	-0.9401
1031.713	-26.90088
1031.878	-14.49156
1032.043	-35.94451
1032.208	15.99065
1032.373	26.16212
1032.538	-24.60828
1032.703	14.85184
1032.868	-26.88319
1033.033	-21.26683
1033.198	-41.57814
1033.362	-7.71209
1033.527	-14.482
1033.692	23.86101
1033.857	14.8484
1034.021	5.82929
1034.186	14.86046
1034.351	19.38632
1034.516	36.27171
1034.68	-9.96158
1034.845	11.48233
1035.01	-48.33419
1035.174	-21.25775
1035.339	-29.16735
1035.504	-66.42509
1035.668	28.37674
1035.833	-34.80117
1035.997	-47.21949
1036.162	-4.32873
1036.326	-31.43892
1036.491	-59.66476
1036.655	10.34228
1036.82	-52.81116
1036.984	53.19114
1037.149	-7.70732
1037.313	-48.32484
1037.478	25.00518
1037.642	9.21065
1037.807	-45.00222
1037.971	-20.13332
1038.135	33.99554
1038.3	-28.03557
1038.464	-32.48487
1038.628	-42.69289
1038.792	-3.19252
1038.957	-15.62777
1039.121	12.58229
1039.285	-14.47528
1039.449	-49.47508
1039.614	17.11907
1039.778	-43.82728
1039.942	48.71411
1040.106	-4.32722
1040.27	9.21208
1040.434	11.46942
1040.599	-43.82728
1040.763	-21.24623
1040.927	-48.35856
1041.091	-42.74436
1041.255	-14.48874
1041.419	-11.09166
1041.583	-11.09552
1041.747	-25.77167
1041.911	-21.25034
1042.075	-56.24516
1042.239	-63.02695
1042.403	52.07245
1042.567	30.65078
1042.731	54.35773
1042.894	-25.77767
1043.058	21.62561
1043.222	-2.07163
1043.386	34.04409
1043.55	-11.0981
1043.714	26.14486
1043.877	-50.58713
1044.041	-44.92893
1044.205	-7.7229
1044.369	-11.09681
1044.532	-56.25389
1044.696	-26.88215
1044.86	-5.45871
1045.023	56.57106
1045.187	35.14613
1045.351	-35.91525
1045.514	-8.84018
1045.678	22.73328
1045.841	-7.70672
