Data from Subt4__0__10-20-14-245.txt Node

Date: Tue Oct 07 10:20:14 EDT 2025
User: brett
Spectrometer: USB4F03499
Trigger mode: 4
Integration Time (sec): 3.000000E-3
Scans to average: 1
Electric dark correction enabled: true
Nonlinearity correction enabled: true
Boxcar width: 0
XAxis mode: Wavelengths
Number of Pixels in Spectrum: 3648
>>>>>Begin Spectral Data<<<<<
345.386	82.03237
345.605	82.03237
345.824	82.03237
346.044	66.54545
346.263	155.99943
346.482	39.35575
346.701	-22.23784
346.92	7.82689
347.139	-29.8458
347.358	-32.00203
347.577	-4.88992
347.796	12.46934
348.015	-62.5868
348.234	16.87581
348.453	42.02373
348.672	6.60574
348.891	26.40201
349.11	7.33334
349.329	66.69245
349.548	148.28859
349.767	199.37871
349.986	146.49848
350.205	178.7282
350.424	208.50099
350.643	209.50886
350.862	166.44726
351.08	81.1083
351.299	158.65393
351.518	143.60175
351.737	253.67219
351.956	191.92356
352.174	281.68197
352.393	239.99235
352.612	257.75884
352.831	211.32071
353.049	278.64587
353.268	235.09761
353.487	165.65286
353.705	284.36133
353.924	306.93307
354.143	171.39006
354.361	221.63872
354.58	290.09102
354.798	207.42867
355.017	178.92334
355.236	188.81544
355.454	274.99078
355.673	273.83273
355.891	257.63212
356.11	252.72789
356.328	286.08553
356.547	263.49959
356.765	281.4949
356.984	261.2046
357.202	321.89659
357.42	379.01194
357.639	325.4472
357.857	312.89193
358.076	227.03014
358.294	286.9002
358.512	261.14088
358.731	280.89514
358.949	287.08628
359.167	204.24439
359.386	266.61504
359.604	285.17697
359.822	316.8506
360.04	321.66137
360.259	307.81136
360.477	382.78734
360.695	342.38656
360.913	332.57537
361.131	385.27691
361.35	416.9231
361.568	381.89597
361.786	443.29138
362.004	366.79365
362.222	442.66102
362.44	432.02969
362.658	519.57808
362.876	467.52274
363.094	454.72888
363.312	541.49296
363.53	522.26451
363.749	569.23862
363.967	574.56654
364.184	641.08984
364.402	728.75044
364.62	700.40134
364.838	836.24015
365.056	671.34842
365.274	797.13114
365.492	676.65135
365.71	830.00042
365.928	806.01971
366.146	856.35123
366.364	862.92994
366.581	844.62525
366.799	817.17954
367.017	929.99009
367.235	918.61371
367.453	1027.89084
367.67	1023.49062
367.888	1029.42815
368.106	999.18861
368.323	879.07877
368.541	1039.62802
368.759	1214.50634
368.977	1173.08167
369.194	1102.58097
369.412	1042.19
369.629	1171.35208
369.847	981.3305
370.065	1143.95912
370.282	1157.02707
370.5	1250.57922
370.717	1127.35757
370.935	1142.01504
371.152	1184.53938
371.37	1222.03237
371.588	1147.05929
371.805	1142.68473
372.022	1109.93254
372.24	1089.31126
372.457	1226.45331
372.675	1294.96968
372.892	1201.25075
373.11	1270.59238
373.327	1232.82473
373.544	1235.15247
373.762	1202.95994
373.979	1227.78057
374.196	1244.98471
374.414	1223.98369
374.631	1239.695
374.848	1334.63922
375.066	1288.52149
375.283	1382.44925
375.5	1341.97587
375.717	1408.7984
375.935	1396.56566
376.152	1494.03304
376.369	1363.96105
376.586	1492.06592
376.803	1385.68672
377.02	1507.88793
377.238	1444.23527
377.455	1484.69807
377.672	1477.45103
377.889	1474.42104
378.106	1520.84095
378.323	1552.87557
378.54	1554.27196
378.757	1565.24673
378.974	1509.80628
379.191	1671.01684
379.408	1599.86301
379.625	1738.03046
379.842	1547.43388
380.059	1657.08506
380.276	1642.83711
380.493	1613.36949
380.71	1660.02069
380.927	1584.8978
381.143	1575.70274
381.36	1687.49872
381.577	1660.68931
381.794	1633.87742
382.011	1673.04
382.228	1651.2409
382.444	1597.53397
382.661	1683.57011
382.878	1499.16214
383.095	1649.17107
383.311	1694.02926
383.528	1495.06082
383.745	1489.70081
383.962	1681.94157
384.178	1515.84225
384.395	1522.79662
384.612	1467.65772
384.828	1557.38573
385.045	1529.88683
385.261	1559.30918
385.478	1603.56085
385.695	1667.41149
385.911	1742.98976
386.128	1692.47239
386.344	1657.18211
386.561	1707.43435
386.777	1743.54085
386.994	1818.00908
387.21	1883.01683
387.427	1911.30408
387.643	2037.80566
387.86	2049.56461
388.076	1930.29474
388.292	2088.1341
388.509	1997.16259
388.725	2181.42587
388.942	2228.31447
389.158	2422.41464
389.374	2272.63944
389.591	2227.88794
389.807	2123.66721
390.023	2336.36616
390.239	2212.54558
390.456	2328.11277
390.672	2192.44454
390.888	2332.42154
391.104	2192.96358
391.321	2261.80602
391.537	2370.59073
391.753	2451.0677
391.969	2418.4595
392.185	2485.02322
392.401	2467.84022
392.618	2463.37578
392.834	2342.09385
393.05	2500.95157
393.266	2447.21088
393.482	2479.12649
393.698	2402.85038
393.914	2514.31474
394.13	2588.48641
394.346	2512.54408
394.562	2555.25024
394.778	2555.73809
394.994	2552.47496
395.21	2630.1047
395.426	2846.7612
395.642	2760.82568
395.858	2924.70767
396.073	2800.61366
396.289	2965.74783
396.505	2950.31848
396.721	3005.1799
396.937	3130.38287
397.153	2889.18574
397.369	3142.67493
397.584	3453.77092
397.8	3220.87231
398.016	3418.2842
398.232	3767.4397
398.447	3605.00893
398.663	3850.92809
398.879	3856.18842
399.094	4037.19709
399.31	4064.38297
399.526	4004.52922
399.741	4251.61277
399.957	4401.85404
400.173	4299.31348
400.388	4420.64514
400.604	4401.24421
400.82	4551.51931
401.035	4886.76936
401.251	4752.39968
401.466	4701.97069
401.682	5031.61075
401.897	5249.72298
402.113	5333.74598
402.328	5198.78415
402.544	5366.0968
402.759	5170.99948
402.974	5347.91516
403.19	5276.37841
403.405	5486.30116
403.621	5845.36631
403.836	5669.68736
404.051	6070.98649
404.267	5917.68144
404.482	5719.59713
404.697	5544.29787
404.913	5588.4512
405.128	6104.64773
405.343	5801.61556
405.559	5820.27323
405.774	5872.47465
405.989	6183.10993
406.204	6055.21164
406.42	5963.3815
406.635	5972.06583
406.85	5820.54954
407.065	5963.79951
407.28	6121.94906
407.495	6132.15039
407.71	5891.55464
407.926	5964.43081
408.141	6547.43242
408.356	6151.6021
408.571	6270.51291
408.786	6054.80672
409.001	6254.42687
409.216	6567.93524
409.431	6511.21954
409.646	6419.85796
409.861	6481.89773
410.076	6353.91016
410.291	6368.77563
410.506	6680.97989
410.721	6464.90115
410.936	6605.38521
411.15	6649.83582
411.365	6638.569
411.58	6809.81715
411.795	6688.20367
412.01	7105.1764
412.225	7033.60413
412.439	6626.87733
412.654	6924.29792
412.869	6822.1992
413.084	6895.69221
413.299	7027.94622
413.513	6805.58369
413.728	6753.44418
413.943	7085.47308
414.157	7236.37715
414.372	6933.1227
414.587	7136.52119
414.801	7510.88135
415.016	7278.14094
415.231	7439.46556
415.445	7261.68506
415.66	7402.99185
415.874	7620.25765
416.089	7316.14512
416.304	7747.14978
416.518	7426.00293
416.733	7483.77235
416.947	7224.60347
417.162	7371.53291
417.376	7614.10972
417.59	7943.04264
417.805	7750.08556
418.019	7544.38034
418.234	7466.74438
418.448	7370.35445
418.663	7707.98829
418.877	7616.51862
419.091	7761.95997
419.306	7707.59987
419.52	7548.37824
419.734	7556.8604
419.949	7930.23159
420.163	8232.63
420.377	7496.95751
420.591	7600.97832
420.806	7866.49798
421.02	7673.88066
421.234	8078.61456
421.448	7848.43407
421.663	7911.07921
421.877	7818.11773
422.091	7633.88045
422.305	7649.81975
422.519	7798.13827
422.733	8361.31119
422.947	7877.9857
423.161	7943.76795
423.376	7896.40021
423.59	8029.36521
423.804	8034.61892
424.018	8037.85218
424.232	8039.96008
424.446	8456.27096
424.66	8330.41143
424.874	8090.37263
425.088	7848.82683
425.302	8022.8002
425.515	8414.77645
425.729	8418.37027
425.943	8599.46932
426.157	8485.41396
426.371	8179.91713
426.585	8336.51027
426.799	8221.73524
427.013	8760.65359
427.226	8726.4005
427.44	8097.18546
427.654	7862.44006
427.868	8013.86845
428.081	8259.27731
428.295	8177.90363
428.509	8063.08901
428.723	8089.33855
428.936	8252.7165
429.15	7931.18407
429.364	8188.64118
429.577	7733.20427
429.791	8094.55405
430.005	8566.16562
430.218	8551.02943
430.432	8035.34634
430.645	8112.54275
430.859	8317.29784
431.073	8508.46525
431.286	8939.1558
431.5	8934.95681
431.713	8646.11782
431.927	8528.12114
432.14	8832.73274
432.354	8809.05843
432.567	8563.22991
432.781	9238.73262
432.994	9167.48548
433.207	9240.71156
433.421	9590.55897
433.634	9461.4064
433.848	9745.07473
434.061	9465.50178
434.274	8832.50423
434.488	9305.16121
434.701	9227.51023
434.914	9256.94657
435.127	9913.52406
435.341	9914.66366
435.554	10050.72665
435.767	10455.68402
435.98	10595.73239
436.194	9947.9745
436.407	10025.9209
436.62	11189.14537
436.833	10809.98449
437.046	10488.18681
437.259	10366.72474
437.473	10695.6651
437.686	11051.21676
437.899	10764.46241
438.112	11166.51273
438.325	10561.4398
438.538	10736.41418
438.751	11680.49591
438.964	10853.32408
439.177	11093.87998
439.39	11255.23029
439.603	11915.37047
439.816	11445.58069
440.029	12060.48228
440.242	12318.6283
440.455	12545.91956
440.668	12157.95443
440.881	11485.19867
441.094	11507.23204
441.306	11940.4488
441.519	12770.21635
441.732	12517.09489
441.945	12763.94836
442.158	11926.09802
442.37	11851.67864
442.583	12465.78712
442.796	12964.17077
443.009	12716.83669
443.222	12493.05685
443.434	11857.12184
443.647	12895.25116
443.86	13330.72313
444.072	13776.39661
444.285	13325.42765
444.498	13671.97768
444.71	13193.38376
444.923	13426.77342
445.136	12973.35699
445.348	12784.55247
445.561	12882.31896
445.773	13303.64818
445.986	12421.9002
446.198	13769.23416
446.411	13840.57265
446.623	14223.25377
446.836	13849.38022
447.048	14099.58484
447.261	14620.06799
447.473	14541.05473
447.686	13901.67443
447.898	14187.9457
448.11	15062.55371
448.323	15214.69757
448.535	14963.45348
448.748	14167.09299
448.96	13905.62062
449.172	14391.29617
449.385	13705.75443
449.597	14478.29268
449.809	14455.82286
450.021	14862.76808
450.234	14913.43336
450.446	14084.32091
450.658	14294.82665
450.87	14594.70427
451.083	14719.71543
451.295	15037.63537
451.507	14592.93975
451.719	14553.16679
451.931	15120.39249
452.143	15203.59322
452.356	14686.67937
452.568	14927.96665
452.78	14905.58446
452.992	15395.04802
453.204	15873.12287
453.416	15371.9683
453.628	14601.65455
453.84	15017.06752
454.052	15027.6641
454.264	15836.509
454.476	15644.32981
454.688	16487.5607
454.9	16681.80535
455.112	15709.03125
455.324	15107.47257
455.536	15780.12551
455.747	16034.13397
455.959	16085.30499
456.171	16337.45479
456.383	15716.19366
456.595	14984.75527
456.807	15460.9752
457.018	15310.1775
457.23	16313.29612
457.442	15417.3104
457.654	16015.09035
457.865	15877.82639
458.077	15478.26765
458.289	15594.15703
458.501	15823.14836
458.712	16851.88395
458.924	17470.13962
459.136	16540.70353
459.347	16135.52277
459.559	16371.70575
459.77	17439.92841
459.982	17548.15026
460.194	17467.28166
460.405	16446.1009
460.617	16712.0914
460.828	17770.04924
461.04	17731.41872
461.251	17093.87203
461.463	18673.368
461.674	18188.61757
461.886	18240.00208
462.097	17461.9045
462.309	17935.8378
462.52	17187.12801
462.731	18858.30719
462.943	17480.73916
463.154	17231.22118
463.366	17506.88688
463.577	18076.08169
463.788	18620.70426
464	18647.86314
464.211	18939.67491
464.422	20168.57193
464.634	19612.54448
464.845	19403.72835
465.056	19625.34162
465.267	19745.28058
465.478	18665.4583
465.69	19870.70538
465.901	19404.39135
466.112	19896.65286
466.323	19922.7252
466.534	20436.68423
466.745	20573.39956
466.957	20546.6162
467.168	20340.89591
467.379	20287.23569
467.59	19946.45331
467.801	19524.40211
468.012	20530.29802
468.223	20504.54221
468.434	20073.83319
468.645	21274.83132
468.856	21682.19643
469.067	21333.76168
469.278	21573.14271
469.489	21770.69346
469.7	20812.93007
469.911	20991.90889
470.122	22533.39636
470.333	23102.43844
470.543	21712.69217
470.754	22809.82025
470.965	22619.21556
471.176	22719.73882
471.387	23743.82003
471.598	22912.16594
471.808	22722.48502
472.019	23252.80092
472.23	23526.77416
472.441	23386.02018
472.651	23886.31131
472.862	23831.89848
473.073	24654.57781
473.283	24125.3344
473.494	23724.79155
473.705	24142.97225
473.915	24458.7228
474.126	25964.11358
474.337	25354.713
474.547	25766.20065
474.758	26193.3398
474.968	25924.01991
475.179	26305.75781
475.389	26575.24466
475.6	26491.60834
475.81	27017.81644
476.021	27521.59633
476.231	27508.92888
476.442	27563.01496
476.652	27401.17957
476.863	27637.43542
477.073	27834.08656
477.284	28153.80291
477.494	28293.14959
477.704	29433.19174
477.915	30266.73039
478.125	28807.4038
478.335	29692.27772
478.546	30612.83534
478.756	29665.68231
478.966	30477.20515
479.177	30554.39602
479.387	30921.41651
479.597	30923.42194
479.807	30871.50573
480.018	31128.99043
480.228	31682.1429
480.438	31591.24262
480.648	32061.92666
480.858	31836.47115
481.068	31553.6571
481.279	32055.79638
481.489	32924.91723
481.699	32928.54204
481.909	32683.0344
482.119	33922.05574
482.329	33839.59869
482.539	33580.84181
482.749	33439.95256
482.959	33458.7665
483.169	34107.58656
483.379	33797.76088
483.589	34202.4853
483.799	33877.65168
484.009	33976.85604
484.219	33799.19938
484.429	34392.07967
484.639	34107.09569
484.849	34350.52311
485.059	34822.86805
485.268	34920.28918
485.478	35025.38572
485.688	34255.12168
485.898	34552.93363
486.108	34948.16016
486.317	34818.30881
486.527	35263.64874
486.737	35652.0721
486.947	35418.38809
487.156	36020.58696
487.366	35947.89722
487.576	35577.19994
487.785	35768.18862
487.995	35669.09367
488.205	36131.7609
488.414	36289.1204
488.624	36348.88425
488.834	36155.60774
489.043	36157.36619
489.253	36023.58298
489.462	36500.05539
489.672	36791.92923
489.882	36899.5691
490.091	36930.35471
490.301	36950.74281
490.51	36984.75889
490.72	37266.37521
490.929	37327.18525
491.138	37494.21361
491.348	37404.08728
491.557	37497.87196
491.767	37625.77206
491.976	37662.79726
492.185	37808.33538
492.395	37854.89242
492.604	38082.28696
492.813	38050.73808
493.023	38255.4519
493.232	38160.41756
493.441	38270.86238
493.651	38401.88456
493.86	38283.3819
494.069	38487.77945
494.278	38492.91981
494.488	38499.59344
494.697	38617.38883
494.906	38571.15386
495.115	38672.8784
495.324	38593.905
495.533	38751.80288
495.743	38623.65612
495.952	38733.47636
496.161	38677.64366
496.37	38835.57319
496.579	38766.88262
496.788	38888.83687
496.997	38819.41169
497.206	38825.42947
497.415	38884.0617
497.624	38869.38872
497.833	38931.08228
498.042	38860.64846
498.251	38837.16319
498.46	38964.88581
498.669	38865.77271
498.878	38946.93565
499.087	38929.25672
499.296	39008.98565
499.504	38923.7683
499.713	38990.69284
499.922	38957.22256
500.131	39022.31748
500.34	38941.13963
500.549	39063.39969
500.757	39003.85818
500.966	39040.63724
501.175	38985.47239
501.384	39014.26135
501.592	38939.22757
501.801	39017.56946
502.01	38851.28786
502.218	39017.17988
502.427	38955.04698
502.636	39037.00444
502.844	38980.02062
503.053	39034.03927
503.262	39024.84409
503.47	39060.09794
503.679	39051.66412
503.887	39093.51544
504.096	39003.38581
504.304	39067.82396
504.513	39091.72777
504.721	39117.7808
504.93	39055.44011
505.138	39124.41713
505.347	39036.85121
505.555	39099.16254
505.764	39102.09447
505.972	39123.75126
506.18	39135.48666
506.389	39168.5752
506.597	39112.85563
506.806	39159.42167
507.014	39144.03519
507.222	39169.76768
507.431	39208.24004
507.639	39167.97235
507.847	39195.05866
508.055	39202.8609
508.264	39231.42959
508.472	39246.90564
508.68	39177.61366
508.888	39288.80586
509.096	39210.66998
509.305	39296.57777
509.513	39313.81769
509.721	39325.60249
509.929	39293.64481
510.137	39402.00765
510.345	39332.93878
510.553	39388.83896
510.762	39384.41411
510.97	39412.05076
511.178	39428.13075
511.386	39438.49939
511.594	39429.63874
511.802	39453.9756
512.01	39446.60075
512.218	39450.72328
512.426	39477.81496
512.634	39473.16075
512.842	39487.38322
513.049	39477.21334
513.257	39470.16779
513.465	39508.04593
513.673	39482.28276
513.881	39540.00941
514.089	39525.28495
514.297	39547.00772
514.504	39520.51572
514.712	39505.51797
514.92	39524.93094
515.128	39492.73826
515.336	39543.69614
515.543	39566.09944
515.751	39521.65537
515.959	39520.64232
516.166	39520.92831
516.374	39518.85095
516.582	39480.67832
516.789	39500.44634
516.997	39516.54126
517.205	39531.89811
517.412	39530.0648
517.62	39430.69067
517.827	39516.07124
518.035	39470.92251
518.243	39445.90024
518.45	39478.16427
518.658	39407.6232
518.865	39367.65685
519.073	39354.77609
519.28	39344.43144
519.488	39375.58633
519.695	39306.58542
519.902	39354.63159
520.11	39337.00009
520.317	39335.19599
520.525	39330.78231
520.732	39345.49007
520.939	39331.50875
521.147	39365.66595
521.354	39381.41949
521.561	39325.36156
521.769	39409.37133
521.976	39403.89258
522.183	39363.10653
522.391	39400.24971
522.598	39414.92785
522.805	39435.15663
523.012	39439.18811
523.219	39381.22651
523.427	39395.57317
523.634	39479.26113
523.841	39529.26884
524.048	39416.46515
524.255	39483.34256
524.462	39457.21945
524.669	39447.84368
524.877	39458.37737
525.084	39493.72405
525.291	39447.00392
525.498	39506.95559
525.705	39469.84945
525.912	39501.87643
526.119	39483.4269
526.326	39541.88846
526.533	39504.77697
526.74	39501.2485
526.947	39454.71447
527.153	39538.32282
527.36	39544.12365
527.567	39560.00483
527.774	39511.52423
527.981	39635.65766
528.188	39575.35703
528.395	39613.63322
528.602	39555.62456
528.808	39597.52482
529.015	39602.63467
529.222	39626.54648
529.429	39595.35172
529.635	39637.19584
529.842	39609.27446
530.049	39640.52226
530.256	39616.64038
530.462	39628.45734
530.669	39642.71644
530.876	39653.43988
531.082	39671.411
531.289	39676.59702
531.495	39597.03297
531.702	39691.31525
531.909	39650.19767
532.115	39685.43091
532.322	39661.20325
532.528	39720.36144
532.735	39700.47139
532.941	39729.53417
533.148	39750.82962
533.354	39704.63246
533.561	39699.12901
533.767	39725.25327
533.974	39768.49872
534.18	39747.62087
534.387	39658.05444
534.593	39774.04953
534.799	39712.72504
535.006	39796.1081
535.212	39693.34789
535.418	39766.04829
535.625	39747.24305
535.831	39735.27227
536.037	39710.63534
536.244	39728.6671
536.45	39725.25327
536.656	39738.58566
536.862	39802.01414
537.068	39823.04596
537.275	39735.67683
537.481	39796.95805
537.687	39761.64674
537.893	39770.21316
538.099	39763.87259
538.305	39795.9212
538.512	39738.99028
538.718	39787.46534
538.924	39729.12026
539.13	39754.18977
539.336	39799.15191
539.542	39816.09819
539.748	39805.38703
539.954	39854.65545
540.16	39773.48724
540.366	39835.98068
540.572	39790.72591
540.778	39843.30537
540.984	39817.53676
541.19	39827.57398
541.396	39831.8573
541.602	39807.06793
541.807	39821.57767
542.013	39859.49725
542.219	39801.44401
542.425	39819.86011
542.631	39810.26253
542.837	39828.7164
543.042	39790.11609
543.248	39835.66861
543.454	39853.20826
543.66	39831.66873
543.865	39833.04565
544.071	39846.73368
544.277	39815.42325
544.483	39890.40174
544.688	39825.38324
544.894	39843.38344
545.1	39823.91672
545.305	39857.07672
545.511	39795.7064
545.716	39855.6105
545.922	39838.22269
546.128	39795.14217
546.333	39872.02583
546.539	39903.27003
546.744	39865.77561
546.95	39911.02727
547.155	39843.36641
547.361	39868.08508
547.566	39861.40367
547.772	39920.93442
547.977	39867.99985
548.182	39908.09001
548.388	39828.7164
548.593	39893.02973
548.799	39841.95305
549.004	39875.40217
549.209	39869.862
549.415	39883.79978
549.62	39842.71551
549.825	39893.70373
550.031	39859.54102
550.236	39853.26115
550.441	39781.37007
550.646	39900.63292
550.852	39791.60326
551.057	39811.34969
551.262	39835.93691
551.467	39787.41237
551.672	39791.15982
551.878	39800.21514
552.083	39782.97816
552.288	39780.73898
552.493	39759.45475
552.698	39750.71391
552.903	39764.58103
553.108	39747.6684
553.313	39691.25902
553.518	39732.60382
553.723	39750.58629
553.928	39740.05122
554.133	39749.84481
554.338	39756.1414
554.543	39730.01511
554.748	39742.20007
554.953	39732.96601
555.158	39736.29731
555.363	39736.24516
555.568	39733.80678
555.773	39736.2292
555.978	39768.99885
556.182	39716.41824
556.387	39829.57109
556.592	39725.99568
556.797	39767.89439
557.002	39736.27922
557.206	39810.15556
557.411	39747.28915
557.616	39758.76697
557.821	39725.29135
558.025	39800.57911
558.23	39746.56398
558.435	39876.68745
558.64	39760.88898
558.844	39770.91643
559.049	39766.4272
559.253	39768.36552
559.458	39738.86817
559.663	39774.22998
559.867	39729.75001
560.072	39765.41347
560.276	39766.82365
560.481	39781.94267
560.685	39741.51686
560.89	39768.70741
561.094	39746.27568
561.299	39779.33536
561.503	39735.38733
561.708	39783.40919
561.912	39731.6893
562.117	39810.95404
562.321	39743.04762
562.525	39798.83707
562.73	39821.92863
562.934	39808.0193
563.139	39741.22209
563.343	39800.32142
563.547	39751.8184
563.752	39781.52725
563.956	39766.49841
564.16	39763.2247
564.364	39820.81205
564.569	39778.66777
564.773	39741.9662
564.977	39787.41237
565.181	39734.91124
565.385	39754.36852
565.59	39763.47659
565.794	39694.49818
565.998	39729.68958
566.202	39782.84704
566.406	39680.45635
566.61	39721.14681
566.814	39700.49811
567.018	39633.69427
567.222	39624.05889
567.426	39609.36214
567.63	39632.76612
567.834	39663.21318
568.038	39554.46816
568.242	39606.1975
568.446	39545.94043
568.65	39492.41729
568.854	39495.59927
569.058	39544.75334
569.262	39462.5544
569.466	39479.36107
569.67	39418.18903
569.874	39448.79611
570.078	39409.92029
570.281	39403.92428
570.485	39474.08482
570.689	39346.19114
570.893	39284.63275
571.097	39221.34101
571.3	39243.2858
571.504	39229.63055
571.708	39194.39839
571.912	39214.85829
572.115	39167.43672
572.319	39178.12778
572.523	39091.79223
572.726	39112.06431
572.93	39054.67271
573.133	39056.24529
573.337	39050.59001
573.541	39038.47096
573.744	39009.11093
573.948	39006.10872
574.151	39002.79157
574.355	38951.73943
574.558	38943.31806
574.762	38998.32528
574.965	38927.44059
575.169	38904.74401
575.372	38880.03333
575.576	38930.39043
575.779	38824.94967
575.983	38878.25121
576.186	38713.81052
576.389	38861.34205
576.593	38816.08981
576.796	38821.43016
577	38661.98401
577.203	38874.50417
577.406	38741.17114
577.609	38840.34764
577.813	38703.76806
578.016	38772.43777
578.219	38770.93784
578.423	38728.32466
578.626	38735.32347
578.829	38710.68267
579.032	38727.58794
579.235	38672.2095
579.438	38642.10787
579.642	38717.31187
579.845	38729.76696
580.048	38714.4354
580.251	38696.34374
580.454	38754.77933
580.657	38608.99924
580.86	38808.37511
581.063	38538.23496
581.266	38796.62461
581.469	38604.92159
581.672	38714.77746
581.875	38585.87255
582.078	38678.76857
582.281	38587.66073
582.484	38708.46381
582.687	38537.85796
582.89	38635.78183
583.093	38636.84995
583.296	38639.42225
583.499	38594.64119
583.702	38595.00665
583.904	38519.17605
584.107	38617.75727
584.31	38542.19031
584.513	38593.16436
584.716	38552.06174
584.918	38533.35006
585.121	38495.89117
585.324	38507.28598
585.527	38469.45036
585.729	38522.65665
585.932	38422.80817
586.135	38435.65506
586.337	38253.99132
586.54	38251.07464
586.743	38147.94372
586.945	38100.61874
587.148	37863.70757
587.35	37927.17005
587.553	37734.69563
587.755	37730.23939
587.958	37589.48807
588.161	37599.38971
588.363	37502.26909
588.566	37435.614
588.768	37329.12505
588.971	37286.93752
589.173	37096.83633
589.375	37127.59196
589.578	36820.0445
589.78	36790.0403
589.983	36630.10587
590.185	36684.25351
590.387	36254.57453
590.59	36549.09225
590.792	36157.65091
590.994	36151.59297
591.197	36352.30967
591.399	36022.74204
591.601	36205.61784
591.803	35782.50674
592.006	35706.54394
592.208	35770.34865
592.41	35703.58913
592.612	35658.17305
592.815	35559.83901
593.017	35596.67324
593.219	35179.93506
593.421	35272.08297
593.623	35379.00395
593.825	35424.17636
594.027	35052.92121
594.229	35298.71212
594.432	35217.55306
594.634	35382.63967
594.836	35056.35792
595.038	35518.68012
595.24	35174.29014
595.442	35537.33614
595.644	35487.62177
595.846	35401.258
596.048	35396.97257
596.249	35467.88944
596.451	35695.83176
596.653	35839.62074
596.855	35534.74206
597.057	35848.26292
597.259	35539.69439
597.461	35847.76389
597.663	35806.76799
597.864	35955.75759
598.066	35776.14267
598.268	35980.40295
598.47	35837.57266
598.671	35963.99826
598.873	35777.34368
599.075	35920.95625
599.277	36151.96443
599.478	35772.21806
599.68	35767.81783
599.882	36170.18468
600.083	35929.80191
600.285	35932.10575
600.487	35935.51131
600.688	35917.06407
600.89	36192.26214
601.091	36067.76792
601.293	36125.66675
601.494	36177.59416
601.696	36011.60612
601.898	36112.70093
602.099	36297.70861
602.301	36287.09819
602.502	36294.74678
602.703	36449.23303
602.905	36394.58127
603.106	36580.3784
603.308	36373.84523
603.509	36696.41898
603.711	36255.40178
603.912	36339.37062
604.113	36316.74929
604.315	36258.19093
604.516	36363.46598
604.717	36333.57273
604.919	36313.79259
605.12	36228.74447
605.321	36626.88295
605.522	36498.07639
605.724	36498.63845
605.925	36257.24097
606.126	36484.2786
606.327	36430.46719
606.528	36532.22963
606.729	36516.34415
606.931	36670.14329
607.132	36538.0168
607.333	36371.31191
607.534	36388.03946
607.735	36519.0329
607.936	36341.2512
608.137	36487.58453
608.338	36411.11482
608.539	36529.20467
608.74	36346.69029
608.941	36413.40221
609.142	36164.93322
609.343	36180.34338
609.544	36314.27365
609.745	36149.23699
609.946	36336.43913
610.147	36234.76408
610.348	36267.48294
610.549	36026.14607
610.75	36140.59347
610.95	36091.62275
611.151	35977.28881
611.352	36033.179
611.553	36071.57001
611.754	36030.63351
611.954	36152.58246
612.155	35792.22517
612.356	35933.36754
612.557	35639.29584
612.757	35911.78209
612.958	35624.50324
613.159	35899.28215
613.359	35594.87854
613.56	35509.11961
613.761	35501.87783
613.961	35505.60366
614.162	35425.95945
614.362	35460.42405
614.563	35348.19774
614.764	35515.03925
614.964	35298.68892
615.165	35437.40102
615.365	35218.48177
615.566	35165.96814
615.766	35248.91629
615.967	35437.35905
616.167	35049.51899
616.368	35039.41385
616.568	35002.0526
616.768	35219.45564
616.969	35180.01763
617.169	35497.78407
617.37	35063.0281
617.57	35207.78424
617.77	34994.47289
617.971	34880.91026
618.171	34935.74343
618.371	34889.83397
618.571	34958.6466
618.772	35141.65571
618.972	35010.01189
619.172	34907.1311
619.372	34689.87543
619.573	34850.89734
619.773	34843.45882
619.973	34910.32001
620.173	34693.98431
620.373	34832.9064
620.573	34651.71153
620.774	34780.67633
620.974	34643.32561
621.174	34584.63121
621.374	34701.76347
621.574	34875.0213
621.774	34380.24789
621.974	34393.43203
622.174	34338.9444
622.374	34658.16648
622.574	34474.91692
622.774	34260.36059
622.974	34450.57411
623.174	34567.84956
623.374	34400.07576
623.574	34425.71122
623.774	34428.47304
623.973	34210.46462
624.173	34173.81361
624.373	34222.75185
624.573	33930.14937
624.773	34022.95585
624.973	33936.92922
625.172	33893.92918
625.372	33855.51447
625.572	33742.24743
625.772	33678.6598
625.971	33312.7889
626.171	33478.36734
626.371	33570.04315
626.57	33050.04698
626.77	33687.38073
626.97	33398.43927
627.169	33307.42769
627.369	33195.67089
627.569	33332.5118
627.768	32815.01486
627.968	33114.12074
628.167	32849.49638
628.367	33081.96359
628.566	32644.12588
628.766	32888.38267
628.965	32539.83546
629.165	32675.14675
629.364	32556.53378
629.564	32766.0513
629.763	32517.9291
629.963	32443.94489
630.162	32499.50177
630.362	32364.38789
630.561	32256.59248
630.76	32368.09955
630.96	32247.56344
631.159	32473.35895
631.358	32385.02546
631.558	32363.76302
631.757	32381.43828
631.956	32257.98787
632.155	32145.63991
632.355	32000.0626
632.554	32184.91405
632.753	32052.55976
632.952	32014.91136
633.152	32034.73505
633.351	31874.36585
633.55	32104.3357
633.749	32104.64268
633.948	32213.19047
634.147	31842.29762
634.346	31980.30607
634.545	31954.04924
634.744	31946.21293
634.944	31846.68889
635.143	32108.78231
635.342	31828.23565
635.541	32165.57837
635.74	31879.2066
635.939	31898.0897
636.138	31867.15244
636.336	32067.75657
636.535	31601.49087
636.734	31796.67784
636.933	32089.31549
637.132	31945.04595
637.331	31787.54331
637.53	32094.86448
637.729	31787.73165
637.928	32034.20637
638.126	31998.75847
638.325	31799.76463
638.524	31856.91558
638.723	31624.49683
638.921	31913.65265
639.12	31586.19252
639.319	31842.43606
639.518	31937.48929
639.716	31643.52442
639.915	31571.37254
640.114	31784.69962
640.312	31770.29118
640.511	31454.19393
640.71	31746.50747
640.908	31669.57102
641.107	31459.22584
641.305	31390.97079
641.504	31652.37392
641.702	31307.94438
641.901	31377.10444
642.099	31448.54559
642.298	30954.26287
642.496	31447.49398
642.695	31181.62567
642.893	30906.12617
643.092	31007.27266
643.29	30894.10405
643.489	30792.2733
643.687	30698.31515
643.885	30798.59778
644.084	30756.6604
644.282	30568.93212
644.48	30666.31938
644.679	30510.58059
644.877	30230.84273
645.075	30415.84018
645.274	30069.79248
645.472	29957.13446
645.67	29734.25767
645.868	29803.16869
646.067	29670.93501
646.265	29735.96685
646.463	29652.48006
646.661	29312.36707
646.859	29191.085
647.057	28955.41438
647.256	29133.47532
647.454	29177.36355
647.652	29050.95772
647.85	29160.00049
648.048	29033.64231
648.246	28831.94221
648.444	28603.70214
648.642	28479.53957
648.84	28285.44319
649.038	28555.35545
649.236	28056.5143
649.434	28497.9281
649.632	28131.94398
649.83	28479.86755
650.028	28100.20484
650.226	28044.19896
650.423	27761.49783
650.621	28229.117
650.819	27718.33054
651.017	27616.6997
651.215	27779.76937
651.413	27922.75692
651.61	27591.66369
651.808	27667.12595
652.006	27752.64194
652.204	27548.00764
652.401	27618.74237
652.599	27493.59144
652.797	27473.37845
652.995	27382.33185
653.192	27185.88762
653.39	27212.0257
653.588	27232.81107
653.785	26790.91289
653.983	26668.53595
654.18	26715.12127
654.378	26697.76584
654.576	26793.14173
654.773	26488.55279
654.971	26576.00483
655.168	26358.90692
655.366	26628.32196
655.563	26132.8382
655.761	26560.89909
655.958	26226.2454
656.156	26313.64602
656.353	26108.75133
656.55	26390.68959
656.748	26383.30919
656.945	26183.0752
657.143	26165.2105
657.34	26332.76813
657.537	26342.80974
657.735	26273.26698
657.932	26077.39967
658.129	26103.45021
658.326	25931.68184
658.524	26457.4776
658.721	26367.10597
658.918	26297.44454
659.115	25870.1289
659.313	26419.80093
659.51	25899.46585
659.707	26494.16316
659.904	26129.93314
660.101	26537.95796
660.298	26220.16784
660.496	26147.00213
660.693	26179.96141
660.89	26171.71367
661.087	26004.26388
661.284	26184.05997
661.481	26179.05033
661.678	26230.88952
661.875	26258.56467
662.072	26467.55651
662.269	26461.38299
662.466	26841.40294
662.663	26378.96215
662.86	26537.91371
663.057	26366.87222
663.254	26483.98569
663.45	26532.71398
663.647	26444.35186
663.844	26846.61838
664.041	26540.66499
664.238	26554.64411
664.435	26354.33487
664.631	26596.53049
664.828	26768.20211
665.025	26583.98577
665.222	26509.3609
665.419	26468.23112
665.615	26776.89743
665.812	26746.59267
666.009	26462.35993
666.205	26376.46
666.402	26442.68795
666.599	26457.4544
666.795	26325.48546
666.992	26346.02158
667.188	26458.05474
667.385	26206.27503
667.582	26574.46991
667.778	26155.03086
667.975	26365.64344
668.171	26317.71176
668.368	26203.93014
668.564	26247.24255
668.761	26297.12782
668.957	25956.42498
669.154	26076.42917
669.35	25830.43097
669.547	25753.10857
669.743	26138.19436
669.939	25828.19213
670.136	25916.08895
670.332	25873.98274
670.528	25495.77712
670.725	25939.34444
670.921	25798.2151
671.117	25739.77742
671.314	25592.36719
671.51	25738.60618
671.706	25664.83586
671.902	25536.19679
672.099	25639.96373
672.295	25474.77185
672.491	25617.51432
672.687	25217.30057
672.883	25280.40471
673.08	25418.70293
673.276	25469.44029
673.472	25334.54575
673.668	25309.73581
673.864	25165.103
674.06	25363.68219
674.256	25214.22447
674.452	24668.76072
674.648	24983.04475
674.844	24968.49239
675.04	25319.07724
675.236	24990.58023
675.432	24890.32646
675.628	24934.44323
675.824	24951.42538
676.02	25153.57874
676.216	24855.52875
676.412	24687.11891
676.608	24744.29176
676.804	24723.9641
676.999	24709.31883
677.195	24367.23636
677.391	24701.53839
677.587	24301.67606
677.783	24666.96037
677.978	24399.1417
678.174	24790.83474
678.37	24556.02614
678.566	24590.56125
678.761	24302.33217
678.957	24490.69181
679.153	24108.59016
679.348	24147.41216
679.544	24326.66344
679.74	24375.47274
679.935	24320.56965
680.131	24352.47582
680.327	24299.99325
680.522	24235.70923
680.718	24036.47436
680.913	24206.05195
681.109	23956.90785
681.304	24043.01281
681.5	24063.26306
681.695	24116.26547
681.891	23830.63201
682.086	23792.17731
682.282	23688.19796
682.477	23884.99019
682.672	23634.09981
682.868	23696.24212
683.063	23608.43611
683.259	23780.48533
683.454	23492.5199
683.649	23608.14806
683.845	23048.69463
684.04	23253.75393
684.235	23132.97894
684.43	23436.17686
684.626	22742.77907
684.821	22869.87196
685.016	22624.17388
685.211	22481.87597
685.407	22258.11862
685.602	22226.49094
685.797	21743.03234
685.992	21715.75171
686.187	21873.44715
686.382	21813.64243
686.577	21267.40978
686.773	21321.85615
686.968	20962.18993
687.163	21139.18913
687.358	20652.68124
687.553	20682.25786
687.748	20715.93249
687.943	20566.32711
688.138	20568.69936
688.333	20606.56486
688.528	20149.20993
688.723	20323.62615
688.918	20153.29536
689.112	19911.43936
689.307	19880.65172
689.502	19792.5245
689.697	19731.96289
689.892	19813.79009
690.087	19567.43013
690.282	19704.69813
690.476	19460.45764
690.671	19507.51384
690.866	19249.97951
691.061	19314.51496
691.255	19285.01243
691.45	19281.6193
691.645	18952.04157
691.84	19125.96771
692.034	18873.0787
692.229	18940.50218
692.424	18632.11733
692.618	18904.46707
692.813	18508.52249
693.007	18744.71155
693.202	18758.32451
693.397	18964.82049
693.591	18549.05123
693.786	18641.22914
693.98	18841.59554
694.175	18845.62767
694.369	18745.58015
694.564	18961.40112
694.758	18794.87967
694.953	19099.32199
695.147	19075.72031
695.342	19005.51173
695.536	18815.83278
695.73	19293.30106
695.925	18897.0213
696.119	19345.42106
696.313	18853.97415
696.508	19102.89818
696.702	18953.22457
696.896	19043.96212
697.091	19189.93314
697.285	19344.5797
697.479	19143.53124
697.673	19096.18521
697.868	18932.55278
698.062	19067.49051
698.256	18774.31039
698.45	19127.5876
698.644	18941.38475
698.839	19134.6508
699.033	18871.22557
699.227	19045.92925
699.421	18756.98919
699.615	18968.21055
699.809	19063.88024
700.003	19037.57961
700.197	18860.18353
700.391	19132.95417
700.585	18754.85868
700.779	19128.30357
700.973	19113.65927
701.167	18948.48678
701.361	19197.12762
701.555	19201.49646
701.749	18792.19541
701.943	18916.41213
702.137	19047.3573
702.331	19181.91422
702.525	18864.6885
702.718	19049.87543
702.912	18793.57613
703.106	18977.02001
703.3	18834.20036
703.494	18972.61344
703.687	18728.70143
703.881	18949.16372
704.075	18922.11783
704.269	18884.05309
704.462	18996.08162
704.656	19004.14856
704.85	18946.94081
705.043	18984.12117
705.237	18897.41576
705.431	19055.03852
705.624	18940.77725
705.818	19234.52432
706.012	19069.46723
706.205	19111.9944
706.399	19096.67902
706.592	19400.58781
706.786	19229.91801
706.979	19253.99424
707.173	19213.94774
707.366	19389.54139
707.56	19255.07727
707.753	19419.39114
707.947	19496.95028
708.14	19462.21941
708.333	19406.9424
708.527	19352.871
708.72	19345.8715
708.914	19611.46116
709.107	19454.34353
709.3	19565.76339
709.494	19422.27955
709.687	19312.34879
709.88	19722.13545
710.073	19572.19285
710.267	19573.6593
710.46	19461.88786
710.653	19549.60968
710.846	19413.59232
711.04	19682.85605
711.233	19669.01629
711.426	19614.50831
711.619	19576.97578
711.812	19602.41073
712.005	19769.57763
712.198	19292.16971
712.391	19489.98749
712.585	19205.77632
712.778	19331.22873
712.971	19369.69986
713.164	19425.95121
713.357	19333.43657
713.55	19261.64178
713.743	19077.22492
713.936	19211.68215
714.129	18886.44971
714.322	18753.35805
714.514	18835.25332
714.707	18640.81283
714.9	18417.92786
715.093	18458.51189
715.286	17905.8733
715.479	18104.01229
715.672	17953.22176
715.864	17619.80393
716.057	17432.6424
716.25	17092.01773
716.443	17072.33583
716.636	16744.63696
716.828	16791.54092
717.021	16458.25043
717.214	16154.08744
717.406	16156.34003
717.599	15952.65681
717.792	15538.6394
717.984	15570.27609
718.177	15485.3133
718.37	15109.0331
718.562	15111.76386
718.755	14997.61882
718.947	14899.76305
719.14	14616.55849
719.333	14641.77817
719.525	14499.68578
719.718	14387.95125
719.91	14319.21205
720.103	14286.80432
720.295	14039.76066
720.487	14111.91615
720.68	13883.22131
720.872	13797.02051
721.065	13651.02196
721.257	13746.84931
721.449	13508.67347
721.642	13421.00103
721.834	13157.98415
722.026	13233.87604
722.219	13086.12889
722.411	13032.60786
722.603	13006.80193
722.796	13056.77583
722.988	12708.00216
723.18	12855.04016
723.372	12643.67771
723.565	12877.73635
723.757	12546.22334
723.949	12667.1389
724.141	12665.76991
724.333	12826.88108
724.525	12661.79437
724.717	12952.3396
724.91	12541.40291
725.102	12635.57592
725.294	12516.02198
725.486	12830.3616
725.678	12594.51475
725.87	12810.65178
726.062	12848.61649
726.254	12864.7194
726.446	12695.10539
726.638	13016.76721
726.83	12657.46875
727.022	12762.75347
727.213	12697.2561
727.405	12766.37685
727.597	12617.52662
727.789	12662.05635
727.981	12544.47403
728.173	12577.30538
728.365	12583.56181
728.556	12722.29944
728.748	12476.14555
728.94	12602.81796
729.132	12509.37536
729.324	12603.47517
729.515	12489.92364
729.707	12572.13223
729.899	12628.38477
730.09	12547.59279
730.282	12642.4198
730.474	12783.30637
730.665	12766.27289
730.857	12903.24501
731.049	12940.3978
731.24	13116.87309
731.432	12904.41474
731.623	13066.44487
731.815	13294.32145
732.006	13337.47589
732.198	13418.1776
732.389	13368.91381
732.581	13514.52688
732.772	13636.04826
732.964	13513.36809
733.155	13744.77038
733.347	13974.66478
733.538	13976.34012
733.729	13868.68685
733.921	14200.90799
734.112	14168.59696
734.304	14305.28849
734.495	14284.26034
734.686	14344.8465
734.877	14360.62944
735.069	14495.50264
735.26	14566.25824
735.451	14654.28993
735.643	14564.66405
735.834	14956.92818
736.025	14881.91413
736.216	15038.14398
736.407	14883.08144
736.599	15242.62874
736.79	15198.04666
736.981	15411.46559
737.172	15227.70604
737.363	15596.85849
737.554	15474.35447
737.745	15515.51873
737.936	15688.31939
738.127	15887.5614
738.318	15596.38848
738.509	15723.5301
738.7	15673.25823
738.891	15921.69139
739.082	15846.91347
739.273	16075.76089
739.464	15837.44641
739.655	16091.12455
739.846	15866.24657
740.037	16361.48959
740.228	16053.86662
740.419	16245.89533
740.609	15841.92984
740.8	16251.10931
740.991	16032.44539
741.182	16268.95718
741.373	16358.86266
741.563	16322.53463
741.754	16091.34444
741.945	16335.3333
742.136	16232.50327
742.326	16341.46211
742.517	16270.94984
742.708	16280.05854
742.898	16431.60344
743.089	16497.33782
743.28	16416.2002
743.47	16316.5235
743.661	16232.63534
743.851	16506.75504
744.042	16306.88703
744.233	16564.28089
744.423	16277.94616
744.614	16505.57049
744.804	16502.57112
744.995	16233.67606
745.185	15942.97173
745.376	16411.01485
745.566	16448.515
745.756	16753.7985
745.947	16458.21628
746.137	16627.83544
746.328	16484.45937
746.518	16706.96856
746.708	16543.53848
746.899	16546.91356
747.089	16419.19233
747.279	16712.17638
747.47	16456.28658
747.66	16573.08766
747.85	16555.34446
748.04	16484.98157
748.231	16285.0481
748.421	16614.82961
748.611	16253.14946
748.801	16415.42469
748.991	16452.50949
749.182	16419.43993
749.372	16127.22182
749.562	16482.51316
749.752	16270.23797
749.942	16283.12821
750.132	16067.81044
750.322	16278.12061
750.512	16215.55137
750.702	16261.01123
750.892	16082.07424
751.082	16270.00663
751.272	16015.64805
751.462	16270.94984
751.652	15950.3281
751.842	16053.21141
752.032	15798.9834
752.222	16269.0849
752.412	15887.46015
752.602	16002.9133
752.792	15923.56523
752.981	16105.76639
753.171	15501.3039
753.361	15910.52433
753.551	15618.2931
753.741	15608.99028
753.93	15817.36413
754.12	15794.03393
754.31	15512.65287
754.5	15667.11835
754.689	15497.94157
754.879	15466.62762
755.069	15345.69466
755.258	15499.08768
755.448	15484.12426
755.638	15476.09208
755.827	15365.49671
756.017	15561.61145
756.206	15280.60173
756.396	15514.86899
756.586	15277.27608
756.775	15173.581
756.965	14896.74973
757.154	14913.14372
757.344	14560.22384
757.533	14411.83934
757.723	14114.70796
757.912	14012.35884
758.101	13619.9036
758.291	13609.43286
758.48	12986.20079
758.67	12856.53691
758.859	12395.55525
759.048	12476.14632
759.238	12056.91289
759.427	12139.78407
759.616	11618.75702
759.806	11576.38995
759.995	11206.24316
760.184	10894.97648
760.373	10720.76642
760.563	10627.15876
760.752	10269.99284
760.941	10173.6289
761.13	9524.14501
761.319	9656.17688
761.509	9278.63901
761.698	9132.97747
761.887	8643.21066
762.076	8767.96763
762.265	8476.13666
762.454	8426.8037
762.643	8087.51403
762.832	8029.796
763.021	7874.92997
763.21	7722.93866
763.399	7570.44526
763.588	7597.5843
763.777	7318.61386
763.966	7286.64376
764.155	7079.60094
764.344	7133.03469
764.533	6929.57556
764.722	7084.46294
764.911	6750.89519
765.1	6892.32102
765.288	6747.45761
765.477	7023.18773
765.666	6920.39052
765.855	7183.79803
766.044	7197.2511
766.232	7437.66529
766.421	7478.67323
766.61	7794.24775
766.799	7647.72465
766.987	8063.25232
767.176	8152.90544
767.365	8301.61937
767.553	8273.54044
767.742	8516.01504
767.931	8642.7422
768.119	8991.19843
768.308	8979.56107
768.497	8965.34001
768.685	9315.58745
768.874	9466.98138
769.062	9757.97113
769.251	9799.93035
769.439	9958.15785
769.628	10458.01928
769.816	10304.41352
770.005	10499.13206
770.193	10648.7914
770.382	10890.05054
770.57	10804.41011
770.758	11222.48467
770.947	11263.16712
771.135	11328.49218
771.323	11481.29503
771.512	11662.87616
771.7	11586.72384
771.888	11922.77269
772.077	11845.99427
772.265	11975.97364
772.453	12032.7532
772.642	11942.79978
772.83	12043.10633
773.018	12126.38378
773.206	11916.92039
773.394	11918.95488
773.583	12024.94392
773.771	12289.67219
773.959	12068.06293
774.147	12438.94998
774.335	12180.23176
774.523	12217.84625
774.711	12249.12133
774.899	12320.65073
775.087	12222.73334
775.275	12220.28838
775.463	12158.13976
775.651	12459.04541
775.839	12091.30542
776.027	12449.66678
776.215	12042.00051
776.403	12305.65126
776.591	11969.36837
776.779	12381.97379
776.967	12054.27552
777.155	12354.76619
777.343	12146.91557
777.531	12307.19699
777.718	12023.54777
777.906	12161.30129
778.094	12011.98876
778.282	12340.1827
778.47	11731.4921
778.657	12161.48622
778.845	11933.46779
779.033	12114.61416
779.22	11945.83437
779.408	11955.89876
779.596	11972.6172
779.783	11972.20843
779.971	11753.29052
780.159	11990.59804
780.346	11765.71199
780.534	12020.27197
780.722	11826.43777
780.909	11769.28703
781.097	11784.60928
781.284	11742.545
781.472	11648.75358
781.659	11602.17711
781.847	11521.48955
782.034	11742.03647
782.222	11575.09399
782.409	11633.72983
782.597	11471.17822
782.784	11680.49591
782.971	11532.81283
783.159	11466.90269
783.346	11351.0349
783.533	11392.27236
783.721	11316.06207
783.908	11340.12625
784.095	11179.13078
784.283	11234.48002
784.47	11143.42713
784.657	11351.52901
784.844	11056.95302
785.032	11219.65612
785.219	11020.93109
785.406	11268.966
785.593	11152.40807
785.78	11053.97881
785.968	10792.66929
786.155	11105.42761
786.342	10639.96312
786.529	10724.12655
786.716	10692.23126
786.903	10896.30019
787.09	10488.478
787.277	10701.45333
787.464	10521.31904
787.651	10712.93035
787.838	10649.26871
788.025	10576.78834
788.212	10349.42924
788.399	10416.90635
788.586	10152.12273
788.773	10502.06487
788.96	10180.20894
789.147	10298.39073
789.334	10007.47679
789.521	10213.33645
789.707	10019.9583
789.894	10079.1524
790.081	9860.94994
790.268	9918.06922
790.455	9956.2185
790.641	9905.37776
790.828	9773.8895
791.015	9827.03872
791.202	9783.27033
791.388	9640.5229
791.575	9568.90022
791.762	9632.32613
791.948	9725.6444
792.135	9598.40829
792.322	9722.51945
792.508	9523.2681
792.695	9541.00536
792.881	9506.74994
793.068	9504.50454
793.254	9711.30353
793.441	9395.64486
793.627	9538.64468
793.814	9366.70619
794	9502.46715
794.187	9211.28514
794.373	9390.76367
794.56	9250.19049
794.746	9488.8714
794.933	9245.5215
795.119	9391.96561
795.305	9210.01351
795.492	9311.19968
795.678	9179.31527
795.864	9094.75258
796.051	9138.15426
796.237	9349.79581
796.423	9171.89781
796.61	9388.01773
796.796	9125.75287
796.982	9400.83239
797.168	9231.83142
797.355	9349.95774
797.541	9197.20577
797.727	9384.02289
797.913	9221.06357
798.099	9305.03556
798.285	9073.88448
798.471	9134.7475
798.658	9024.2485
798.844	9208.16931
799.03	9192.16828
799.216	9297.45083
799.402	9173.35029
799.588	9111.56108
799.774	9077.24927
799.96	9076.65598
800.146	8977.82931
800.332	9132.5807
800.518	8763.19546
800.704	8985.91396
800.89	8986.40864
801.075	9025.124
801.261	9027.80866
801.447	9006.0506
801.633	8874.20952
801.819	9013.77785
802.005	8857.51959
802.19	8989.91641
802.376	8727.47676
802.562	8967.53876
802.748	8788.80915
802.934	9019.1668
803.119	8687.04752
803.305	8898.09855
803.491	8777.37205
803.676	8895.33772
803.862	8629.67206
804.048	9044.97146
804.233	8709.45847
804.419	8647.22144
804.605	8710.83421
804.79	8803.38792
804.976	8628.72139
805.161	8701.27854
805.347	8653.20932
805.532	8713.37719
805.718	8641.78111
805.903	8616.48877
806.089	8680.19732
806.274	8834.69099
806.46	8540.44808
806.645	8693.89773
806.831	8616.98748
807.016	8781.07827
807.201	8560.31303
807.387	8779.90455
807.572	8436.47833
807.757	8651.91816
807.943	8543.46339
808.128	8551.21524
808.313	8283.92567
808.499	8509.40923
808.684	8408.95502
808.869	8554.6278
809.054	8259.0962
809.24	8495.10019
809.425	8180.74763
809.61	8391.2612
809.795	8300.91753
809.98	8245.68187
810.165	8134.07569
810.35	8107.61939
810.536	8164.76177
810.721	8035.27807
810.906	7896.59942
811.091	8101.34545
811.276	7841.55261
811.461	7807.6389
811.646	7711.57962
811.831	7821.55046
812.016	7463.82424
812.201	7545.37899
812.386	7422.86546
812.571	7483.99164
812.756	7152.65777
812.941	7237.77198
813.125	6919.24045
813.31	6970.10333
813.495	6871.77475
813.68	6914.59021
813.865	6735.06769
814.05	6674.92043
814.234	6422.35707
814.419	6497.02004
814.604	6351.7816
814.789	6410.67842
814.973	6088.01378
815.158	6263.82558
815.343	6031.43548
815.528	6051.91694
815.712	5854.54777
815.897	5773.1101
816.081	5589.31936
816.266	5740.7747
816.451	5556.14079
816.635	5627.93491
816.82	5303.00788
817.004	5375.98545
817.189	5349.23646
817.374	5212.64498
817.558	5094.25599
817.743	5113.26694
817.927	5058.69521
818.111	5161.88987
818.296	4992.42524
818.48	4898.52848
818.665	4907.31652
818.849	4922.72077
819.034	4807.82343
819.218	4836.12369
819.402	4895.58449
819.587	4861.09258
819.771	4721.84277
819.955	4808.94706
820.14	4743.2467
820.324	4813.70213
820.508	4617.17991
820.692	4634.39347
820.877	4495.8296
821.061	4610.75905
821.245	4489.93826
821.429	4549.9656
821.613	4453.88858
821.798	4590.51558
821.982	4504.41777
822.166	4547.04612
822.35	4589.67998
822.534	4552.91972
822.718	4478.85548
822.902	4650.49397
823.086	4492.25715
823.27	4603.89845
823.454	4436.11454
823.638	4715.56896
823.822	4603.15654
824.006	4785.78894
824.19	4591.73596
824.374	4866.95238
824.558	4657.50381
824.742	4753.89392
824.926	4577.0189
825.11	4611.31839
825.294	4663.75027
825.477	4824.02886
825.661	4775.11517
825.845	4865.11771
826.029	4785.78894
826.213	4753.43386
826.396	4488.24163
826.58	4672.98879
826.764	4595.39296
826.948	4706.06164
827.131	4537.57397
827.315	4666.07438
827.499	4538.10843
827.682	4528.67398
827.866	4533.11419
828.05	4604.22598
828.233	4445.24787
828.417	4644.24638
828.6	4586.23357
828.784	4678.88101
828.967	4554.52822
829.151	4784.30632
829.335	4550.59571
829.518	4733.64991
829.701	4584.33274
829.885	4712.31493
830.068	4536.14878
830.252	4617.50693
830.435	4560.3764
830.619	4701.65964
830.802	4517.21946
830.985	4647.55805
831.169	4473.70936
831.352	4586.38995
831.535	4504.51764
831.719	4569.68925
831.902	4525.8005
832.085	4520.79426
832.269	4438.31096
832.452	4527.87525
832.635	4337.77904
832.818	4472.83713
833.002	4456.46172
833.185	4664.5514
833.368	4330.12526
833.551	4547.75507
833.734	4380.15586
833.917	4634.4088
834.1	4492.83469
834.284	4573.745
834.467	4404.66372
834.65	4612.31666
834.833	4472.14324
835.016	4498.42325
835.199	4446.02803
835.382	4557.76871
835.565	4442.41665
835.748	4587.43671
835.931	4518.96101
836.114	4495.30605
836.297	4680.6677
836.479	4613.33122
836.662	4491.15155
836.845	4576.61974
837.028	4520.82646
837.211	4666.78553
837.394	4654.51321
837.577	4704.5427
837.759	4630.7352
837.942	4717.10035
838.125	4561.08338
838.308	4732.52976
838.49	4621.49536
838.673	4627.34194
838.856	4527.53095
839.039	4715.69992
839.221	4725.93175
839.404	4714.51153
839.587	4621.13248
839.769	4858.16178
839.952	4577.0189
840.134	4818.86631
840.317	4624.7923
840.499	4936.3053
840.682	4509.46204
840.865	4668.15405
841.047	4581.09341
841.23	4661.01962
841.412	4590.12281
841.595	4688.17713
841.777	4597.2052
841.959	4772.17778
842.142	4630.50482
842.324	4835.81066
842.507	4507.10289
842.689	4832.44382
842.871	4711.91528
843.054	4705.32308
843.236	4594.20744
843.418	4724.12134
843.601	4665.92648
843.783	4763.7255
843.965	4546.39584
844.147	4750.86604
844.33	4586.25256
844.512	4757.9026
844.694	4674.77564
844.876	4824.72333
845.059	4511.3102
845.241	4664.20193
845.423	4561.86155
845.605	4644.98632
845.787	4585.11077
845.969	4680.74923
846.151	4502.06187
846.333	4529.68873
846.515	4560.21853
846.697	4563.08365
846.879	4563.92452
847.061	4626.84411
847.243	4511.28601
847.425	4451.87956
847.607	4640.13981
847.789	4686.17513
847.971	4329.22824
848.153	4398.64292
848.335	4296.82322
848.517	4444.4733
848.699	4439.38813
848.881	4362.85937
849.062	4217.75294
849.244	4407.64843
849.426	4247.92436
849.608	4430.51112
849.789	4169.5198
849.971	4383.83664
850.153	4101.29072
850.335	4334.18225
850.516	4245.25751
850.698	4248.08845
850.88	4280.94016
851.061	4304.85814
851.243	4158.69177
851.425	4154.33236
851.606	4070.43169
851.788	4111.6385
851.969	4001.94926
852.151	4020.22274
852.333	3879.783
852.514	4084.30386
852.696	3818.14814
852.877	3974.1745
853.059	3853.3739
853.24	3873.32732
853.422	3886.02154
853.603	3840.04696
853.784	3742.58467
853.966	3916.28717
854.147	3699.15892
854.329	3897.20607
854.51	3725.77339
854.691	3821.37164
854.873	3675.1969
855.054	3633.75051
855.235	3489.04566
855.416	3616.40392
855.598	3548.84119
855.779	3729.46077
855.96	3623.07694
856.141	3741.77136
856.323	3602.27704
856.504	3829.47304
856.685	3623.57439
856.866	3584.31303
857.047	3522.83568
857.228	3580.60558
857.409	3582.73267
857.591	3656.22729
857.772	3417.28329
857.953	3508.95739
858.134	3521.26813
858.315	3607.90373
858.496	3333.80628
858.677	3487.40404
858.858	3415.51225
859.039	3524.56412
859.22	3480.931
859.401	3527.30291
859.582	3386.95739
859.762	3472.22387
859.943	3380.93235
860.124	3646.01298
860.305	3365.2852
860.486	3601.80607
860.667	3394.24613
860.848	3435.37052
861.028	3488.26803
861.209	3496.11952
861.39	3362.2569
861.571	3513.28713
861.751	3306.55285
861.932	3519.04433
862.113	3469.99249
862.293	3467.90046
862.474	3437.19935
862.655	3425.88819
862.835	3450.37662
863.016	3322.66681
863.197	3387.99092
863.377	3391.09316
863.558	3338.4684
863.738	3416.51481
863.919	3227.96782
864.099	3377.30269
864.28	3284.45599
864.46	3209.24221
864.641	3122.48288
864.821	3168.48506
865.002	3041.70755
865.182	3290.22949
865.363	3018.89901
865.543	3228.04644
865.723	3076.41508
865.904	3091.84615
866.084	3004.10806
866.264	3198.7432
866.445	2903.77549
866.625	3047.63515
866.805	2892.64904
866.986	3021.40266
867.166	2903.37988
867.346	3017.24779
867.526	2863.51805
867.707	2862.65568
867.887	2817.44058
868.067	2896.18761
868.247	2828.28493
868.427	3052.55762
868.607	2797.068
868.788	2830.16453
868.968	2795.46061
869.148	2951.3959
869.328	2689.74205
869.508	2872.11773
869.688	2732.92805
869.868	2920.3155
870.048	2678.57191
870.228	2883.99305
870.408	2680.30236
870.588	2815.19384
870.768	2621.83504
870.948	2720.21991
871.128	2709.45606
871.307	2835.61058
871.487	2691.47101
871.667	2728.9639
871.847	2576.09163
872.027	2757.22844
872.207	2588.00079
872.387	2659.20593
872.566	2680.45171
872.746	2724.01853
872.926	2633.99028
873.106	2638.89875
873.285	2627.77977
873.465	2654.87505
873.645	2672.25143
873.824	2646.67302
874.004	2576.76537
874.184	2648.87644
874.363	2478.63214
874.543	2679.34465
874.723	2541.5563
874.902	2584.25284
875.082	2493.46171
875.261	2582.77694
875.441	2503.63696
875.62	2583.43069
875.8	2511.37445
875.979	2509.94685
876.159	2452.98538
876.338	2523.63114
876.518	2421.63014
876.697	2532.6051
876.876	2361.83158
877.056	2556.89778
877.235	2404.49373
877.415	2462.71294
877.594	2407.36623
877.773	2476.43508
877.953	2449.21209
878.132	2414.11249
878.311	2331.87397
878.49	2435.49225
878.67	2244.91214
878.849	2325.82312
879.028	2403.46393
879.207	2296.79483
879.387	2267.6054
879.566	2327.79146
879.745	2237.18574
879.924	2213.55113
880.103	2226.98615
880.282	2348.85114
880.461	2076.52085
880.64	2352.15563
880.819	2246.50152
880.998	2377.92628
881.178	2167.46552
881.357	2155.84724
881.536	2169.09984
881.715	2293.75329
881.893	2154.29438
882.072	2237.50452
882.251	2203.74181
882.43	2234.56979
882.609	2216.99965
882.788	2206.35822
882.967	2080.59665
883.146	2279.44977
883.325	2033.2198
883.503	2218.41624
883.682	2103.55837
883.861	2153.00926
884.04	2172.65895
884.219	2215.34303
884.397	2084.89748
884.576	2099.85476
884.755	2059.46204
884.933	2048.51408
885.112	2096.3148
885.291	2128.68054
885.469	1944.63123
885.648	2085.95095
885.827	2029.77723
886.005	2053.13999
886.184	2066.03822
886.363	2072.31902
886.541	2115.5114
886.72	2014.95298
886.898	1853.70597
887.077	2008.53345
887.255	1924.98897
887.434	1987.89492
887.612	2010.51174
887.791	1995.08133
887.969	2048.93609
888.147	1984.68094
888.326	1971.94614
888.504	2049.49135
888.682	2008.20121
888.861	1978.03263
889.039	1916.51309
889.218	1994.57684
889.396	1909.98308
889.574	2047.08735
889.752	1952.80197
889.931	2002.6524
890.109	1875.43356
890.287	2012.19505
890.465	1912.91095
890.643	2031.19094
890.822	1852.34216
891	1957.68775
891.178	1817.6083
891.356	1903.39178
891.534	1877.68054
891.712	1951.5492
891.89	1801.06625
892.068	1818.89799
892.247	1800.04004
892.425	1814.84759
892.603	1757.35416
892.781	1747.94904
892.959	1650.65592
893.137	1798.36553
893.314	1639.51727
893.492	1687.92397
893.67	1506.14803
893.848	1598.89103
894.026	1531.97302
894.204	1634.21479
894.382	1411.67353
894.56	1523.17743
894.738	1462.04942
894.915	1474.93351
895.093	1397.3399
895.271	1360.73558
895.449	1353.70996
895.626	1349.59992
895.804	1215.99668
895.982	1212.13448
896.16	1216.72222
896.337	1268.53132
896.515	1178.1655
896.693	1115.37607
896.87	1000.54119
897.048	1061.25763
897.225	983.45838
897.403	990.32863
897.581	883.68723
897.758	912.47461
897.936	805.55775
898.113	927.83642
898.291	880.75769
898.468	880.8803
898.646	720.15725
898.823	756.15366
899.001	737.92985
899.178	688.17596
899.356	735.85664
899.533	658.47699
899.71	627.96418
899.888	669.67641
900.065	534.69902
900.242	569.51633
900.42	566.3162
900.597	557.37592
900.774	434.38692
900.952	562.98751
901.129	449.73014
901.306	502.85679
901.483	472.90243
901.661	467.33236
901.838	482.86554
902.015	478.23666
902.192	406.15928
902.369	503.40974
902.546	464.05492
902.723	425.01517
902.901	449.6225
903.078	593.69209
903.255	563.11665
903.432	552.4429
903.609	431.09285
903.786	399.49015
903.963	548.5532
904.14	543.91072
904.317	491.75813
904.494	518.79922
904.671	498.50308
904.848	422.40361
905.024	482.25645
905.201	565.38527
905.378	588.80389
905.555	501.17261
905.732	473.502
905.909	597.9758
906.086	542.53831
906.262	622.02036
906.439	422.04184
906.616	517.31408
906.793	444.49583
906.969	527.71708
907.146	482.83308
907.323	531.90507
907.5	422.28614
907.676	477.98397
907.853	472.48602
908.03	509.32458
908.206	384.57009
908.383	411.21333
908.559	387.22386
908.736	504.73399
908.912	379.38994
909.089	471.39566
909.266	406.06192
909.442	486.23641
909.619	387.17161
909.795	469.85319
909.972	337.97562
910.148	410.30498
910.324	356.27757
910.501	359.29876
910.677	376.42474
910.854	405.83565
911.03	259.42104
911.206	304.43679
911.383	214.60138
911.559	287.55352
911.735	302.96916
911.912	290.48974
912.088	220.82396
912.264	192.82063
912.44	226.26972
912.617	209.55058
912.793	221.89229
912.969	181.6019
913.145	255.84694
913.321	213.74662
913.498	209.91175
913.674	173.19134
913.85	187.89955
914.026	133.70645
914.202	176.41815
914.378	230.30061
914.554	243.77009
914.73	168.87736
914.906	160.29209
915.082	260.56845
915.258	250.98364
915.434	234.45049
915.61	148.96679
915.786	207.48223
915.962	221.34974
916.138	209.30736
916.314	159.40671
916.49	181.98759
916.665	130.7214
916.841	140.84967
917.017	128.88344
917.193	207.22902
917.369	207.18126
917.545	149.5421
917.72	134.18797
917.896	185.3095
918.072	148.10558
918.247	125.16946
918.423	198.1626
918.599	212.04443
918.775	180.60041
918.95	167.49378
919.126	140.96101
919.301	179.78077
919.477	125.48035
919.653	178.98016
919.828	130.37486
920.004	259.16327
920.179	153.00266
920.355	122.34047
920.53	167.66234
920.706	194.5736
920.881	158.69312
921.057	233.51522
921.232	224.79424
921.408	142.71016
921.583	205.2042
921.759	172.60738
921.934	154.04305
922.109	232.30244
922.285	161.33543
922.46	168.04077
922.635	251.56988
922.811	176.37469
922.986	195.74032
923.161	187.1892
923.336	230.752
923.512	139.74657
923.687	217.29192
923.862	202.82849
924.037	139.20285
924.212	238.05335
924.388	253.86478
924.563	177.72061
924.738	220.58841
924.913	189.88972
925.088	267.53495
925.263	218.70516
925.438	195.07898
925.613	213.03234
925.788	290.70419
925.963	231.48921
926.138	166.02682
926.313	236.31093
926.488	149.46797
926.663	195.42864
926.838	156.72487
927.013	155.95342
927.188	156.88024
927.363	144.24562
927.538	174.75138
927.713	135.93922
927.888	128.91559
928.062	142.84885
928.237	110.2788
928.412	144.64078
928.587	91.76057
928.761	68.99502
928.936	148.39919
929.111	78.35597
929.286	68.85064
929.46	87.26583
929.635	98.89499
929.81	53.28182
929.984	48.84199
930.159	48.10275
930.334	88.89408
930.508	91.92142
930.683	20.76779
930.857	20.30279
931.032	77.88006
931.206	59.3265
931.381	43.49077
931.556	56.46462
931.73	48.84199
931.904	51.3334
932.079	-17.10539
932.253	7.08323
932.428	38.64625
932.602	79.90243
932.777	37.19653
932.951	19.81673
933.125	13.92617
933.3	21.2798
933.474	-4.64213
933.648	-1.95508
933.823	38.84379
933.997	9.5325
934.171	49.84045
934.345	-5.37571
934.52	12.4662
934.694	26.16951
934.868	2.19953
935.042	78.07608
935.217	50.13746
935.391	59.69315
935.565	-37.65647
935.739	52.03473
935.913	9.52772
936.087	5.37445
936.261	-25.69421
936.435	-41.59052
936.609	48.38547
936.783	50.33371
936.957	35.19914
937.131	-7.81758
937.305	-12.20795
937.479	55.01045
937.653	32.97727
937.827	-27.1412
938.001	-50.09754
938.175	-8.5429
938.349	55.25749
938.523	37.14967
938.697	53.06164
938.87	-18.09314
939.044	-61.87751
939.218	11.98225
939.392	20.52252
939.566	34.48709
939.739	59.15366
939.913	-16.62237
940.087	46.46008
940.261	83.60443
940.434	3.6669
940.608	-0.24446
940.782	40.0745
940.955	10.02732
941.129	-30.04369
941.302	-10.76487
941.476	18.34836
941.65	25.41947
941.823	51.3334
941.997	16.12767
942.17	-15.65536
942.344	-5.87274
942.517	-42.7501
942.691	-1.71035
942.864	33.73166
943.038	24.70767
943.211	49.15008
943.385	-1.46681
943.558	25.90418
943.731	-25.64257
943.905	13.67438
944.078	-30.82642
944.251	18.33911
944.425	-0.48891
944.598	-29.32967
944.771	-10.51539
944.945	-16.13496
945.118	43.28795
945.291	70.1931
945.464	43.03056
945.638	46.95347
945.811	-10.74864
945.984	-43.98347
946.157	-16.85335
946.33	48.70571
946.503	-3.42389
946.677	-0.73332
946.85	14.9212
947.023	0.97833
947.196	-20.04681
947.369	32.98553
947.542	-14.1988
947.715	-45.70216
947.888	-17.83155
948.061	-51.53668
948.234	16.85884
948.407	-18.83353
948.58	30.34351
948.753	48.85421
948.926	23.99473
949.099	-36.15391
949.271	-20.29034
949.444	-33.24085
949.617	46.46008
949.79	71.66236
949.963	16.13984
950.136	-68.91269
950.308	66.82702
950.481	19.07532
950.654	-33.96089
950.827	80.66687
950.999	96.49998
951.172	28.14365
951.345	-44.45695
951.517	-65.01798
951.69	50.11222
951.863	-18.09314
952.035	68.70659
952.208	7.82295
952.381	46.89456
952.553	6.8421
952.726	11.97924
952.898	-18.3368
953.071	-22.01109
953.243	-26.87765
953.416	31.32022
953.588	15.87463
953.761	46.95347
953.933	26.15634
954.106	57.68559
954.278	-46.63614
954.45	-7.09279
954.623	-10.76487
954.795	-12.70463
954.967	14.66483
955.14	16.13984
955.312	37.89766
955.484	-22.24343
955.657	1.22204
955.829	-17.1183
956.001	43.7701
956.173	85.52716
956.346	38.88284
956.518	9.78724
956.69	113.74598
956.862	-11.0118
957.034	-14.65748
957.207	-5.37706
957.379	56.23173
957.551	46.19018
957.723	-0.73259
957.895	10.75439
958.067	-13.45263
958.239	25.4451
958.411	-28.60038
958.583	80.68717
958.755	-17.84049
958.927	-32.26912
959.099	3.1745
959.271	-11.48279
959.443	24.46191
959.615	15.63751
959.787	-23.70348
959.959	-8.30542
960.13	63.854
960.302	21.52539
960.474	6.11278
960.646	3.91154
960.818	-16.13091
960.99	-49.80557
961.161	1.95456
961.333	47.42307
961.505	64.03704
961.677	-49.86798
961.848	60.38977
962.02	13.44304
962.192	61.62646
962.363	-26.41131
962.535	15.15505
962.707	19.80175
962.878	-44.52407
963.05	1.70973
963.221	49.63122
963.393	23.94035
963.564	-14.17375
963.736	8.80022
963.907	21.52539
964.079	2.93164
964.25	-25.41224
964.422	17.36219
964.593	6.84899
964.765	7.09572
964.936	9.78229
965.108	-9.04608
965.279	29.33704
965.45	-3.17947
965.622	34.97069
965.793	1.22204
965.964	45.00312
966.136	66.31449
966.307	85.40789
966.478	7.57433
966.65	42.56984
966.821	4.64559
966.992	19.05138
967.163	82.13561
967.334	3.17848
967.506	45.68574
967.677	74.81146
967.848	6.59578
968.019	23.47317
968.19	17.12118
968.361	-10.99242
968.532	-11.49145
968.703	-26.64792
968.874	-32.73039
969.045	-54.97592
969.216	25.92374
969.387	33.24809
969.558	27.63069
969.729	32.27237
969.9	48.40979
970.071	79.67441
970.242	-29.09391
970.413	-32.51209
970.584	2.20008
970.755	43.05226
970.926	19.79678
971.097	21.51455
971.267	73.64629
971.438	59.43076
971.609	90.6554
971.78	29.58288
971.951	7.33518
972.121	-5.13159
972.292	-35.67756
972.463	26.61433
972.633	29.09122
972.804	25.67152
972.975	9.29466
973.145	1.22328
973.316	53.32207
973.487	15.62189
973.657	67.45154
973.828	-23.92878
973.998	18.08466
974.169	36.67592
974.339	28.62852
974.51	41.54168
974.68	48.15097
974.851	53.29521
975.021	18.33911
975.192	23.95838
975.362	-4.88623
975.533	33.23973
975.703	12.22735
975.874	36.66669
976.044	24.17969
976.214	96.85154
976.385	-7.08388
976.555	-2.19992
976.725	5.13767
976.896	13.69153
977.066	19.55147
977.236	40.35114
977.406	46.87115
977.577	-57.736
977.747	15.15125
977.917	21.75456
978.087	24.90339
978.257	31.77248
978.427	20.29767
978.598	53.03496
978.768	-1.46645
978.938	29.34443
979.108	-2.44301
979.278	-15.87529
979.448	3.42142
979.618	22.74221
979.788	25.19291
979.958	3.91154
980.128	27.60296
980.298	47.47093
980.468	55.24359
980.638	-14.66483
980.808	-23.94675
980.978	23.71878
981.148	46.49528
981.317	82.38386
981.487	1.46505
981.657	-8.79757
981.827	82.13561
981.997	52.58099
982.167	-9.77328
982.336	50.12483
982.506	-16.36226
982.676	-45.48273
982.846	-0.73314
983.015	15.14366
983.185	-23.95878
983.355	36.19268
983.524	-16.60571
983.694	49.11304
983.864	-0.48842
984.033	69.78573
984.203	38.12474
984.372	4.402
984.542	31.3044
984.712	1.468
984.881	88.77941
985.051	29.32967
985.22	44.7227
985.39	49.37204
985.559	41.0698
985.728	-9.04153
985.898	-15.17137
986.067	36.68516
986.237	15.88258
986.406	3.17929
986.576	-38.82145
986.745	25.43226
986.914	1.46652
987.084	-8.06961
987.253	-76.71593
987.422	31.04277
987.591	-1.46681
987.761	23.70685
987.93	-26.66135
988.099	31.26511
988.268	17.84842
988.438	-3.41703
988.607	56.01288
988.776	86.31556
988.945	25.41947
989.114	66.06672
989.283	47.41116
989.452	9.03829
989.621	19.06572
989.791	19.79678
989.96	-0.24471
990.129	5.86505
990.298	27.8765
990.467	-5.62121
990.636	5.868
990.805	21.51997
990.974	-27.63464
991.142	-44.50162
991.311	18.81098
991.48	-24.16581
991.649	-0.2441
991.818	15.6572
991.987	8.06373
992.156	60.1425
992.325	10.26203
992.493	45.48503
992.662	-230.10235
992.831	-25.39951
993	-82.09027
993.168	17.3491
993.337	-31.25002
993.506	-20.53903
993.675	-22.02779
993.843	19.3159
994.012	43.28795
994.181	-5.37436
994.349	44.06118
994.518	56.21759
994.686	-8.3075
994.855	3.91154
995.024	50.59307
995.192	34.43517
995.361	27.89057
995.529	-8.3075
995.698	26.89341
995.866	41.08014
996.035	25.91721
996.203	32.98553
996.371	7.57243
996.54	43.56756
996.708	60.1425
996.877	1.22235
997.045	18.83464
997.213	26.6477
997.382	-30.30174
997.55	-41.59052
997.718	-3.90873
997.887	17.11686
998.055	-0.73351
998.223	39.37558
998.391	6.59084
998.56	9.29232
998.728	-67.93066
998.896	86.27216
999.064	38.86328
999.232	-25.16905
999.401	-27.81518
999.569	-17.35767
999.737	11.49792
999.905	10.99104
1000.073	11.73718
1000.241	16.63046
1000.409	2.44527
1000.577	8.31474
1000.745	-58.34459
1000.913	-15.87926
1001.081	-19.54004
1001.249	67.69905
1001.417	-28.10701
1001.585	15.39633
1001.753	-23.45431
1001.921	-8.30334
1002.089	11.24992
1002.256	32.01032
1002.424	-5.86534
1002.592	42.78409
1002.76	9.28765
1002.928	26.88665
1003.096	16.87155
1003.263	7.09572
1003.431	66.52865
1003.599	36.46654
1003.767	-0.48903
1003.934	52.55452
1004.102	51.29479
1004.27	3.66414
1004.437	-45.47129
1004.605	19.80674
1004.773	-10.74595
1004.94	19.56624
1005.108	6.36724
1005.275	15.88657
1005.443	16.86731
1005.61	30.05197
1005.778	64.61328
1005.945	61.56456
1006.113	5.3785
1006.28	24.21006
1006.448	-20.28524
1006.615	10.02479
1006.783	51.3334
1006.95	-94.30222
1007.118	2.93311
1007.285	76.50905
1007.452	2.19843
1007.62	26.40201
1007.787	14.42701
1007.954	52.04778
1008.122	77.65175
1008.289	-0.24446
1008.456	22.73649
1008.623	17.84842
1008.791	45.47357
1008.958	15.89456
1009.125	36.41143
1009.292	34.96188
1009.459	-32.23677
1009.627	43.80326
1009.794	12.94652
1009.961	-34.22942
1010.128	8.06373
1010.295	30.05197
1010.462	39.59208
1010.629	4.1562
1010.796	49.64373
1010.963	4.64559
1011.13	-28.60038
1011.297	-4.15491
1011.464	27.88353
1011.631	15.90661
1011.798	12.2212
1011.965	29.07662
1012.132	-12.6951
1012.299	-72.56463
1012.466	-60.54696
1012.633	34.50453
1012.799	52.56774
1012.966	42.27
1013.133	70.65317
1013.3	7.09572
1013.467	-25.1817
1013.633	-26.18119
1013.8	-5.38112
1013.967	91.99098
1014.134	-33.76057
1014.3	67.46849
1014.467	-12.22941
1014.634	-22.46992
1014.8	21.03423
1014.967	-3.42389
1015.134	0.48924
1015.3	-24.93836
1015.467	-5.86682
1015.633	3.17769
1015.8	-7.56795
1015.966	21.77101
1016.133	42.51629
1016.3	-15.87132
1016.466	2.4465
1016.632	18.33911
1016.799	24.44343
1016.965	10.99379
1017.132	33.74015
1017.298	27.84154
1017.465	76.0706
1017.631	-92.74598
1017.797	15.40407
1017.964	48.15097
1018.13	38.60739
1018.296	-34.96687
1018.463	-14.90856
1018.629	33.46889
1018.795	34.46972
1018.961	-65.24302
1019.128	2.93607
1019.294	-48.63248
1019.46	-4.64798
1019.626	-12.70463
1019.792	-10.0323
1019.959	10.7598
1020.125	-27.87791
1020.291	26.40865
1020.457	10.27236
1020.623	27.8765
1020.789	38.12474
1020.955	-21.03141
1021.121	-35.21864
1021.287	-14.40664
1021.453	-16.37045
1021.619	34.75966
1021.785	12.71122
1021.951	26.641
1022.117	-16.62655
1022.283	-18.80988
1022.449	52.54132
1022.615	50.16279
1022.781	-7.8215
1022.946	-41.49669
1023.112	0.97833
1023.278	-34.94929
1023.444	30.34351
1023.61	22.26231
1023.775	-9.2878
1023.941	16.88007
1024.107	-1.71293
1024.273	30.05951
1024.438	-12.47342
1024.604	-17.10539
1024.77	-48.07598
1024.935	26.91377
1025.101	35.22575
1025.267	-23.19945
1025.432	-25.41224
1025.598	2.44342
1025.763	3.418
1025.929	25.42586
1026.095	26.15634
1026.26	15.64931
1026.426	4.40311
1026.591	-2.20214
1026.757	-77.7179
1026.922	65.2906
1027.087	0.73353
1027.253	-11.73836
1027.418	-13.94405
1027.584	-8.55789
1027.749	7.57623
1027.914	48.38547
1028.08	9.29232
1028.245	17.35782
1028.41	-8.55789
1028.576	13.93667
1028.741	-46.70637
1028.906	24.95346
1029.072	-5.13676
1029.237	8.06576
1029.402	-39.57818
1029.567	-28.09291
1029.732	20.79394
1029.898	-33.04797
1030.063	42.81647
1030.228	1.95751
1030.393	-51.29479
1030.558	55.20205
1030.723	5.12608
1030.888	10.01975
1031.053	28.59247
1031.218	-28.10701
1031.383	46.19018
1031.548	-53.68603
1031.713	-17.12262
1031.878	44.46512
1032.043	25.68447
1032.208	-38.10373
1032.373	49.87802
1032.538	10.49635
1032.703	-32.52846
1032.868	-22.71312
1033.033	48.68108
1033.198	31.3123
1033.362	-18.83353
1033.527	20.79394
1033.692	0.97833
1033.857	38.35166
1034.021	-58.41766
1034.186	24.4373
1034.351	37.15901
1034.516	19.79181
1034.68	-19.32093
1034.845	21.28518
1035.01	-60.39636
1035.174	55.27141
1035.339	-5.62121
1035.504	15.90661
1035.668	-78.19949
1035.833	8.55323
1035.997	90.52074
1036.162	51.13813
1036.326	2.20119
1036.491	87.96712
1036.655	28.85269
1036.82	15.64537
1036.984	-22.48683
1037.149	32.0023
1037.313	-45.6907
1037.478	-19.29668
1037.642	-35.94738
1037.807	24.19788
1037.971	17.60311
1038.135	36.91284
1038.3	-18.34605
1038.464	17.58545
1038.628	4.40311
1038.792	-46.12901
1038.957	-60.04919
1039.121	-15.15607
1039.285	-3.91167
1039.449	-7.34074
1039.614	43.05226
1039.778	4.402
1039.942	9.5325
1040.106	40.56694
1040.27	-38.62743
1040.434	-30.54471
1040.599	-23.21689
1040.763	-12.22018
1040.927	-78.74036
1041.091	40.82346
1041.255	6.84382
1041.419	12.95627
1041.583	17.84842
1041.747	25.39401
1041.911	-9.037
1042.075	-42.27601
1042.239	13.19801
1042.403	19.29651
1042.567	-17.10968
1042.731	17.34475
1042.894	52.06084
1043.058	-42.7823
1043.222	5.87393
1043.386	7.33149
1043.55	23.45549
1043.714	33.26485
1043.877	52.60755
1044.041	-45.99074
1044.205	-17.60133
1044.369	49.40935
1044.532	0.73353
1044.696	18.58449
1044.86	26.40201
1045.023	-72.47409
1045.187	-67.86275
1045.351	-2.19992
1045.514	49.39689
1045.678	-70.60058
1045.841	4.64559
