Data from mildly cloudy_Subt2__7__14-20-32-599.txt Node

Date: Mon Oct 13 14:20:32 EDT 2025
User: brett
Spectrometer: USB4F03499
Trigger mode: 4
Integration Time (sec): 4.400000E-4
Scans to average: 1
Electric dark correction enabled: true
Nonlinearity correction enabled: true
Boxcar width: 0
XAxis mode: Wavelengths
Number of Pixels in Spectrum: 3648
>>>>>Begin Spectral Data<<<<<
345.386	35.10009
345.605	35.10009
345.824	35.10009
346.044	65.62374
346.263	23.80598
346.482	-21.32895
346.701	7.99124
346.92	0.09401
347.139	31.6872
347.358	-32.63696
347.577	-19.08127
347.796	28.30496
348.015	5.74246
348.234	5.73378
348.453	-21.34378
348.672	12.50587
348.891	2.3526
349.11	35.0566
349.329	-34.90104
349.548	38.49151
349.767	-19.09901
349.986	10.24878
350.205	-45.02169
350.424	47.49853
350.643	45.25873
350.862	58.78761
351.08	13.6329
351.299	-17.95089
351.518	-36.03341
351.737	20.41738
351.956	0.09402
352.174	-24.73205
352.393	3.48232
352.612	-15.70438
352.831	-3.29153
353.049	32.81109
353.268	46.35279
353.487	7.99402
353.705	-10.0615
353.924	-13.43604
354.143	29.42599
354.361	55.37463
354.58	-3.29127
354.798	83.62609
355.017	-25.84103
355.236	54.28324
355.454	-1.03464
355.673	3.48164
355.891	-19.09013
356.11	-16.82535
356.328	-14.58186
356.547	-3.29115
356.765	36.19632
356.984	3.47921
357.202	19.29694
357.42	63.27065
357.639	39.58627
357.857	26.02997
358.076	3.47921
358.294	-37.15158
358.512	-38.27357
358.731	-21.32895
358.949	-32.62306
359.167	-24.73684
359.386	-5.54793
359.604	-2.16179
359.822	32.8149
360.04	11.3773
360.259	-25.85501
360.477	23.80043
360.695	0.09398
360.913	2.34905
361.131	-8.92879
361.35	-37.17323
361.568	11.38303
361.786	-8.93259
362.004	-14.56832
362.222	23.80413
362.44	-29.23797
362.658	30.57962
362.876	-41.65008
363.094	-10.06267
363.312	6.86665
363.53	-3.29344
363.749	-15.69225
363.967	4.60502
364.184	3.48029
364.402	2.3515
364.62	-1.03492
364.838	-29.21767
365.056	-10.06971
365.274	14.75402
365.492	42.94229
365.71	11.38569
365.928	0.09397
366.146	19.29468
366.364	-24.71009
366.581	10.24798
366.799	19.26777
367.017	-13.44174
367.235	9.1129
367.453	-38.28692
367.67	13.63607
367.888	39.57709
368.106	2.35205
368.323	-5.54557
368.541	-2.16414
368.759	-11.19271
368.977	29.43055
369.194	-63.07044
369.412	55.39392
369.629	9.13449
369.847	21.51356
370.065	49.72893
370.282	27.17284
370.5	4.60823
370.717	19.26257
370.935	-4.42014
371.152	37.34404
371.37	-25.86903
371.588	-15.69831
371.805	27.1897
372.022	2.34995
372.24	67.7964
372.457	-29.24136
372.675	7.99278
372.892	63.2927
373.11	13.64189
373.327	5.73778
373.544	18.15994
373.762	-22.46644
373.979	-32.61046
374.196	28.31044
374.414	42.99883
374.631	4.60751
374.848	9.13021
375.066	6.85949
375.283	-1.03448
375.5	-16.82991
375.717	-2.16229
375.935	42.97881
376.152	-13.4485
376.369	62.1437
376.586	3.4784
376.803	-3.28797
377.02	5.73933
377.238	12.50249
377.455	67.7964
377.672	20.39053
377.889	28.33356
378.106	10.24957
378.323	52.02132
378.54	32.81236
378.757	-5.54557
378.974	44.08604
379.191	19.26183
379.408	11.3729
379.625	31.70317
379.842	38.45123
380.059	46.34562
380.276	53.1409
380.493	20.39919
380.71	-8.93709
380.927	38.47506
381.143	13.63237
381.36	41.85432
381.577	18.13396
381.794	-4.41962
382.011	10.24997
382.228	-11.18579
382.444	-52.89757
382.661	20.41341
382.878	35.0688
383.095	20.40313
383.311	1.22376
383.528	23.78293
383.745	18.14937
383.962	21.52684
384.178	-25.84602
384.395	15.89246
384.612	35.10692
384.828	-37.11427
385.045	22.65444
385.261	-8.93155
385.478	65.55488
385.695	-20.22292
385.911	17.00678
386.128	15.88079
386.344	64.48512
386.561	68.94748
386.777	-12.31591
386.994	-43.89464
387.21	10.24047
387.427	-15.70681
387.643	55.39822
387.86	5.73378
388.076	15.8857
388.292	-3.29127
388.509	31.69211
388.725	-7.81504
388.942	30.57487
389.158	65.55488
389.374	54.20357
389.591	0.09398
389.807	9.11888
390.023	-31.48333
390.239	-31.47726
390.456	17.01927
390.672	11.37378
390.888	27.17284
391.104	33.92812
391.321	-29.24929
391.537	46.36895
391.753	-3.29051
391.969	5.73577
392.185	45.2289
392.401	3.47652
392.618	-16.826
392.834	55.35752
393.05	30.55474
393.266	-19.10198
393.482	-15.70499
393.698	47.49301
393.914	17.01993
394.13	58.7082
394.346	-42.77747
394.562	9.11536
394.778	31.6872
394.994	39.59087
395.21	-16.81757
395.426	4.60751
395.642	33.93861
395.858	28.31154
396.073	72.3155
396.289	-7.79929
396.505	15.8857
396.721	4.60805
396.937	-7.8017
397.153	10.25354
397.369	15.88815
397.584	82.51489
397.8	9.11536
398.016	45.20618
398.232	72.23461
398.447	36.13925
398.663	14.75288
398.879	23.77192
399.094	45.20444
399.31	-34.88076
399.526	7.98784
399.741	39.57556
399.957	74.47184
400.173	94.88484
400.388	38.43638
400.604	77.87512
400.82	27.16024
401.035	80.16671
401.251	64.32813
401.466	58.73534
401.682	97.05552
401.897	46.27968
402.113	37.24928
402.328	124.1196
402.544	31.63599
402.759	126.24849
402.974	90.26987
403.19	72.17919
403.405	110.46211
403.621	140.93214
403.836	170.07731
404.051	145.28894
404.267	175.72278
404.482	139.70645
404.697	177.94053
404.913	210.50001
405.128	195.87617
405.343	201.37605
405.559	221.67623
405.774	210.41207
405.989	223.50379
406.204	297.81623
406.42	269.78367
406.635	273.32541
406.85	281.71635
407.065	288.57832
407.28	353.71538
407.495	327.83811
407.71	306.55106
407.926	340.1665
408.141	452.97159
408.356	443.78842
408.571	509.63199
408.786	397.13757
409.001	463.46282
409.216	441.22103
409.431	536.25678
409.646	438.09628
409.861	484.04084
410.076	446.64713
410.291	541.36758
410.506	462.83006
410.721	536.85409
410.936	554.83095
411.15	546.37231
411.365	564.51724
411.58	586.87571
411.795	574.15032
412.01	759.47773
412.225	667.1228
412.439	624.27365
412.654	661.69883
412.869	630.83801
413.084	720.55184
413.299	810.18443
413.513	730.10829
413.728	727.08906
413.943	725.75247
414.157	804.36652
414.372	786.06034
414.587	843.5875
414.801	931.91853
415.016	961.8574
415.231	948.94194
415.445	948.84145
415.66	970.89905
415.874	978.73317
416.089	996.30616
416.304	1141.09502
416.518	990.45577
416.733	1022.897
416.947	998.28489
417.162	1034.21313
417.376	1172.59775
417.59	1168.36493
417.805	1223.15813
418.019	1134.18468
418.234	1190.28792
418.448	1066.60126
418.663	1138.70132
418.877	1071.0984
419.091	1147.6018
419.306	1255.4991
419.52	1274.56559
419.734	1260.22756
419.949	1318.86848
420.163	1370.70157
420.377	1277.82035
420.591	1243.96339
420.806	1328.95311
421.02	1318.59178
421.234	1402.74771
421.448	1332.25968
421.663	1483.69087
421.877	1267.64614
422.091	1319.64477
422.305	1300.94659
422.519	1416.62321
422.733	1546.77671
422.947	1355.07942
423.161	1343.66875
423.376	1449.90081
423.59	1421.17092
423.804	1509.04064
424.018	1505.45544
424.232	1448.2171
424.446	1552.02403
424.66	1470.38544
424.874	1498.15158
425.088	1483.83031
425.302	1424.73799
425.515	1619.84409
425.729	1578.52547
425.943	1621.17199
426.157	1657.58385
426.371	1512.20816
426.585	1616.16542
426.799	1641.79586
427.013	1748.5523
427.226	1677.98506
427.44	1588.5606
427.654	1601.18624
427.868	1607.46072
428.081	1675.08938
428.295	1650.70491
428.509	1700.24996
428.723	1704.29336
428.936	1533.56466
429.15	1650.2213
429.364	1656.23954
429.577	1605.51817
429.791	1632.51574
430.005	1832.64202
430.218	1682.35007
430.432	1596.82982
430.645	1574.94136
430.859	1673.75624
431.073	1659.83727
431.286	1874.94234
431.5	1770.66407
431.713	1623.79449
431.927	1640.65793
432.14	1740.14226
432.354	1688.24678
432.567	1620.32108
432.781	1826.08601
432.994	1791.67086
433.207	1712.57237
433.421	1813.06743
433.634	1756.51576
433.848	1809.65188
434.061	1790.31058
434.274	1740.42992
434.488	1649.73754
434.701	1717.52303
434.914	1739.46291
435.127	1876.90154
435.341	1862.16627
435.554	1931.79716
435.767	1986.14757
435.98	1967.15309
436.194	1860.45394
436.407	1979.99581
436.62	2145.19534
436.833	2136.56157
437.046	2089.10363
437.259	2000.32224
437.473	2087.0002
437.686	2213.69309
437.899	2081.20058
438.112	2167.55989
438.325	2099.63186
438.538	2178.11154
438.751	2391.30909
438.964	2169.78438
439.177	2304.52962
439.39	2171.47597
439.603	2467.19008
439.816	2434.90139
440.029	2534.26272
440.242	2643.45409
440.455	2708.41063
440.668	2660.92534
440.881	2489.28475
441.094	2391.54966
441.306	2622.20645
441.519	2814.06604
441.732	2749.30889
441.945	2893.34315
442.158	2640.95141
442.37	2714.08372
442.583	2920.8412
442.796	3050.44578
443.009	3023.59115
443.222	2781.89354
443.434	2694.39037
443.647	3013.51986
443.86	3160.82621
444.072	3313.14827
444.285	3195.45163
444.498	3214.42182
444.71	3041.74067
444.923	3208.82624
445.136	3124.20726
445.348	3128.02743
445.561	3081.32638
445.773	3176.87003
445.986	2912.89006
446.198	3156.39438
446.411	3227.25733
446.623	3390.18083
446.836	3308.093
447.048	3364.00561
447.261	3465.39348
447.473	3563.61692
447.686	3291.49738
447.898	3329.66617
448.11	3596.25677
448.323	3645.17728
448.535	3544.72513
448.748	3448.04286
448.96	3467.01215
449.172	3540.69785
449.385	3267.28925
449.597	3663.51615
449.809	3596.1461
450.021	3843.73728
450.234	3730.70775
450.446	3623.63447
450.658	3591.06148
450.87	3725.72597
451.083	3668.91171
451.295	3675.63148
451.507	3671.79134
451.719	3701.61931
451.931	3785.06951
452.143	3903.33428
452.356	3711.31997
452.568	3879.53632
452.78	3706.74668
452.992	3999.62388
453.204	4079.14266
453.416	3980.40541
453.628	3772.84925
453.84	3774.67901
454.052	3828.38877
454.264	4068.36565
454.476	3908.34063
454.688	4237.30614
454.9	4242.89661
455.112	4051.96027
455.324	3945.68291
455.536	4173.52824
455.747	4221.63229
455.959	4143.03272
456.171	4175.09932
456.383	4090.12621
456.595	3927.06918
456.807	3987.15678
457.018	3920.22072
457.23	4251.84978
457.442	4055.74251
457.654	4289.11896
457.865	4096.17393
458.077	4078.73379
458.289	3977.10596
458.501	4112.17592
458.712	4409.40222
458.924	4447.52564
459.136	4236.01174
459.347	4223.74855
459.559	4176.76452
459.77	4520.21276
459.982	4520.23197
460.194	4422.9083
460.405	4152.46035
460.617	4273.61093
460.828	4470.90242
461.04	4558.80097
461.251	4280.33351
461.463	4772.48414
461.674	4671.933
461.886	4575.04984
462.097	4468.48476
462.309	4695.85789
462.52	4404.13834
462.731	4823.59071
462.943	4521.10262
463.154	4409.99566
463.366	4415.52694
463.577	4702.42341
463.788	4832.12759
464	5001.22867
464.211	4963.68765
464.422	5275.45132
464.634	5112.30895
464.845	5140.36206
465.056	5311.83654
465.267	5090.56372
465.478	4881.07691
465.69	5234.57696
465.901	5025.14068
466.112	5160.93394
466.323	5271.13417
466.534	5320.84303
466.745	5265.83514
466.957	5549.03372
467.168	5264.82709
467.379	5340.32292
467.59	5177.43369
467.801	5060.38113
468.012	5223.12866
468.223	5410.56524
468.434	5198.27111
468.645	5625.45899
468.856	5732.66776
469.067	5594.85031
469.278	5689.59035
469.489	5757.40066
469.7	5317.94779
469.911	5394.76128
470.122	5861.12901
470.333	6084.49145
470.543	5590.09121
470.754	5786.21473
470.965	5943.82282
471.176	5877.56005
471.387	6080.34619
471.598	5976.09556
471.808	5813.45826
472.019	5952.04658
472.23	5912.59075
472.441	5825.49545
472.651	6088.00403
472.862	5926.15504
473.073	6234.98448
473.283	6121.45931
473.494	6032.16556
473.705	6232.43956
473.915	6168.68035
474.126	6450.30229
474.337	6480.25493
474.547	6538.38482
474.758	6663.2138
474.968	6558.27983
475.179	6691.62932
475.389	6593.83674
475.6	6550.14059
475.81	6824.96445
476.021	6847.99557
476.231	6985.4055
476.442	7065.67363
476.652	6855.0538
476.863	6950.06883
477.073	6933.56157
477.284	7011.21802
477.494	7273.17944
477.704	7468.98041
477.915	7601.80547
478.125	7259.2959
478.335	7526.31412
478.546	7690.98755
478.756	7531.1681
478.966	7788.89781
479.177	7701.20733
479.387	7912.51231
479.597	7925.98434
479.807	8017.43257
480.018	7894.85608
480.228	8013.85449
480.438	8236.01526
480.648	8268.22808
480.858	8246.07632
481.068	8011.19752
481.279	8439.65999
481.489	8700.77198
481.699	8702.75908
481.909	8652.7556
482.119	9123.59387
482.329	9042.08033
482.539	8920.88614
482.749	8959.52641
482.959	9093.89175
483.169	9330.82252
483.379	9315.16108
483.589	9415.08496
483.799	9405.43326
484.009	9190.75741
484.219	9340.2449
484.429	9627.39232
484.639	9558.63672
484.849	9601.86913
485.059	9839.41954
485.268	9800.21295
485.478	9928.36513
485.688	9740.83872
485.898	9835.4177
486.108	9943.12756
486.317	10121.79533
486.527	10107.96134
486.737	10550.44738
486.947	10194.12548
487.156	10299.76067
487.366	10124.73001
487.576	10249.73868
487.785	10161.56004
487.995	10123.55859
488.205	10403.00213
488.414	10616.26561
488.624	10290.49921
488.834	10343.61001
489.043	10209.20772
489.253	10194.15202
489.462	10370.34093
489.672	10587.14497
489.882	10693.85747
490.091	10647.25134
490.301	10710.58704
490.51	10735.39877
490.72	10739.0603
490.929	10863.06268
491.138	10894.60678
491.348	10862.84394
491.557	10839.5673
491.767	11035.86131
491.976	11008.71231
492.185	10885.30541
492.395	10935.09729
492.604	11043.63294
492.813	10947.0592
493.023	11314.21216
493.232	11086.87946
493.441	11073.79
493.651	11310.10836
493.86	11081.52336
494.069	11275.97994
494.278	11507.12641
494.488	11374.67496
494.697	11502.26647
494.906	11271.26821
495.115	11570.73798
495.324	11524.1873
495.533	11541.32146
495.743	11623.38648
495.952	11931.9552
496.161	11727.61633
496.37	11902.60678
496.579	11871.99296
496.788	12074.36534
496.997	12184.01671
497.206	12085.85945
497.415	12084.28625
497.624	12106.28311
497.833	12262.87476
498.042	12246.58863
498.251	12302.22026
498.46	12377.43088
498.669	12366.31895
498.878	12327.61478
499.087	12263.45638
499.296	12595.39028
499.504	12353.55016
499.713	12396.9876
499.922	12559.85841
500.131	12583.07048
500.34	12472.68004
500.549	12568.36259
500.757	12493.91304
500.966	12617.1889
501.175	12691.49075
501.384	12729.65552
501.592	12659.84253
501.801	12780.65331
502.01	12594.32171
502.218	12702.64537
502.427	12829.29767
502.636	12638.06543
502.844	12884.65589
503.053	12672.73148
503.262	12695.81588
503.47	12831.76852
503.679	12847.60493
503.887	12735.91386
504.096	12645.60159
504.304	12794.34231
504.513	12829.60639
504.721	12774.48924
504.93	12722.25483
505.138	12647.00193
505.347	12761.24752
505.555	12625.53577
505.764	12748.88855
505.972	12624.98054
506.18	12540.52779
506.389	12672.6962
506.597	12613.40307
506.806	12829.05313
507.014	12814.75651
507.222	12671.60234
507.431	12583.88858
507.639	12605.2392
507.847	12871.08883
508.055	12868.85866
508.264	12682.24759
508.472	12982.53766
508.68	12647.23513
508.888	12735.24959
509.096	12876.40113
509.305	12821.74847
509.513	12723.3827
509.721	12758.12563
509.929	12793.18896
510.137	12744.68448
510.345	12923.82436
510.553	12835.33203
510.762	12791.50134
510.97	12778.79125
511.178	12854.83794
511.386	12999.82577
511.594	12833.44114
511.802	13134.1872
512.01	12908.75452
512.218	12972.94129
512.426	13018.77804
512.634	13024.52857
512.842	13005.83723
513.049	12941.61644
513.257	12956.19484
513.465	12994.13807
513.673	12898.82422
513.881	12968.4597
514.089	13031.07703
514.297	13018.74464
514.504	12988.99352
514.712	12936.18866
514.92	12865.11434
515.128	13152.61878
515.336	12943.54517
515.543	13034.93519
515.751	12922.83562
515.959	12947.92629
516.166	12651.47819
516.374	12760.87993
516.582	12864.97866
516.789	12778.29646
516.997	12715.40299
517.205	12688.82259
517.412	12858.35665
517.62	12775.55361
517.827	12728.69154
518.035	12557.4891
518.243	12577.25324
518.45	12387.42988
518.658	12445.97921
518.865	12424.86514
519.073	12406.32575
519.28	12309.07837
519.488	12283.40456
519.695	12320.59676
519.902	12217.20728
520.11	12192.64196
520.317	12368.05481
520.525	12192.01796
520.732	12013.33572
520.939	12080.15339
521.147	11899.42624
521.354	11995.65187
521.561	12062.93931
521.769	11991.30665
521.976	11835.56984
522.183	11966.61006
522.391	11830.50049
522.598	12059.01057
522.805	11917.18073
523.012	11818.46048
523.219	11882.42615
523.427	11894.13733
523.634	11848.05744
523.841	12005.60698
524.048	11756.1409
524.255	11936.9152
524.462	11862.43697
524.669	11762.43905
524.877	11862.86895
525.084	11790.13923
525.291	11692.77456
525.498	11885.4376
525.705	11784.46136
525.912	11853.83336
526.119	11788.42901
526.326	11749.95295
526.533	11829.37175
526.74	11844.42218
526.947	11818.79043
527.153	11913.41491
527.36	11929.28682
527.567	11662.53137
527.774	11839.36595
527.981	11833.13928
528.188	11734.49171
528.395	11905.10541
528.602	11768.5267
528.808	11798.38328
529.015	11654.91358
529.222	11849.82769
529.429	11745.7974
529.635	11761.37387
529.842	11839.94593
530.049	11608.35373
530.256	11556.99035
530.462	11662.67289
530.669	11582.06032
530.876	11718.82658
531.082	11644.88327
531.289	11592.77506
531.495	11704.28951
531.702	11643.30854
531.909	11495.97358
532.115	11761.23711
532.322	11457.87567
532.528	11525.42626
532.735	11615.02306
532.941	11640.57738
533.148	11402.23559
533.354	11572.08929
533.561	11507.90047
533.767	11385.14025
533.974	11308.33137
534.18	11431.50944
534.387	11282.85869
534.593	11277.51941
534.799	11151.33682
535.006	11298.61911
535.212	11351.18908
535.418	11260.83097
535.625	11356.30398
535.831	11322.22263
536.037	11124.32546
536.244	11139.23909
536.45	10927.80845
536.656	11168.81633
536.862	11078.43885
537.068	11154.76732
537.275	11034.9043
537.481	11031.82992
537.687	11091.70103
537.893	11090.61992
538.099	10985.63202
538.305	11009.8404
538.512	10916.88134
538.718	10970.99492
538.924	10922.85035
539.13	10810.14539
539.336	10895.67601
539.542	10950.30757
539.748	10906.1294
539.954	10848.88893
540.16	10860.20704
540.366	10812.91745
540.572	10776.33053
540.778	10791.78562
540.984	10677.72471
541.19	10737.91621
541.396	10521.79082
541.602	10597.77284
541.807	10517.9329
542.013	10660.61207
542.219	10407.62911
542.425	10419.37757
542.631	10364.42613
542.837	10356.35625
543.042	10263.99231
543.248	10293.86433
543.454	10289.09537
543.66	10309.78355
543.865	10058.9713
544.071	10306.80844
544.277	10095.32378
544.483	10087.97074
544.688	9994.91156
544.894	10126.31128
545.1	10079.42232
545.305	10049.2249
545.511	10008.76171
545.716	9965.49731
545.922	9902.06712
546.128	9923.15262
546.333	9890.87893
546.539	9991.28601
546.744	9805.11045
546.95	9870.10781
547.155	9619.66176
547.361	9986.53094
547.566	9617.72371
547.772	9797.17445
547.977	9624.80447
548.182	9725.51107
548.388	9570.0996
548.593	9622.99401
548.799	9462.89432
549.004	9490.02944
549.209	9569.36477
549.415	9544.11557
549.62	9539.53566
549.825	9437.05324
550.031	9371.73171
550.236	9449.67514
550.441	9438.53525
550.646	9408.2697
550.852	9319.49812
551.057	9292.4276
551.262	9405.08528
551.467	9307.0879
551.672	9312.10293
551.878	9354.67636
552.083	9195.92901
552.288	9188.88253
552.493	9076.33308
552.698	9097.37504
552.903	9080.76641
553.108	9228.86187
553.313	9038.85242
553.518	9056.35119
553.723	9096.10601
553.928	8930.36484
554.133	9025.24426
554.338	9039.91235
554.543	8888.9232
554.748	8844.91542
554.953	9006.24235
555.158	9008.1438
555.363	8887.02711
555.568	8838.72112
555.773	8816.68589
555.978	8859.41036
556.182	8621.19922
556.387	8767.10586
556.592	8599.18228
556.797	8884.68442
557.002	8612.29315
557.206	8599.33722
557.411	8540.63231
557.616	8461.56789
557.821	8566.97595
558.025	8546.98907
558.23	8498.84875
558.435	8547.36786
558.64	8387.48194
558.844	8514.43234
559.049	8488.67289
559.253	8379.39454
559.458	8274.78784
559.663	8413.11572
559.867	8256.55886
560.072	8250.02069
560.276	8260.99726
560.481	8160.60103
560.685	8177.96621
560.89	8080.99243
561.094	8079.2013
561.299	8080.80458
561.503	7975.82845
561.708	8054.05842
561.912	7982.62688
562.117	8073.69604
562.321	7842.27281
562.525	7980.54334
562.73	7937.67242
562.934	7886.04114
563.139	7723.86001
563.343	7830.59646
563.547	7580.34194
563.752	7779.52433
563.956	7609.32383
564.16	7802.16456
564.364	7633.96645
564.569	7575.24353
564.773	7583.2449
564.977	7694.49714
565.181	7593.31821
565.385	7618.89588
565.59	7493.33068
565.794	7565.35283
565.998	7490.65966
566.202	7479.36849
566.406	7417.63938
566.61	7458.76418
566.814	7373.05537
567.018	7324.127
567.222	7360.86896
567.426	7264.97461
567.63	7290.19221
567.834	7378.04875
568.038	7219.01484
568.242	7269.4867
568.446	7085.52617
568.65	7373.66129
568.854	7169.45046
569.058	7207.15505
569.262	7129.12861
569.466	7377.44751
569.67	7245.10206
569.874	7231.42416
570.078	7144.32553
570.281	7169.81791
570.485	7186.79704
570.689	7249.00371
570.893	7137.76866
571.097	7154.70785
571.3	7100.67844
571.504	7344.42908
571.708	7179.23813
571.912	7271.80035
572.115	6997.2712
572.319	7232.0773
572.523	7212.84439
572.726	7275.17558
572.93	7224.25899
573.133	7318.47801
573.337	7383.15924
573.541	7384.29149
573.744	7356.79656
573.948	7425.76953
574.151	7549.27114
574.355	7522.57205
574.558	7493.0675
574.762	7632.7928
574.965	7515.08293
575.169	7674.43989
575.372	7560.2373
575.576	7692.97036
575.779	7614.72107
575.983	7751.36759
576.186	7869.69107
576.389	7896.04794
576.593	7905.34001
576.796	7933.94849
577	7823.56787
577.203	8080.06583
577.406	8167.64098
577.609	8257.63013
577.813	8204.16696
578.016	8252.30194
578.219	8293.0596
578.423	8383.06918
578.626	8401.23557
578.829	8484.47665
579.032	8439.23813
579.235	8726.23755
579.438	8680.77803
579.642	8806.97763
579.845	8685.45527
580.048	8956.91347
580.251	8807.81569
580.454	8892.02534
580.657	8931.44831
580.86	9171.96725
581.063	9070.06048
581.266	9282.23009
581.469	9251.1088
581.672	9307.26445
581.875	9386.16128
582.078	9342.4618
582.281	9503.4025
582.484	9546.55824
582.687	9625.07615
582.89	9661.80887
583.093	9605.68218
583.296	9825.9869
583.499	9971.653
583.702	9797.99606
583.904	9814.15055
584.107	10108.84219
584.31	10026.45631
584.513	10065.62934
584.716	10197.20236
584.918	10324.24713
585.121	10359.91386
585.324	10504.70133
585.527	10336.7276
585.729	10440.92089
585.932	10400.0911
586.135	10483.58659
586.337	10532.56212
586.54	10605.94278
586.743	10659.25337
586.945	10677.08882
587.148	10647.42035
587.35	10776.33205
587.553	10815.34613
587.755	10799.73904
587.958	10965.18194
588.161	11068.38443
588.363	11088.14456
588.566	11064.47783
588.768	11301.50825
588.971	11199.34162
589.173	11171.68436
589.375	11276.8348
589.578	11371.08232
589.78	11492.48525
589.983	11379.40637
590.185	11669.20186
590.387	11407.20707
590.59	11660.75042
590.792	11589.99094
590.994	11733.75716
591.197	11679.84004
591.399	11721.01482
591.601	11776.83425
591.803	11794.83989
592.006	11979.05999
592.208	12132.25068
592.41	11870.89244
592.612	12235.26405
592.815	12233.79373
593.017	12345.91691
593.219	12333.42881
593.421	12518.3069
593.623	12500.42575
593.825	12284.90991
594.027	12395.49888
594.229	12725.83
594.432	12608.45592
594.634	12879.96396
594.836	12619.47878
595.038	12978.06927
595.24	12750.99647
595.442	12882.84847
595.644	12994.00319
595.846	12859.33712
596.048	13213.16236
596.249	13131.49263
596.451	13065.27492
596.653	13084.86116
596.855	13210.47917
597.057	13348.25199
597.259	13299.90099
597.461	13321.90195
597.663	13459.8191
597.864	13315.70527
598.066	13612.17429
598.268	13484.78862
598.47	13482.93693
598.671	13571.40224
598.873	13615.96765
599.075	13615.97593
599.277	13767.81489
599.478	13775.71508
599.68	13672.12604
599.882	13868.22693
600.083	13837.10791
600.285	13822.75416
600.487	13772.36986
600.688	13890.50521
600.89	13889.19004
601.091	13902.64886
601.293	13951.66988
601.494	14209.24872
601.696	14007.58853
601.898	13883.6827
602.099	14074.75706
602.301	14008.30146
602.502	14165.65701
602.703	14360.26712
602.905	14101.62998
603.106	14098.09259
603.308	14002.44409
603.509	14198.54667
603.711	14001.66919
603.912	14294.9886
604.113	14038.65727
604.315	14089.66868
604.516	14151.14799
604.717	14043.49356
604.919	14173.98995
605.12	14085.97073
605.321	14033.47826
605.522	14195.37874
605.724	14167.13749
605.925	14051.20162
606.126	14111.3025
606.327	14223.89128
606.528	14200.5086
606.729	14049.02694
606.931	14153.89434
607.132	14192.48302
607.333	13913.9019
607.534	14147.07059
607.735	14219.7465
607.936	14013.96758
608.137	14161.62775
608.338	14062.86131
608.539	14124.74112
608.74	14046.52394
608.941	14007.85966
609.142	14034.60533
609.343	14083.58466
609.544	14218.87315
609.745	14056.89706
609.946	14194.89133
610.147	13925.18825
610.348	14043.19114
610.549	14008.11084
610.75	14142.14396
610.95	14075.00653
611.151	13857.09266
611.352	13994.35762
611.553	13900.15883
611.754	13842.93614
611.954	14027.42834
612.155	13767.00744
612.356	13933.24185
612.557	13842.70075
612.757	13880.56676
612.958	13696.35544
613.159	13830.45079
613.359	13887.69206
613.56	13711.09234
613.761	13708.62282
613.961	13729.10976
614.162	13651.07194
614.362	13694.95821
614.563	13695.41212
614.764	13820.99201
614.964	13611.18078
615.165	13641.67389
615.365	13719.706
615.566	13520.73549
615.766	13473.32142
615.967	13543.77071
616.167	13563.764
616.368	13358.54958
616.568	13409.50063
616.768	13430.06746
616.969	13358.90702
617.169	13413.67285
617.37	13363.78569
617.57	13382.06964
617.77	13212.11436
617.971	13243.3811
618.171	13147.82799
618.371	13338.1166
618.571	13054.80922
618.772	13274.71131
618.972	13179.59662
619.172	13117.30596
619.372	13040.62245
619.573	13115.77149
619.773	13036.07713
619.973	13144.75152
620.173	12936.33856
620.373	13011.28903
620.573	12883.35045
620.774	13116.67673
620.974	12979.83302
621.174	12963.31145
621.374	12880.04986
621.574	13066.39305
621.774	12751.04864
621.974	12890.49808
622.174	12925.69095
622.374	13065.10097
622.574	12875.26728
622.774	12833.39027
622.974	12598.95096
623.174	12843.00254
623.374	12703.80074
623.574	12769.77289
623.774	12770.7601
623.973	12789.03409
624.173	12851.54399
624.373	12795.85463
624.573	12573.06966
624.773	12650.55286
624.973	12492.30243
625.172	12590.39192
625.372	12548.15928
625.572	12557.0915
625.772	12633.71117
625.971	12465.20423
626.171	12444.85086
626.371	12673.45094
626.57	12509.0067
626.77	12651.96471
626.97	12461.37112
627.169	12497.27029
627.369	12473.1434
627.569	12468.6923
627.768	12189.11416
627.968	12327.48301
628.167	12303.00932
628.367	12259.04284
628.566	12331.34004
628.766	12237.32364
628.965	12194.75679
629.165	12366.31143
629.364	12181.6243
629.564	12185.38119
629.763	12295.41821
629.963	12249.53185
630.162	12155.46143
630.362	12086.27044
630.561	12185.36834
630.76	12029.55667
630.96	11926.31083
631.159	12244.34578
631.358	12159.90111
631.558	12061.1739
631.757	11867.25029
631.956	12067.08104
632.155	11998.66273
632.355	11892.82421
632.554	12037.26251
632.753	11788.44666
632.952	11950.57572
633.152	11759.05082
633.351	11861.63066
633.55	11810.15895
633.749	11859.13013
633.948	11817.76692
634.147	11783.44514
634.346	11744.58466
634.545	11657.88299
634.744	11680.14393
634.944	11668.34623
635.143	11744.5471
635.342	11589.75793
635.541	11791.96508
635.74	11521.94967
635.939	11736.06638
636.138	11551.68382
636.336	11710.27732
636.535	11647.44563
636.734	11651.97222
636.933	11620.70077
637.132	11709.45688
637.331	11548.59293
637.53	11594.98365
637.729	11551.92458
637.928	11596.52486
638.126	11478.31099
638.325	11502.44253
638.524	11530.75531
638.723	11491.78963
638.921	11518.92143
639.12	11590.87917
639.319	11421.18101
639.518	11550.87366
639.716	11434.86363
639.915	11486.33887
640.114	11491.50516
640.312	11587.25208
640.511	11401.55318
640.71	11567.72477
640.908	11450.04673
641.107	11367.99965
641.305	11397.72263
641.504	11673.75004
641.702	11344.48145
641.901	11408.21038
642.099	11299.54246
642.298	11385.34045
642.496	11178.17855
642.695	11399.397
642.893	11309.5608
643.092	11440.67876
643.29	11284.35811
643.489	11058.33186
643.687	11143.11103
643.885	11191.03949
644.084	11236.14801
644.282	11303.41077
644.48	11393.34662
644.679	11212.58371
644.877	11078.06885
645.075	11047.69811
645.274	11130.99457
645.472	10970.42916
645.67	10960.9624
645.868	11054.98955
646.067	10961.68324
646.265	11054.40516
646.463	10978.65453
646.661	10860.72578
646.859	10840.06789
647.057	10792.9291
647.256	10934.79022
647.454	10933.44498
647.652	11051.96942
647.85	10867.08523
648.048	10808.27619
648.246	10933.82851
648.444	10714.65154
648.642	10678.02361
648.84	10656.96065
649.038	10669.81342
649.236	10613.9294
649.434	10635.96498
649.632	10571.41653
649.83	10607.83155
650.028	10371.1711
650.226	10548.32775
650.423	10394.00432
650.621	10368.29406
650.819	10396.36564
651.017	10380.25768
651.215	10362.48073
651.413	10405.60978
651.61	10330.6914
651.808	10184.75437
652.006	10212.27366
652.204	10295.32025
652.401	10214.71558
652.599	10234.08071
652.797	10122.99187
652.995	10105.76008
653.192	9980.44321
653.39	10133.76485
653.588	10089.71714
653.785	10041.08221
653.983	9945.59115
654.18	10103.00248
654.378	9849.60386
654.576	10137.39926
654.773	9941.00684
654.971	9991.29374
655.168	9870.51628
655.366	9826.81434
655.563	9919.59589
655.761	9912.59121
655.958	9741.77656
656.156	9799.06485
656.353	9737.04616
656.55	9791.29539
656.748	9877.32358
656.945	9787.49527
657.143	9602.52003
657.34	9628.28512
657.537	9468.39373
657.735	9654.97589
657.932	9323.91632
658.129	9461.22314
658.326	9377.72094
658.524	9451.34372
658.721	9376.28659
658.918	9300.00202
659.115	9287.90129
659.313	9405.49545
659.51	9216.48993
659.707	9214.28405
659.904	9087.619
660.101	9254.59714
660.298	9222.44571
660.496	9199.89981
660.693	9167.94288
660.89	9127.60421
661.087	9134.47782
661.284	9122.39195
661.481	9012.29275
661.678	9024.17393
661.875	9028.76782
662.072	9128.42156
662.269	8995.462
662.466	8965.34911
662.663	8960.88586
662.86	9012.88103
663.057	8816.46393
663.254	9090.01276
663.45	9088.39705
663.647	8928.00054
663.844	9046.50295
664.041	8894.71376
664.238	8922.33411
664.435	8860.51251
664.631	8903.14738
664.828	9003.35589
665.025	8947.69377
665.222	8904.63336
665.419	8868.30511
665.615	8929.95924
665.812	8761.88022
666.009	8996.09155
666.205	9042.1774
666.402	8983.82439
666.599	9031.97542
666.795	8855.47147
666.992	9061.17947
667.188	8952.88983
667.385	8892.08614
667.582	9173.57331
667.778	8899.89527
667.975	9006.66451
668.171	9032.68793
668.368	8954.33425
668.564	8994.64246
668.761	9099.71096
668.957	8913.48176
669.154	9008.68858
669.35	8929.50702
669.547	8876.05857
669.743	8945.21623
669.939	9105.34271
670.136	8880.6173
670.332	8974.02046
670.528	8909.82671
670.725	8930.0944
670.921	8908.11334
671.117	8884.14036
671.314	8919.40759
671.51	9009.54533
671.706	8937.32341
671.902	8848.06578
672.099	8833.21506
672.295	8715.05381
672.491	8795.10263
672.687	8811.90205
672.883	8756.27278
673.08	8859.17317
673.276	8894.83711
673.472	8806.76812
673.668	8778.26279
673.864	8759.79284
674.06	8839.08004
674.256	8721.0454
674.452	8548.73332
674.648	8627.91695
674.844	8610.53694
675.04	8795.15019
675.236	8604.01766
675.432	8551.8705
675.628	8539.49678
675.824	8505.48628
676.02	8621.04692
676.216	8522.51909
676.412	8565.7983
676.608	8531.93199
676.804	8356.12479
676.999	8582.6587
677.195	8461.10784
677.391	8504.44276
677.587	8362.28496
677.783	8375.55072
677.978	8323.46082
678.174	8483.4324
678.37	8293.40696
678.566	8478.56449
678.761	8355.55026
678.957	8428.97086
679.153	8291.36918
679.348	8399.4346
679.544	8224.0537
679.74	8290.03284
679.935	8254.3022
680.131	8265.45317
680.327	8236.39607
680.522	8218.56882
680.718	8090.9097
680.913	8052.47789
681.109	8127.89569
681.304	8198.997
681.5	8088.36504
681.695	8063.54467
681.891	7964.1479
682.086	8145.72297
682.282	8018.56052
682.477	7900.00593
682.672	7940.46578
682.868	8046.63992
683.063	8000.24699
683.259	8026.45745
683.454	7947.82368
683.649	8007.28698
683.845	7826.74472
684.04	7954.59812
684.235	7916.2293
684.43	7928.37387
684.626	7826.60896
684.821	7849.57422
685.016	7702.93515
685.211	7763.00668
685.407	7715.52088
685.602	7810.04254
685.797	7727.81612
685.992	7743.32623
686.187	7834.23705
686.382	7868.10157
686.577	7595.1568
686.773	7690.04864
686.968	7654.24841
687.163	7655.96537
687.358	7589.40819
687.553	7609.63311
687.748	7720.1469
687.943	7593.78926
688.138	7612.84211
688.333	7637.64445
688.528	7380.56234
688.723	7361.23041
688.918	7373.31675
689.112	7383.7619
689.307	7153.64523
689.502	7287.67275
689.697	7215.10289
689.892	7247.26722
690.087	7120.00904
690.282	7144.26059
690.476	7052.01846
690.671	7090.74486
690.866	6868.87201
691.061	6969.96526
691.255	6863.61466
691.45	6919.58954
691.645	6790.69289
691.84	7006.52593
692.034	6696.85127
692.229	6765.18799
692.424	6788.07501
692.618	6687.22325
692.813	6582.21633
693.007	6602.1138
693.202	6613.80743
693.397	6606.15849
693.591	6504.69875
693.786	6586.44931
693.98	6419.59816
694.175	6649.55069
694.369	6318.08882
694.564	6466.98418
694.758	6384.11936
694.953	6319.42438
695.147	6346.6361
695.342	6404.42971
695.536	6441.80951
695.73	6384.62211
695.925	6273.60903
696.119	6255.22865
696.313	6168.07513
696.508	6297.82699
696.702	6218.26041
696.896	6261.07509
697.091	6168.30834
697.285	6267.47146
697.479	6128.28066
697.673	6227.305
697.868	6121.34572
698.062	6221.14095
698.256	6190.45049
698.45	6278.26373
698.644	6203.9404
698.839	6330.576
699.033	6207.38068
699.227	6240.6011
699.421	6093.60432
699.615	6323.56192
699.809	6275.38531
700.003	6366.56415
700.197	6250.05543
700.391	6384.24566
700.585	6291.30244
700.779	6296.60563
700.973	6269.74595
701.167	6358.53965
701.361	6238.09059
701.555	6331.19812
701.749	6249.02051
701.943	6324.17319
702.137	6200.58504
702.331	6344.99479
702.525	6086.22388
702.718	6399.68303
702.912	6247.75469
703.106	6198.71428
703.3	6199.9224
703.494	6244.99343
703.687	6233.57906
703.881	6182.8673
704.075	6094.69584
704.269	6315.02159
704.462	6198.79273
704.656	6210.34581
704.85	6149.70494
705.043	6156.86227
705.237	6146.18306
705.431	6188.12241
705.624	6087.92429
705.818	6150.22595
706.012	6213.73832
706.205	6135.77453
706.399	6046.21737
706.592	6285.15397
706.786	5933.47812
706.979	6072.67551
707.173	5882.19168
707.366	6021.44928
707.56	6104.98016
707.753	6056.88607
707.947	6079.47892
708.14	6029.42028
708.333	5947.72514
708.527	6109.82647
708.72	5888.76866
708.914	6177.99549
709.107	5942.40277
709.3	5961.52333
709.494	5978.25846
709.687	5840.40858
709.88	5935.94798
710.073	5851.67364
710.267	5950.70053
710.46	5899.81092
710.653	5937.13742
710.846	5901.06204
711.04	5967.08851
711.233	5967.21152
711.426	5958.48608
711.619	5905.11773
711.812	5974.66915
712.005	5887.94789
712.198	5836.34806
712.391	5998.46697
712.585	5886.82348
712.778	5825.85895
712.971	5751.15135
713.164	5846.19543
713.357	5950.41814
713.55	5871.77705
713.743	5858.81039
713.936	5832.35188
714.129	5825.91045
714.322	5760.18148
714.514	5806.04254
714.707	5852.58375
714.9	5795.72624
715.093	5821.46722
715.286	5742.32301
715.479	5770.78117
715.672	5813.12994
715.864	5778.11512
716.057	5640.46326
716.25	5811.11554
716.443	5737.13035
716.636	5670.82113
716.828	5673.52103
717.021	5611.63403
717.214	5603.52096
717.406	5656.55584
717.599	5541.31573
717.792	5499.39133
717.984	5673.65096
718.177	5579.64933
718.37	5546.23006
718.562	5615.41275
718.755	5633.45426
718.947	5466.23827
719.14	5327.74958
719.333	5322.42287
719.525	5321.37008
719.718	5339.00546
719.91	5184.54496
720.103	5233.50565
720.295	5122.30658
720.487	5168.69224
720.68	5080.02466
720.872	5185.25083
721.065	4941.80927
721.257	5029.62688
721.449	4916.18525
721.642	4865.2666
721.834	4917.87778
722.026	4771.13458
722.219	4645.36216
722.411	4637.40128
722.603	4664.92112
722.796	4756.21848
722.988	4551.57157
723.18	4657.56012
723.372	4508.31035
723.565	4514.54326
723.757	4466.99233
723.949	4508.66068
724.141	4419.14285
724.333	4396.38057
724.525	4384.44635
724.717	4493.41602
724.91	4265.26296
725.102	4250.51177
725.294	4263.96455
725.486	4347.51229
725.678	4174.41641
725.87	4217.92034
726.062	4222.17499
726.254	4166.50686
726.446	4037.47749
726.638	4231.87288
726.83	3960.34114
727.022	3981.63991
727.213	4072.36708
727.405	4094.32979
727.597	3911.52514
727.789	4015.24662
727.981	3950.24027
728.173	4021.43487
728.365	3968.06004
728.556	3963.72554
728.748	3919.89328
728.94	3968.88684
729.132	4036.0142
729.324	3869.74692
729.515	3871.3706
729.707	3857.97632
729.899	3967.81551
730.09	3950.49038
730.282	3972.85339
730.474	3954.2009
730.665	3872.99547
730.857	3901.77671
731.049	3826.90548
731.24	3868.38164
731.432	3883.25396
731.623	3848.39008
731.815	3885.18035
732.006	3910.63556
732.198	3784.18783
732.389	3822.10129
732.581	3796.74782
732.772	3845.79666
732.964	3779.17976
733.155	3803.02911
733.347	3800.62843
733.538	3820.78376
733.729	3719.15206
733.921	3820.53317
734.112	3731.30786
734.304	3858.68373
734.495	3702.13111
734.686	3831.50206
734.877	3758.1653
735.069	3791.4466
735.26	3748.83974
735.451	3905.09286
735.643	3707.25751
735.834	3795.27805
736.025	3786.15465
736.216	3790.46708
736.407	3760.21962
736.599	3830.48368
736.79	3851.14333
736.981	3863.93329
737.172	3789.78307
737.363	3875.36729
737.554	3815.4364
737.745	3936.92888
737.936	3869.01143
738.127	3890.92049
738.318	3871.3425
738.509	4042.28068
738.7	3804.11555
738.891	3950.16374
739.082	4007.51593
739.273	3925.88746
739.464	3961.67013
739.655	4021.95262
739.846	3983.20205
740.037	4014.38328
740.228	3951.39219
740.419	4103.46784
740.609	3885.91182
740.8	4044.47222
740.991	3923.83412
741.182	4050.50187
741.373	4100.99898
741.563	4044.85231
741.754	3964.69743
741.945	4026.69123
742.136	3992.14742
742.326	4146.36191
742.517	4118.3414
742.708	4076.78064
742.898	4047.53941
743.089	4066.20774
743.28	3844.35641
743.47	4052.07426
743.661	3973.98201
743.851	4069.18449
744.042	3926.01992
744.233	4055.43665
744.423	4073.80764
744.614	4099.16407
744.804	3964.27601
744.995	3997.77983
745.185	3800.42471
745.376	4086.73492
745.566	4032.85193
745.756	4032.53692
745.947	4024.34751
746.137	3979.91521
746.328	4022.78674
746.518	4087.04234
746.708	3882.09394
746.899	4029.8732
747.089	3968.28917
747.279	4010.3768
747.47	3975.21165
747.66	4018.37477
747.85	3958.91222
748.04	4070.82768
748.231	3985.69046
748.421	4026.77485
748.611	3949.81599
748.801	4029.24405
748.991	3909.63592
749.182	3915.30774
749.372	3849.61779
749.562	3967.93676
749.752	3931.91016
749.942	3874.19884
750.132	3903.70764
750.322	3940.56211
750.512	3931.3601
750.702	3940.33924
750.892	3817.1156
751.082	3946.61035
751.272	3843.53913
751.462	3918.8647
751.652	3888.39967
751.842	3918.76449
752.032	3805.23347
752.222	3937.17575
752.412	3765.58475
752.602	3801.11323
752.792	3911.89275
752.981	3866.65982
753.171	3811.65866
753.361	3891.08743
753.551	3744.4124
753.741	3796.35408
753.93	3743.3913
754.12	3718.28254
754.31	3750.0662
754.5	3781.8332
754.689	3678.84873
754.879	3823.2292
755.069	3599.8875
755.258	3752.28112
755.448	3713.22521
755.638	3819.47348
755.827	3624.38224
756.017	3694.32825
756.206	3647.03766
756.396	3658.876
756.586	3577.06439
756.775	3638.20239
756.965	3584.61312
757.154	3755.43077
757.344	3578.39384
757.533	3615.70465
757.723	3568.42234
757.912	3591.91644
758.101	3593.93981
758.291	3596.75443
758.48	3523.37912
758.67	3618.30824
758.859	3461.24974
759.048	3539.64768
759.238	3477.84458
759.427	3499.01303
759.616	3502.21142
759.806	3515.00471
759.995	3436.92769
760.184	3517.73467
760.373	3429.33023
760.563	3568.88795
760.752	3363.27635
760.941	3464.86449
761.13	3275.48677
761.319	3324.93151
761.509	3332.43402
761.698	3251.4967
761.887	3236.28992
762.076	3197.0906
762.265	2956.09034
762.454	3097.03574
762.643	2847.03118
762.832	2862.41051
763.021	2665.63821
763.21	2754.14264
763.399	2562.39932
763.588	2622.48713
763.777	2552.85206
763.966	2560.43973
764.155	2372.21506
764.344	2455.02938
764.533	2433.44687
764.722	2426.90058
764.911	2282.96544
765.1	2174.6601
765.288	2061.95231
765.477	2034.15274
765.666	2039.93917
765.855	1921.76186
766.044	1858.54423
766.232	1936.74169
766.421	1724.84603
766.61	1815.18396
766.799	1601.82484
766.987	1711.66497
767.176	1544.08056
767.365	1602.31459
767.553	1535.54656
767.742	1553.50814
767.931	1421.93637
768.119	1555.30552
768.308	1390.23244
768.497	1431.89029
768.685	1323.7579
768.874	1414.87877
769.062	1379.73311
769.251	1377.47496
769.439	1324.51763
769.628	1517.29511
769.816	1395.87703
770.005	1437.22956
770.193	1504.14463
770.382	1565.72799
770.57	1542.7697
770.758	1683.7211
770.947	1572.0283
771.135	1740.36694
771.323	1613.99073
771.512	1796.65723
771.7	1673.75624
771.888	1804.96901
772.077	1778.1957
772.265	1817.81338
772.453	1845.94707
772.642	1893.81297
772.83	1960.86082
773.018	2023.40181
773.206	1903.66763
773.394	2039.11016
773.583	1998.75407
773.771	2185.47338
773.959	2139.15099
774.147	2248.31324
774.335	2183.29694
774.523	2273.87973
774.711	2224.40798
774.899	2420.08127
775.087	2328.43812
775.275	2389.03335
775.463	2406.38824
775.651	2465.11586
775.839	2400.04965
776.027	2493.85426
776.215	2416.80559
776.403	2542.92143
776.591	2486.25418
776.779	2635.30681
776.967	2501.89972
777.155	2660.53571
777.343	2586.09214
777.531	2514.53888
777.718	2524.41172
777.906	2620.43005
778.094	2542.01604
778.282	2632.77119
778.47	2515.75008
778.657	2621.49477
778.845	2522.44675
779.033	2641.69271
779.22	2581.55585
779.408	2626.46051
779.596	2557.66413
779.783	2742.2697
779.971	2535.76876
780.159	2624.91854
780.346	2598.26218
780.534	2714.73775
780.722	2556.23257
780.909	2683.84073
781.097	2549.83655
781.284	2699.33776
781.472	2547.89566
781.659	2638.89377
781.847	2530.57644
782.034	2616.91588
782.222	2409.14682
782.409	2626.89434
782.597	2509.3522
782.784	2622.68758
782.971	2500.27036
783.159	2582.05158
783.346	2502.91418
783.533	2526.30533
783.721	2514.61372
783.908	2521.01336
784.095	2410.17938
784.283	2584.88692
784.47	2477.92576
784.657	2482.82985
784.844	2346.41524
785.032	2465.43403
785.219	2429.26353
785.406	2517.17742
785.593	2338.5894
785.78	2472.76893
785.968	2544.13539
786.155	2502.02327
786.342	2415.45971
786.529	2506.48804
786.716	2406.07372
786.903	2360.99689
787.09	2328.57996
787.277	2508.42915
787.464	2266.48946
787.651	2423.65894
787.838	2288.89432
788.025	2456.99306
788.212	2224.99153
788.399	2358.84128
788.586	2222.30346
788.773	2400.52918
788.96	2242.77533
789.147	2287.14601
789.334	2211.92698
789.521	2273.44419
789.707	2196.73611
789.894	2269.15895
790.081	2280.6954
790.268	2238.87891
790.455	2195.04074
790.641	2248.07219
790.828	2231.45503
791.015	2207.23287
791.202	2220.09381
791.388	2180.11199
791.575	2127.16716
791.762	2135.50515
791.948	2141.21025
792.135	2174.39315
792.322	1990.11834
792.508	2152.78267
792.695	2112.89177
792.881	2169.03504
793.068	2062.85259
793.254	2144.39846
793.441	2110.31343
793.627	2127.93693
793.814	1956.42704
794	2083.29181
794.187	1907.1563
794.373	2136.23093
794.56	1972.62401
794.746	2100.49987
794.933	2090.95084
795.119	2046.97087
795.305	2082.52414
795.492	2148.64905
795.678	1967.52385
795.864	2078.61949
796.051	1870.01047
796.237	1945.48414
796.423	1983.58039
796.61	2004.08271
796.796	1892.45679
796.982	1962.29958
797.168	1995.68166
797.355	1884.32616
797.541	1901.89298
797.727	2011.36035
797.913	1850.36817
798.099	1932.62707
798.285	1824.47126
798.471	1853.1979
798.658	1888.58367
798.844	1926.28789
799.03	1894.88126
799.216	1994.30209
799.402	1902.46513
799.588	1964.9309
799.774	1807.24899
799.96	1880.98835
800.146	1826.47933
800.332	1951.73151
800.518	1795.012
800.704	1949.63548
800.89	1882.18787
801.075	1918.8995
801.261	1863.89248
801.447	1914.73774
801.633	1778.9495
801.819	1950.06613
802.005	1771.28137
802.19	1874.06305
802.376	1862.52389
802.562	1833.65337
802.748	1775.96381
802.934	1898.58506
803.119	1811.15608
803.305	1854.55812
803.491	1819.29274
803.676	1928.2336
803.862	1812.57569
804.048	1840.73094
804.233	1834.5479
804.419	1885.22871
804.605	1705.83409
804.79	1937.02791
804.976	1731.79671
805.161	1810.98197
805.347	1756.85751
805.532	1847.42906
805.718	1774.06137
805.903	1828.63652
806.089	1791.15154
806.274	1865.90905
806.46	1796.5664
806.645	1917.82743
806.831	1767.2872
807.016	1880.16938
807.201	1781.71943
807.387	1897.33478
807.572	1708.83237
807.757	1887.97204
807.943	1761.69998
808.128	1838.74137
808.313	1764.46179
808.499	1755.83256
808.684	1731.66567
808.869	1773.59395
809.054	1672.18053
809.24	1825.7357
809.425	1616.63807
809.61	1741.15858
809.795	1717.57829
809.98	1776.31978
810.165	1686.93903
810.35	1830.765
810.536	1702.89009
810.721	1728.9138
810.906	1743.3034
811.091	1831.68898
811.276	1588.98479
811.461	1716.37404
811.646	1692.70561
811.831	1748.49599
812.016	1642.21044
812.201	1752.27698
812.386	1670.09601
812.571	1780.3979
812.756	1581.60649
812.941	1631.89983
813.125	1654.46729
813.31	1691.46763
813.495	1564.17527
813.68	1668.05876
813.865	1590.02593
814.05	1688.54392
814.234	1561.51071
814.419	1600.80169
814.604	1528.55576
814.789	1686.45003
814.973	1589.36706
815.158	1556.73679
815.343	1549.44729
815.528	1471.17301
815.712	1432.12872
815.897	1552.01443
816.081	1420.24912
816.266	1467.98397
816.451	1483.09626
816.635	1438.59484
816.82	1351.07089
817.004	1475.33706
817.189	1392.96611
817.374	1391.93084
817.558	1291.09793
817.743	1433.86084
817.927	1243.92128
818.111	1328.31015
818.296	1251.19778
818.48	1304.40584
818.665	1201.84218
818.849	1281.46453
819.034	1130.60285
819.218	1212.16192
819.402	1103.11935
819.587	1160.30906
819.771	1029.84329
819.955	1134.10646
820.14	1036.12953
820.324	1124.61177
820.508	1026.423
820.692	1124.64577
820.877	1041.30942
821.061	1045.71632
821.245	979.72731
821.429	1012.78357
821.613	968.50694
821.798	961.70524
821.982	893.8553
822.166	986.66661
822.35	911.10049
822.534	969.38947
822.718	802.58125
822.902	972.74335
823.086	848.43177
823.27	921.4835
823.454	764.54855
823.638	974.07832
823.822	808.85308
824.006	885.55022
824.19	797.12086
824.374	924.55396
824.558	756.7315
824.742	884.98518
824.926	741.85588
825.11	877.95444
825.294	787.32791
825.477	903.75424
825.661	797.34954
825.845	816.61078
826.029	789.04633
826.213	852.00038
826.396	759.53228
826.58	825.77482
826.764	791.72938
826.948	815.27852
827.131	711.65231
827.315	797.50949
827.499	769.31057
827.682	825.99822
827.866	747.00606
828.05	739.05408
828.233	757.68262
828.417	775.39207
828.6	712.19333
828.784	757.05656
828.967	679.11568
829.151	723.36699
829.335	688.40932
829.518	766.39518
829.701	706.34084
829.885	815.22051
830.068	730.4222
830.252	821.47911
830.435	716.39857
830.619	767.60517
830.802	691.39028
830.985	773.24605
831.169	654.37105
831.352	720.29326
831.535	708.7519
831.719	710.42179
831.902	671.28182
832.085	668.27463
832.269	643.98206
832.452	777.35433
832.635	744.71883
832.818	745.47744
833.002	754.29335
833.185	768.29563
833.368	676.195
833.551	715.34692
833.734	696.33379
833.917	776.79754
834.1	660.9286
834.284	840.72033
834.467	612.39908
834.65	748.99648
834.833	717.47592
835.016	731.55073
835.199	648.16392
835.382	740.55391
835.565	657.70966
835.748	703.9819
835.931	619.44343
836.114	670.79631
836.297	575.46591
836.479	713.72983
836.662	633.30064
836.845	647.71699
837.028	626.64372
837.211	643.62299
837.394	633.55361
837.577	660.9286
837.759	710.88206
837.942	649.76268
838.125	614.63434
838.308	674.75128
838.49	702.94486
838.673	508.06257
838.856	633.80734
839.039	623.43941
839.221	602.76897
839.404	676.31689
839.587	642.99349
839.769	666.54777
839.952	609.89788
840.134	670.29846
840.317	586.85432
840.499	648.68127
840.682	556.03535
840.865	650.49399
841.047	634.84434
841.23	646.02263
841.412	567.92274
841.595	581.85394
841.777	564.76458
841.959	679.0894
842.142	547.77871
842.324	590.89391
842.507	569.0719
842.689	668.28236
842.871	636.13605
843.054	708.7519
843.236	573.06442
843.418	644.07504
843.601	585.8753
843.783	604.23553
843.965	541.4667
844.147	693.42358
844.33	531.11619
844.512	637.42276
844.694	579.9991
844.876	661.35977
845.059	551.20294
845.241	601.78366
845.423	597.01342
845.605	613.03822
845.787	539.4528
845.969	596.79589
846.151	570.07564
846.333	608.63947
846.515	575.00906
846.697	574.55087
846.879	555.85807
847.061	695.90939
847.243	515.25546
847.425	589.00429
847.607	622.76408
847.789	594.49563
847.971	570.89014
848.153	591.47693
848.335	533.62564
848.517	601.09176
848.699	557.23161
848.881	574.77772
849.062	515.80174
849.244	616.75746
849.426	547.03046
849.608	627.53502
849.789	510.68608
849.971	487.6963
850.153	445.35602
850.335	548.17929
850.516	470.07561
850.698	496.33805
850.88	577.22544
851.061	529.0926
851.243	511.42006
851.425	560.66057
851.606	450.3287
851.788	486.92595
851.969	490.32904
852.151	495.22683
852.333	437.30749
852.514	550.65922
852.696	499.06454
852.877	459.20508
853.059	434.16278
853.24	466.52124
853.422	352.6658
853.603	463.80476
853.784	375.42741
853.966	478.90595
854.147	376.47128
854.329	476.80818
854.51	402.20078
854.691	468.94783
854.873	465.19193
855.054	372.62703
855.235	373.14495
855.416	441.38391
855.598	338.73406
855.779	467.0361
855.96	456.51331
856.141	392.57758
856.323	392.25691
856.504	388.93119
856.685	367.97336
856.866	389.87146
857.047	390.53848
857.228	361.14906
857.409	366.88588
857.591	364.53359
857.772	317.76546
857.953	333.03408
858.134	361.5269
858.315	340.86278
858.496	319.688
858.677	324.41597
858.858	295.35806
859.039	357.1572
859.22	336.76766
859.401	410.59821
859.582	331.58559
859.762	291.96245
859.943	318.78658
860.124	363.73115
860.305	289.81506
860.486	284.06674
860.667	247.24327
860.848	301.03394
861.028	302.15125
861.209	280.86262
861.39	301.329
861.571	271.85712
861.751	265.07902
861.932	253.66023
862.113	295.56913
862.293	309.92476
862.474	263.81274
862.655	320.21502
862.835	265.11885
863.016	329.35045
863.197	308.13177
863.377	313.08764
863.558	331.31118
863.738	351.61517
863.919	274.13413
864.099	276.40127
864.28	304.74158
864.46	298.50835
864.641	288.87142
864.821	294.46223
865.002	277.45672
865.182	250.65614
865.363	316.70819
865.543	304.45438
865.723	291.23982
865.904	263.1007
866.084	321.87102
866.264	261.56821
866.445	212.38049
866.625	270.79007
866.805	314.52159
866.986	302.19667
867.166	223.75635
867.346	230.11933
867.526	228.14034
867.707	222.83067
867.887	272.1134
868.067	279.8923
868.247	222.59455
868.427	258.39032
868.607	205.77287
868.788	235.07609
868.968	192.28536
869.148	229.53693
869.328	182.28358
869.508	193.61837
869.688	229.41523
869.868	205.75733
870.048	239.42873
870.228	233.92075
870.408	211.52476
870.588	216.03983
870.768	201.44482
870.948	236.13345
871.128	202.45073
871.307	248.49325
871.487	200.21741
871.667	232.5815
871.847	215.96614
872.027	208.13892
872.207	182.23523
872.387	239.61892
872.566	210.476
872.746	221.62579
872.926	201.44482
873.106	242.85019
873.285	247.5614
873.465	190.18143
873.645	160.88778
873.824	217.26776
874.004	175.67587
874.184	191.26633
874.363	209.25956
874.543	216.04803
874.723	195.93584
874.902	163.242
875.082	223.92588
875.261	166.58272
875.441	124.86292
875.62	164.37657
875.8	103.63753
875.979	220.5891
876.159	151.97288
876.338	163.16143
876.518	201.52142
876.697	186.86735
876.876	163.15524
877.056	142.9345
877.235	111.42906
877.415	188.03187
877.594	176.71061
877.773	226.30457
877.953	160.833
878.132	149.7969
878.311	181.25185
878.49	195.88362
878.67	122.80123
878.849	164.33283
879.028	167.74911
879.207	121.64067
879.387	140.81356
879.566	105.98159
879.745	199.21773
879.924	109.23791
880.103	147.52882
880.282	180.37801
880.461	214.14941
880.64	212.74232
880.819	172.30907
880.998	195.95078
881.178	120.48083
881.357	153.12996
881.536	228.39917
881.715	186.98845
881.893	167.83223
882.072	142.91824
882.251	178.89266
882.43	128.42762
882.609	153.10084
882.788	138.50393
882.967	136.31047
883.146	161.02228
883.325	141.93121
883.503	166.75421
883.682	172.38145
883.861	154.35823
884.04	161.12061
884.219	125.02892
884.397	159.98536
884.576	102.49448
884.755	147.55132
884.933	163.17381
885.112	170.2205
885.291	129.62519
885.469	174.5936
885.648	185.859
885.827	171.10201
886.005	139.77594
886.184	164.4392
886.363	166.81166
886.541	158.98413
886.72	168.98059
886.898	3.46435
887.077	147.73785
887.255	104.86114
887.434	173.75083
887.612	153.28203
887.791	154.39365
887.969	93.59219
888.147	122.81998
888.326	135.18212
888.504	82.25809
888.682	143.05965
888.861	142.03979
889.039	86.79338
889.218	129.57563
889.396	56.39108
889.574	56.40185
889.752	118.34789
889.931	129.50154
890.109	121.72894
890.287	175.78996
890.465	113.7474
890.643	185.93718
890.822	125.19652
891	83.43619
891.178	100.27828
891.356	109.33799
891.534	143.16911
891.712	79.99481
891.89	149.74556
892.068	96.98096
892.247	108.21796
892.425	137.61275
892.603	86.77681
892.781	145.42787
892.959	96.94383
893.137	113.92153
893.314	108.27606
893.492	150.00352
893.67	99.15828
893.848	96.94012
894.026	48.52708
894.204	130.64922
894.382	123.94356
894.56	82.29577
894.738	81.271
894.915	84.52207
895.093	134.17181
895.271	116.08653
895.449	95.78289
895.626	108.12299
895.804	109.32962
895.982	100.4128
896.16	112.74044
896.337	103.78438
896.515	187.20354
896.693	103.73262
896.87	60.96494
897.048	90.13861
897.225	126.20986
897.403	93.53494
897.581	115.02867
897.758	101.40589
897.936	51.90912
898.113	65.51178
898.291	108.19726
898.468	63.12989
898.646	84.65829
898.823	22.62136
899.001	80.08043
899.178	117.32739
899.356	118.47973
899.533	99.24939
899.71	38.40533
899.888	112.84879
900.065	20.35926
900.242	83.5195
900.42	80.16671
900.597	73.44255
900.774	66.61783
900.952	155.75031
901.129	115.06403
901.306	27.16864
901.483	42.9572
901.661	54.19523
901.838	71.11151
902.015	46.29744
902.192	71.11425
902.369	84.63873
902.546	65.4563
902.723	35.03366
902.901	41.82357
903.078	102.6988
903.255	106.11618
903.432	64.35782
903.609	49.69825
903.786	60.96729
903.963	2.35059
904.14	67.75973
904.317	29.42258
904.494	67.74928
904.671	58.71046
904.848	61.01906
905.024	86.99399
905.201	89.19248
905.378	71.05694
905.555	6.86001
905.732	42.95389
905.909	31.66396
906.086	-24.70059
906.262	80.21631
906.439	-6.67826
906.616	66.58452
906.793	51.92505
906.969	48.60744
907.146	33.90592
907.323	36.14894
907.5	64.38761
907.676	98.17354
907.853	86.95024
908.03	29.42144
908.206	47.42709
908.383	31.68475
908.559	41.81067
908.736	92.49229
908.912	29.392
909.089	53.13884
909.266	-12.3102
909.442	73.39148
909.619	56.47772
909.795	64.37519
909.972	20.4055
910.148	22.63699
910.324	106.11618
910.501	48.58867
910.677	62.15091
910.854	52.02536
911.03	59.83425
911.206	57.61762
911.383	-25.83407
911.559	56.50608
911.735	10.23771
911.912	29.4101
912.088	67.74145
912.264	13.62186
912.44	36.17258
912.617	42.95389
912.793	41.80906
912.969	83.56783
913.145	56.50171
913.321	48.62438
913.498	17.00482
913.674	64.33554
913.85	52.00519
914.026	-12.314
914.202	36.16979
914.378	19.26406
914.554	54.2622
914.73	-6.66873
914.906	23.77925
915.082	37.3065
915.258	47.49485
915.434	32.782
915.61	82.41276
915.786	56.51702
915.962	48.63192
916.138	50.83639
916.314	40.67145
916.49	33.91635
916.665	36.17118
916.841	51.9911
917.017	27.16864
917.193	23.77925
917.369	85.8438
917.545	6.85975
917.72	55.39607
917.896	44.05885
918.072	90.35697
918.247	41.84945
918.423	56.54772
918.599	69.99907
918.775	20.38582
918.95	30.52882
919.126	6.85605
919.301	24.9327
919.477	-5.54772
919.653	59.91285
919.828	38.42897
920.004	32.8149
920.179	1.22181
920.355	-104.70149
920.53	-5.54707
920.706	29.43169
920.881	73.37452
921.057	15.87041
921.232	37.31658
921.408	14.75345
921.583	15.88877
921.759	28.29729
921.934	28.30167
922.109	54.2433
922.285	57.6533
922.46	4.6052
922.635	38.42305
922.811	12.50732
922.986	39.57709
923.161	2.34941
923.336	28.28964
923.512	27.16864
923.687	40.69496
923.862	23.78017
924.037	9.11185
924.212	-1.03412
924.388	53.1409
924.563	42.98548
924.738	24.89512
924.913	55.42619
925.088	15.8759
925.263	37.30938
925.438	-8.92742
925.613	20.39053
925.788	20.40945
925.963	36.18094
926.138	70.02337
926.313	19.28194
926.488	77.9805
926.663	47.45813
926.838	6.85949
927.013	23.79029
927.188	62.13409
927.363	3.4784
927.538	-32.62937
927.713	19.28194
927.888	-28.12451
928.062	18.14165
928.237	26.03902
928.412	47.45813
928.587	0.09402
928.761	17.00744
928.936	53.08139
929.111	72.21518
929.286	-30.35967
929.46	-5.54922
929.635	76.76706
929.81	4.60573
929.984	45.24643
930.159	47.43438
930.334	-11.17975
930.508	46.34741
930.683	11.38348
930.857	5.73778
931.032	-5.54536
931.206	44.11335
931.381	35.08646
931.556	38.43193
931.73	23.81896
931.904	14.76257
932.079	-5.54815
932.253	14.7404
932.428	22.65444
932.602	-61.97245
932.777	14.75345
932.951	26.03098
933.125	-21.34461
933.3	42.98381
933.474	21.53267
933.648	38.48553
933.823	15.88877
933.997	45.2324
934.171	44.09456
934.345	-32.60543
934.52	-26.98897
934.694	37.32235
934.868	40.73277
935.042	20.41025
935.217	10.246
935.391	9.12206
935.565	14.76944
935.739	42.97382
935.913	-13.43915
936.087	-15.69346
936.261	54.2664
936.435	-39.40584
936.609	22.65007
936.783	42.95886
936.957	30.56538
937.131	-103.73255
937.305	-28.13106
937.479	62.15091
937.653	48.555
937.827	-10.05917
938.001	20.39446
938.175	-5.54707
938.349	-4.41826
938.523	2.35123
938.697	12.49381
938.87	19.26777
939.044	-17.96339
939.218	38.47506
939.392	-6.67439
939.566	21.55861
939.739	36.18094
939.913	26.06831
940.087	-10.05606
940.261	26.03399
940.434	14.76314
940.608	-42.75436
940.782	21.55945
940.955	47.5059
941.129	-26.98166
941.302	53.06098
941.476	37.37309
941.65	52.0072
941.823	3.47854
941.997	17.02256
942.17	20.39525
942.344	-24.72727
942.517	-37.1157
942.691	38.45569
942.864	19.28643
943.038	29.41804
943.211	-8.93363
943.385	47.48565
943.558	-34.89021
943.731	-75.46177
943.905	-20.21352
944.078	-6.67542
944.251	21.51025
944.425	31.69948
944.598	4.60556
944.771	22.69142
944.945	48.63759
945.118	59.92215
945.291	32.82761
945.464	28.31044
945.638	30.54765
945.811	15.90542
945.984	26.02897
946.157	-11.18795
946.33	59.93145
946.503	44.08433
946.677	52.04761
946.85	6.86665
947.023	12.49189
947.196	-38.29436
947.369	35.07694
947.542	-1.03545
947.715	-2.16162
947.888	6.85869
948.061	48.60368
948.234	2.34941
948.407	-5.54836
948.58	1.22295
948.753	-22.46037
948.926	-29.26974
949.099	17.01927
949.271	36.20192
949.444	-10.06853
949.617	70.05858
949.79	-14.58242
949.963	61.06639
950.136	-68.75935
950.308	1.22224
950.481	37.33824
950.654	30.53705
950.827	19.27746
950.999	32.83909
951.172	4.60467
951.345	44.09285
951.517	57.64213
951.69	70.02878
951.863	-28.12779
952.035	31.68598
952.208	-19.08717
952.381	53.16566
952.553	23.78937
952.726	47.50406
952.898	-10.05257
953.071	-12.31258
953.243	12.51169
953.416	-21.34626
953.588	-24.71295
953.761	54.27903
953.933	-23.59674
954.106	62.15332
954.278	-41.64364
954.45	-12.31448
954.623	33.95833
954.795	39.58934
954.967	19.27448
955.14	28.32694
955.312	65.54472
955.484	59.84346
955.657	52.00922
955.829	54.25379
956.001	-4.41689
956.173	-31.49671
956.346	21.54101
956.518	1.22214
956.69	29.43853
956.862	4.60859
957.034	-61.97966
957.207	5.74157
957.379	-24.7244
957.551	87.0041
957.723	14.74663
957.895	4.61037
958.067	-17.96478
958.239	-28.08436
958.411	-8.93225
958.583	-12.314
958.755	29.44309
958.927	-36.02502
959.099	-1.03476
959.271	-41.64203
959.443	13.64932
959.615	14.75857
959.787	-41.65814
959.959	32.81617
960.13	27.14769
960.302	-6.6731
960.474	33.94123
960.646	-21.33966
960.818	58.77394
960.99	53.10596
961.161	-25.87808
961.333	-7.79809
961.505	-17.94812
961.677	10.24561
961.848	21.52933
962.02	4.60841
962.192	41.85594
962.363	9.12489
962.535	13.63343
962.707	1.222
962.878	23.80968
963.05	-6.67336
963.221	33.94255
963.393	-28.10059
963.564	-5.546
963.736	-4.41877
963.907	20.40787
964.079	15.89554
964.25	28.27656
964.422	-22.46037
964.593	-42.78906
964.765	39.58474
964.936	33.90852
965.108	-12.31686
965.279	5.73267
965.45	-38.28841
965.622	51.98708
965.793	3.48083
965.964	0.09411
966.136	-15.69952
966.307	47.51143
966.478	32.82634
966.65	19.28344
966.821	-6.67361
966.992	6.86585
967.163	-28.1158
967.334	-3.29115
967.506	-1.03508
967.677	46.38875
967.848	-13.44278
968.019	22.6597
968.19	35.06202
968.361	62.18947
968.532	-20.20104
968.703	-74.38436
968.874	-43.87941
969.045	-6.6749
969.216	-13.44538
969.387	-8.93744
969.558	-59.71086
969.729	57.63321
969.9	-2.16188
970.071	59.8804
970.242	17.01861
970.413	15.88508
970.584	36.16701
970.755	-4.42014
970.926	18.17055
971.097	-20.219
971.267	-3.28848
971.438	5.73622
971.609	18.16064
971.78	4.6068
971.951	-16.85083
972.121	-1.03532
972.292	11.37246
972.463	-12.31115
972.633	56.51702
972.804	19.26331
972.975	-31.48454
973.145	56.46249
973.316	30.53705
973.487	30.57012
973.657	31.69088
973.828	-6.6749
973.998	35.0688
974.169	53.13266
974.339	26.03801
974.51	26.03198
974.68	15.88938
974.851	37.32812
975.021	-15.70438
975.192	22.67288
975.362	26.04103
975.533	-25.84901
975.703	15.89123
975.874	-6.66976
976.044	23.78293
976.214	42.98881
976.385	17.01335
976.555	19.27373
976.725	15.89
976.896	68.9689
977.066	4.60787
977.236	36.22017
977.406	29.43739
977.577	2.35187
977.747	35.07694
977.917	23.79397
978.087	17.0252
978.257	-20.20026
978.427	22.66321
978.598	39.61546
978.768	0.09402
978.938	-2.16196
979.108	5.73733
979.278	-24.7378
979.448	4.6068
979.618	13.63501
979.788	-14.58073
979.958	35.06473
980.128	-10.06345
980.298	30.55828
980.468	55.39822
980.638	-23.59127
980.808	-30.38672
980.978	-13.43604
981.148	-33.73755
981.317	32.80095
981.487	-7.80926
981.657	0.09404
981.827	-5.54965
981.997	27.19815
982.167	55.39392
982.336	30.58438
982.506	21.55357
982.676	1.22176
982.846	-76.62646
983.015	1.22148
983.185	15.88018
983.355	-31.46999
983.524	-15.68802
983.694	-2.16171
983.864	-34.88616
984.033	-20.20883
984.203	4.60823
984.372	4.60485
984.542	-8.9319
984.712	-2.16305
984.881	45.20269
985.051	29.39313
985.22	23.78017
985.39	18.13675
985.559	-23.60313
985.728	0.09406
985.898	38.46611
986.067	1.22318
986.237	-23.58581
986.406	48.58679
986.576	19.28419
986.745	23.80043
986.914	44.12019
987.084	23.79674
987.253	-7.80321
987.422	11.37994
987.591	-15.70377
987.761	27.17179
987.93	-16.83577
988.099	20.4055
988.268	7.99
988.438	-4.41877
988.607	6.87039
988.776	12.50539
988.945	36.2272
989.114	11.38039
989.283	57.66
989.452	31.68843
989.621	-3.29013
989.791	27.18337
989.96	-15.69649
990.129	-3.29013
990.298	-11.19489
990.467	57.65106
990.636	15.90604
990.805	14.75572
990.974	17.02322
991.142	47.44533
991.311	-21.33471
991.48	0.09399
991.649	-46.20056
991.818	-34.88211
991.987	22.63351
992.156	24.94337
992.325	24.91434
992.493	15.87957
992.662	-231.53754
992.831	47.45813
993	-15.70013
993.168	26.037
993.337	22.6764
993.506	18.15571
993.675	15.89061
993.843	-14.56775
994.012	29.44538
994.181	5.73091
994.349	40.71699
994.518	-11.18838
994.686	45.24643
994.855	6.86134
995.024	-20.20883
995.192	-20.2237
995.361	-16.81822
995.529	14.75857
995.698	-29.22893
995.866	7.99464
996.035	6.86293
996.203	-11.18881
996.371	2.35187
996.54	-2.16321
996.708	10.24521
996.877	11.38657
997.045	17.02719
997.213	4.60787
997.382	-5.55051
997.55	9.11185
997.718	-12.31068
997.887	38.43638
998.055	18.13396
998.223	-31.49671
998.391	-16.83186
998.56	33.95833
998.728	27.17284
998.896	61.09016
999.064	32.82125
999.232	2.34869
999.401	-41.63239
999.569	17.02388
999.737	24.9327
999.905	-2.16296
1000.073	37.35564
1000.241	-6.67516
1000.409	30.59629
1000.577	-39.40432
1000.745	0.09408
1000.913	-14.57959
1001.081	-32.6092
1001.249	9.11923
1001.417	-58.56774
1001.585	23.78201
1001.753	4.60841
1001.921	10.24997
1002.089	11.37554
1002.256	22.66058
1002.424	12.51363
1002.592	26.036
1002.76	11.37818
1002.928	9.11783
1003.096	55.40466
1003.263	20.40313
1003.431	48.59429
1003.599	29.4169
1003.767	-10.06384
1003.934	56.49953
1004.102	17.01335
1004.27	3.4784
1004.437	-7.8026
1004.605	12.51509
1004.773	20.40392
1004.94	-37.16312
1005.108	-40.51168
1005.275	-1.03508
1005.443	3.48002
1005.61	-10.06072
1005.778	22.65444
1005.945	19.26257
1006.113	10.25155
1006.28	38.43193
1006.448	27.16654
1006.615	-28.12451
1006.783	41.88197
1006.95	-3.29102
1007.118	15.89554
1007.285	5.73956
1007.452	17.01663
1007.62	46.35997
1007.787	0.09399
1007.954	11.38613
1008.122	35.04444
1008.289	30.55947
1008.456	23.81061
1008.623	40.72487
1008.791	33.94649
1008.958	5.73867
1009.125	-14.5762
1009.292	15.90109
1009.459	-2.16447
1009.627	-4.41587
1009.794	-10.05878
1009.961	-11.18449
1010.128	43.01053
1010.295	-16.83773
1010.462	81.39691
1010.629	61.04269
1010.796	15.89554
1010.963	23.79766
1011.13	-3.28848
1011.297	23.7866
1011.464	-20.2026
1011.631	-4.41826
1011.798	-31.50647
1011.965	14.77173
1012.132	2.3515
1012.299	-20.2292
1012.466	-43.92182
1012.633	-15.70195
1012.799	17.01663
1012.966	17.014
1013.133	27.18126
1013.3	21.5285
1013.467	-64.17239
1013.633	21.55525
1013.8	-10.06345
1013.967	0.09404
1014.134	30.54412
1014.3	26.05111
1014.467	-5.54472
1014.634	12.49959
1014.8	47.48197
1014.967	-12.3202
1015.134	-4.42185
1015.3	6.86107
1015.467	-23.58036
1015.633	-16.83447
1015.8	39.56334
1015.966	30.55592
1016.133	-11.18795
1016.3	-29.23119
1016.466	-5.55008
1016.632	-38.244
1016.799	1.2229
1016.965	-3.28848
1017.132	-20.22606
1017.298	-21.36284
1017.465	39.60315
1017.631	-29.25155
1017.797	68.9689
1017.964	104.99031
1018.13	-23.57492
1018.296	37.33391
1018.463	39.5878
1018.629	-1.03484
1018.795	-16.82926
1018.961	0.09401
1019.128	-30.36319
1019.294	2.34923
1019.46	17.0252
1019.626	13.63871
1019.792	-24.73876
1019.959	-17.95991
1020.125	105.03903
1020.291	-30.36436
1020.457	-3.29013
1020.623	-57.4252
1020.789	61.01434
1020.955	-33.74797
1021.121	3.48164
1021.287	-25.86001
1021.453	9.12241
1021.619	13.64348
1021.785	28.29183
1021.951	56.47336
1022.117	6.86612
1022.283	30.5453
1022.449	-7.81412
1022.615	26.06527
1022.781	-49.51036
1022.946	20.415
1023.112	32.84675
1023.278	-51.79105
1023.444	55.44777
1023.61	-3.29076
1023.775	24.92206
1023.941	44.09968
1024.107	9.12029
1024.273	41.81712
1024.438	-45.02865
1024.604	-52.92206
1024.77	-70.89094
1024.935	-2.16271
1025.101	74.56666
1025.267	31.66763
1025.432	18.15008
1025.598	46.37614
1025.763	-7.80411
1025.929	22.65532
1026.095	32.81109
1026.26	36.21314
1026.426	4.60751
1026.591	-37.14726
1026.757	18.15078
1026.922	-8.93086
1027.087	10.24244
1027.253	30.54647
1027.418	-37.18047
1027.584	-4.41553
1027.749	-6.68086
1027.914	12.49814
1028.08	18.15712
1028.245	-17.96339
1028.41	29.42031
1028.576	-6.67723
1028.741	-33.75973
1028.906	-51.78905
1029.072	-1.03428
1029.237	1.22257
1029.402	-37.16167
1029.567	-49.55433
1029.732	53.1409
1029.898	-13.44746
1030.063	63.30742
1030.228	36.22158
1030.393	-7.81108
1030.558	38.47506
1030.723	53.16359
1030.888	-7.80502
1031.053	79.0863
1031.218	-5.54793
1031.383	-20.21274
1031.548	-27.01098
1031.713	17.01138
1031.878	19.26331
1032.043	29.43055
1032.208	-4.42031
1032.373	9.11571
1032.538	23.77283
1032.703	-34.89562
1032.868	-7.80805
1033.033	18.16276
1033.198	31.70933
1033.362	13.62974
1033.527	47.46546
1033.692	-8.92879
1033.857	3.47881
1034.021	15.91162
1034.186	50.84227
1034.351	-39.39212
1034.516	36.21033
1034.68	-17.97385
1034.845	2.35159
1035.01	-3.29268
1035.174	26.05717
1035.339	32.80855
1035.504	-5.55267
1035.668	-56.29846
1035.833	7.99124
1035.997	6.86426
1036.162	44.12876
1036.326	44.14593
1036.491	-17.96408
1036.655	-11.18665
1036.82	-26.97332
1036.984	-72.08561
1037.149	-74.3355
1037.313	-54.06992
1037.478	20.40313
1037.642	-6.67594
1037.807	17.02124
1037.971	7.99712
1038.135	7.99464
1038.3	41.83326
1038.464	35.08782
1038.628	40.71699
1038.792	13.62816
1038.957	-2.16363
1039.121	62.1221
1039.285	12.5049
1039.449	7.99124
1039.614	10.25036
1039.778	35.07287
1039.942	-16.82861
1040.106	49.76747
1040.27	21.51687
1040.434	-61.91504
1040.599	4.60751
1040.763	-15.69528
1040.927	-23.60588
1041.091	-34.90375
1041.255	-6.67568
1041.419	-7.81199
1041.583	-32.63316
1041.747	-55.15891
1041.911	-21.32895
1042.075	20.40234
1042.239	39.60315
1042.403	-37.12429
1042.567	-13.43242
1042.731	10.24363
1042.894	-12.30736
1043.058	48.6225
1043.222	-22.48123
1043.386	-64.20706
1043.55	39.57097
1043.714	-1.03424
1043.877	13.63871
1044.041	9.12418
1044.205	-3.29051
1044.369	49.73662
1044.532	-15.70621
1044.696	-45.0391
1044.86	-17.96199
1045.023	-24.70914
1045.187	-1.0346
1045.351	-25.84402
1045.514	51.98708
1045.678	-39.38603
1045.841	-20.24022
