Data from mildly cloudy_Subt2__12__14-23-40-170.txt Node

Date: Mon Oct 13 14:23:40 EDT 2025
User: brett
Spectrometer: USB4F03499
Trigger mode: 4
Integration Time (sec): 4.400000E-4
Scans to average: 1
Electric dark correction enabled: true
Nonlinearity correction enabled: true
Boxcar width: 0
XAxis mode: Wavelengths
Number of Pixels in Spectrum: 3648
>>>>>Begin Spectral Data<<<<<
345.386	59.16577
345.605	59.16577
345.824	59.16577
346.044	41.16168
346.263	45.61887
346.482	-37.87666
346.701	36.55379
346.92	3.85427
347.139	23.04011
347.358	-16.45499
347.577	-49.18551
347.796	-19.85812
348.015	49.00977
348.234	-20.97079
348.453	-11.93931
348.672	1.59879
348.891	42.22372
349.11	1.59867
349.329	18.51538
349.548	92.98906
349.767	4.98438
349.986	14.00889
350.205	-19.82355
350.424	50.12985
350.643	67.0632
350.862	42.24502
351.08	21.90356
351.299	-2.91275
351.518	-0.65817
351.737	39.97452
351.956	1.59836
352.174	-10.81181
352.393	29.82148
352.612	-16.4569
352.831	15.13625
353.049	-4.04518
353.268	27.55729
353.487	18.52397
353.705	-11.94254
353.924	-33.36658
354.143	34.31179
354.361	-15.34302
354.58	-2.91511
354.798	37.75087
355.017	-35.6196
355.236	25.31971
355.454	-10.81852
355.673	27.55943
355.891	-25.48765
356.11	7.23474
356.328	33.1818
356.547	-10.81516
356.765	21.91119
356.984	6.11185
357.202	36.6062
357.42	37.71567
357.639	20.78714
357.857	-25.48864
358.076	30.92223
358.294	-41.29293
358.512	-11.93746
358.731	-28.84947
358.949	-22.08944
359.167	-2.91466
359.386	25.28145
359.604	-11.93885
359.822	45.59239
360.04	-6.30174
360.259	0.46988
360.477	70.40432
360.695	-14.19501
360.913	-18.70516
361.131	-18.70661
361.35	32.05319
361.568	30.94017
361.786	-1.7863
362.004	7.23447
362.222	25.30887
362.44	-8.55213
362.658	68.17208
362.876	-27.72876
363.094	-0.6582
363.312	-27.76534
363.53	43.34465
363.749	-8.54982
363.967	-1.78582
364.184	35.4419
364.402	30.9306
364.62	14.01486
364.838	-33.35372
365.056	-16.47096
365.274	-1.78602
365.492	6.11162
365.71	43.35472
365.928	-54.83566
366.146	30.95939
366.364	-45.77244
366.581	-17.5898
366.799	11.75015
367.017	-11.93746
367.235	-18.70444
367.453	-14.19885
367.67	12.8839
367.888	29.80531
368.106	4.98612
368.323	-28.86731
368.541	33.19464
368.759	10.6244
368.977	8.37145
369.194	-18.69075
369.412	27.56906
369.629	29.84121
369.847	-0.65787
370.065	19.65729
370.282	6.11375
370.5	-1.78706
370.717	-26.61264
370.935	6.11185
371.152	34.33571
371.37	-16.45945
371.588	-26.6075
371.805	34.33571
372.022	4.98168
372.24	16.28177
372.457	-18.70733
372.675	9.49706
372.892	26.44355
373.11	46.73219
373.327	29.80531
373.544	11.76291
373.762	11.74336
373.979	-18.69723
374.196	11.76017
374.414	41.11837
374.631	4.98361
374.848	30.95578
375.066	-25.47877
375.283	32.05071
375.5	23.01964
375.717	9.49339
375.935	20.79198
376.152	11.75061
376.369	65.90005
376.586	6.11043
376.803	-17.57145
377.02	33.19721
377.238	26.40874
377.455	69.29911
377.672	9.49229
377.889	79.47117
378.106	11.75379
378.323	53.52508
378.54	47.84296
378.757	2.7254
378.974	57.98427
379.191	23.01876
379.408	35.42003
379.625	37.72006
379.842	62.4928
380.059	19.65652
380.276	107.59238
380.493	39.93898
380.71	39.94823
380.927	77.18113
381.143	48.95295
381.36	52.37899
381.577	-0.65792
381.794	71.46757
382.011	66.98293
382.228	21.8892
382.444	-23.19551
382.661	113.17599
382.878	62.4928
383.095	59.10175
383.311	49.00407
383.528	72.60429
383.745	81.63058
383.962	78.22932
384.178	79.27579
384.395	108.63015
384.612	121.14247
384.828	79.23953
385.045	141.18792
385.261	105.18767
385.478	149.23678
385.695	102.96714
385.911	127.63981
386.128	150.10255
386.344	201.08116
386.561	196.44479
386.777	159.07905
386.994	166.80493
387.21	164.63805
387.427	189.41957
387.643	251.32379
387.86	188.25557
388.076	251.01018
388.292	268.92637
388.509	227.66953
388.725	363.13713
388.942	338.5095
389.158	355.37688
389.374	368.27635
389.591	322.39887
389.807	406.13522
390.023	384.60613
390.239	393.43591
390.456	521.87118
390.672	459.49083
390.888	510.8304
391.104	593.801
391.321	596.90445
391.537	688.36962
391.753	682.03251
391.969	716.43112
392.185	817.15229
392.401	785.2714
392.618	823.7979
392.834	760.78314
393.05	968.25148
393.266	979.2324
393.482	1022.48797
393.698	903.00961
393.914	960.5531
394.13	1033.52073
394.346	956.2314
394.562	1026.57357
394.778	1044.95156
394.994	1064.87161
395.21	1181.74587
395.426	1292.71883
395.642	1259.41789
395.858	1362.90411
396.073	1322.34283
396.289	1320.97472
396.505	1372.72155
396.721	1437.9406
396.937	1464.07492
397.153	1390.82638
397.369	1498.26336
397.584	1568.76458
397.8	1492.17819
398.016	1493.11558
398.232	1692.15435
398.447	1611.91004
398.663	1651.54776
398.879	1640.90955
399.094	1758.72796
399.31	1783.02062
399.526	1814.46198
399.741	1950.42188
399.957	1962.60836
400.173	2059.20559
400.388	2067.14105
400.604	2094.19139
400.82	2310.94157
401.035	2366.59791
401.251	2428.04619
401.466	2439.76837
401.682	2562.91123
401.897	2636.26867
402.113	2660.1687
402.328	2889.45431
402.544	2893.59478
402.759	3050.3651
402.974	3122.55915
403.19	3025.28796
403.405	3423.66413
403.621	3507.81866
403.836	3561.71748
404.051	3754.39424
404.267	3794.49236
404.482	3716.82196
404.697	3713.66635
404.913	3816.13183
405.128	4262.24496
405.343	4083.48662
405.559	4136.42184
405.774	4205.39463
405.989	4457.61534
406.204	4487.69186
406.42	4537.96061
406.635	4612.33994
406.85	4600.43487
407.065	4718.16742
407.28	4775.54391
407.495	4866.28769
407.71	4770.03974
407.926	4865.72103
408.141	5172.10148
408.356	5179.24724
408.571	5288.32705
408.786	5117.22741
409.001	5237.68877
409.216	5370.08777
409.431	5424.75372
409.646	5367.56684
409.861	5218.23494
410.076	5163.74992
410.291	5450.44486
410.506	5584.63277
410.721	5298.32365
410.936	5447.34938
411.15	5361.37783
411.365	5600.16603
411.58	5630.61827
411.795	5576.06671
412.01	5765.15491
412.225	5775.39153
412.439	5522.4523
412.654	5721.46206
412.869	5649.23418
413.084	5824.02269
413.299	5913.44989
413.513	5604.60294
413.728	5767.24712
413.943	6007.73058
414.157	5962.41677
414.372	6042.82458
414.587	6146.92834
414.801	6371.79788
415.016	6317.10747
415.231	6435.37716
415.445	6334.67273
415.66	6401.37812
415.874	6518.28774
416.089	6456.40842
416.304	6834.77598
416.518	6529.19515
416.733	6628.10785
416.947	6546.86152
417.162	6586.43076
417.376	6794.41183
417.59	7031.77485
417.805	6885.10682
418.019	6819.98611
418.234	6836.32524
418.448	6677.29731
418.663	6955.5239
418.877	6826.10214
419.091	7015.52757
419.306	7035.28921
419.52	7197.68213
419.734	6976.48335
419.949	7300.86557
420.163	7539.1379
420.377	7090.81967
420.591	7219.9977
420.806	7267.08495
421.02	7129.85094
421.234	7523.99537
421.448	7359.89833
421.663	7522.56341
421.877	7332.88973
422.091	7390.13592
422.305	7242.64939
422.519	7336.96004
422.733	7816.98003
422.947	7417.01686
423.161	7429.41961
423.376	7623.53856
423.59	7615.81443
423.804	7594.96765
424.018	7523.26091
424.232	7569.09898
424.446	7875.73993
424.66	7855.62095
424.874	7702.3406
425.088	7558.93317
425.302	7558.90967
425.515	7866.57054
425.729	8034.9527
425.943	8044.13996
426.157	7916.62466
426.371	7852.96905
426.585	7945.37244
426.799	7911.12917
427.013	8388.56044
427.226	8399.47685
427.44	7933.57538
427.654	8048.81804
427.868	7895.33113
428.081	8080.9935
428.295	8034.02231
428.509	8043.92756
428.723	7967.06587
428.936	7863.73747
429.15	7872.21426
429.364	8143.88518
429.577	7822.61876
429.791	7793.91662
430.005	8274.98578
430.218	8157.62163
430.432	7760.92951
430.645	7789.88896
430.859	7936.67085
431.073	7893.32766
431.286	8183.24343
431.5	8171.80333
431.713	7734.51899
431.927	7896.71167
432.14	8139.31113
432.354	7942.3105
432.567	7918.55262
432.781	8311.93729
432.994	8278.28579
433.207	8477.00354
433.421	8544.1893
433.634	8450.86192
433.848	8555.13723
434.061	8416.83482
434.274	7956.31498
434.488	8169.61951
434.701	7935.47814
434.914	8101.44037
435.127	8563.68879
435.341	8521.48987
435.554	8600.96256
435.767	8940.24982
435.98	8913.8603
436.194	8581.75991
436.407	8567.88994
436.62	9397.20351
436.833	9324.48038
437.046	9009.60394
437.259	8696.89728
437.473	9153.38086
437.686	9332.79401
437.899	9171.48066
438.112	9465.43146
438.325	8982.33507
438.538	9201.48061
438.751	10007.82708
438.964	9435.02697
439.177	9626.71226
439.39	9729.84853
439.603	10223.72991
439.816	9994.48813
440.029	10522.49925
440.242	10801.79407
440.455	11042.48568
440.668	10782.9911
440.881	10133.33987
441.094	10004.34277
441.306	10795.1115
441.519	11325.28266
441.732	11120.61834
441.945	11357.26286
442.158	10742.33489
442.37	10607.58353
442.583	11290.57324
442.796	11626.91521
443.009	11632.625
443.222	11171.1302
443.434	10592.3254
443.647	11656.32811
443.86	12266.97366
444.072	12499.00416
444.285	12134.08555
444.498	12167.5797
444.71	11907.72898
444.923	12145.37892
445.136	11762.73196
445.348	11448.42568
445.561	11659.65336
445.773	11867.3725
445.986	11234.73436
446.198	12189.52637
446.411	12370.54219
446.623	12390.10084
446.836	12323.98058
447.048	12439.46032
447.261	12868.47856
447.473	12814.23007
447.686	12234.53664
447.898	12510.63251
448.11	13420.28337
448.323	13453.3904
448.535	13120.12174
448.748	12353.61095
448.96	12527.82438
449.172	12717.21614
449.385	12098.69725
449.597	12829.58878
449.809	12887.38027
450.021	13043.25706
450.234	13214.96581
450.446	12338.95019
450.658	12482.03643
450.87	12642.00483
451.083	12708.87289
451.295	12759.31399
451.507	12589.9863
451.719	12657.72823
451.931	12670.49464
452.143	12801.8694
452.356	12516.45925
452.568	12495.40734
452.78	12501.02486
452.992	12594.77232
453.204	12986.29776
453.416	12208.93346
453.628	11548.06456
453.84	11731.96688
454.052	11537.10411
454.264	12091.76782
454.476	11486.22146
454.688	12071.65285
454.9	11761.47326
455.112	10727.32438
455.324	10586.48388
455.536	10723.57709
455.747	10586.57752
455.959	10242.76195
456.171	10318.175
456.383	9655.98517
456.595	9057.53875
456.807	9008.33422
457.018	8654.94298
457.23	8852.91088
457.442	8315.8366
457.654	8250.13847
457.865	7902.41884
458.077	7348.91959
458.289	7096.03961
458.501	7024.16742
458.712	7046.83579
458.924	7078.20197
459.136	6388.36655
459.347	6018.32148
459.559	5783.36728
459.77	5843.67776
459.982	5667.60557
460.194	5389.33859
460.405	4693.00063
460.617	4678.13626
460.828	4571.22462
461.04	4369.26741
461.251	3965.97301
461.463	4197.35863
461.674	3877.82079
461.886	3624.63152
462.097	3288.2093
462.309	3309.81023
462.52	2931.85845
462.731	3277.23087
462.943	2829.17755
463.154	2687.23091
463.366	2594.51848
463.577	2675.78859
463.788	2634.45226
464	2724.42167
464.211	2585.00897
464.422	2739.88318
464.634	2610.90396
464.845	2482.6836
465.056	2582.73128
465.267	2513.94565
465.478	2255.92033
465.69	2540.25812
465.901	2363.19606
466.112	2474.27925
466.323	2441.01463
466.534	2622.40226
466.745	2493.34327
466.957	2605.41012
467.168	2507.52117
467.379	2476.92618
467.59	2370.7392
467.801	2250.06598
468.012	2472.78183
468.223	2642.58621
468.434	2401.7473
468.645	2674.24749
468.856	2541.61892
469.067	2608.98011
469.278	2545.14823
469.489	2646.55893
469.7	2449.62433
469.911	2551.01595
470.122	2746.97715
470.333	2945.99099
470.543	2640.16978
470.754	2799.25937
470.965	2690.77487
471.176	2849.18768
471.387	2944.86163
471.598	2814.73114
471.808	2601.10022
472.019	2889.78199
472.23	2770.64333
472.441	2681.77816
472.651	2886.69716
472.862	2838.21576
473.073	2929.56771
473.283	2945.52946
473.494	2744.35166
473.705	2909.1738
473.915	2858.71729
474.126	3150.06497
474.337	2848.96909
474.547	3031.86149
474.758	3196.20229
474.968	3077.69244
475.179	3052.72436
475.389	3082.56027
475.6	3113.7306
475.81	3311.2835
476.021	3293.31271
476.231	3407.42453
476.442	3271.31907
476.652	3329.02793
476.863	3253.53641
477.073	3291.60911
477.284	3297.26862
477.494	3291.60911
477.704	3548.73653
477.915	3644.78698
478.125	3424.84455
478.335	3602.21565
478.546	3678.06441
478.756	3676.48161
478.966	3677.8474
479.177	3777.70558
479.387	3830.48476
479.597	3729.90387
479.807	3718.46383
480.018	3791.40044
480.228	3792.37914
480.438	3962.39436
480.648	3944.35574
480.858	3933.89386
481.068	3927.76223
481.279	4007.72372
481.489	4109.13262
481.699	4163.47257
481.909	4096.52302
482.119	4410.17173
482.329	4298.61094
482.539	4372.96967
482.749	4193.3082
482.959	4383.85433
483.169	4477.00376
483.379	4483.38433
483.589	4520.66101
483.799	4560.65997
484.009	4409.41716
484.219	4596.82
484.429	4570.38244
484.639	4641.4122
484.849	4639.91801
485.059	4876.56242
485.268	4769.19636
485.478	4921.64356
485.688	4676.06944
485.898	4935.25921
486.108	4766.17635
486.317	4871.0277
486.527	4864.9635
486.737	5071.77828
486.947	5012.50731
487.156	5115.17662
487.366	5010.23934
487.576	4965.25888
487.785	4936.28142
487.995	5009.90189
488.205	4968.99621
488.414	5104.44756
488.624	5058.758
488.834	5087.61719
489.043	5024.47707
489.253	4933.12427
489.462	5071.9071
489.672	5181.53613
489.882	5212.7874
490.091	5264.42165
490.301	5206.74281
490.51	5299.08328
490.72	5328.82944
490.929	5363.05039
491.138	5300.38599
491.348	5290.07403
491.557	5334.8734
491.767	5420.24882
491.976	5294.70617
492.185	5420.55264
492.395	5217.76234
492.604	5427.64992
492.813	5408.66063
493.023	5497.62202
493.232	5383.39073
493.441	5497.69283
493.651	5521.7394
493.86	5426.89395
494.069	5474.92677
494.278	5532.25747
494.488	5599.41112
494.697	5504.51473
494.906	5446.30365
495.115	5730.12114
495.324	5509.50317
495.533	5709.51674
495.743	5765.24343
495.952	5845.25986
496.161	5757.61535
496.37	5817.42447
496.579	5870.92249
496.788	5997.72729
496.997	6002.10329
497.206	5967.17796
497.415	5851.79024
497.624	5916.49553
497.833	6055.05114
498.042	6054.68022
498.251	6084.42645
498.46	6041.48534
498.669	6074.69973
498.878	5939.27575
499.087	6025.51918
499.296	6281.35388
499.504	6124.37222
499.713	6020.43536
499.922	6127.67406
500.131	6109.54739
500.34	6133.25045
500.549	6181.83818
500.757	6089.97705
500.966	6273.82241
501.175	6226.49748
501.384	6299.93944
501.592	6157.47036
501.801	6294.8996
502.01	6189.71764
502.218	6154.68058
502.427	6277.46544
502.636	6202.32421
502.844	6117.01727
503.053	6105.31519
503.262	6124.94833
503.47	6278.46742
503.679	6105.87518
503.887	6253.48637
504.096	6141.39505
504.304	6233.27683
504.513	6125.55196
504.721	6188.07752
504.93	6065.42935
505.138	6255.25422
505.347	6204.03618
505.555	6305.68963
505.764	6126.17223
505.972	6185.994
506.18	5987.03559
506.389	6211.685
506.597	5978.69376
506.806	6279.34264
507.014	6114.63635
507.222	6160.46001
507.431	6099.93257
507.639	6160.58445
507.847	6140.23077
508.055	6370.28627
508.264	6208.4274
508.472	6260.27375
508.68	6145.89664
508.888	6174.93124
509.096	6222.11316
509.305	6171.03728
509.513	6181.09608
509.721	6167.03492
509.929	6186.2154
510.137	6171.27246
510.345	6119.53718
510.553	6251.99329
510.762	6084.69075
510.97	6172.79864
511.178	6135.56826
511.386	6383.32904
511.594	6167.6268
511.802	6381.44371
512.01	6295.02689
512.218	6287.13405
512.426	6282.99424
512.634	6299.41767
512.842	6308.70087
513.049	6248.39733
513.257	6210.30556
513.465	6348.47189
513.673	6186.87471
513.881	6266.04193
514.089	6361.92406
514.297	6263.52761
514.504	6132.67804
514.712	6293.77797
514.92	6262.03224
515.128	6330.53236
515.336	6261.02837
515.543	6308.33259
515.751	6194.16766
515.959	6276.7339
516.166	6124.03825
516.374	6210.82638
516.582	6168.51925
516.789	6067.9541
516.997	6052.65911
517.205	6063.81115
517.412	6091.24312
517.62	6202.40128
517.827	6049.25093
518.035	5975.94238
518.243	6071.17174
518.45	5952.25964
518.658	5864.70029
518.865	5971.46327
519.073	5962.47048
519.28	5937.31928
519.488	5894.69147
519.695	5875.22356
519.902	5831.99439
520.11	5919.19763
520.317	5954.46657
520.525	5885.65783
520.732	5709.39615
520.939	5798.63818
521.147	5704.64105
521.354	5698.59239
521.561	5797.06942
521.769	5768.42106
521.976	5604.61444
522.183	5712.46474
522.391	5695.2074
522.598	5741.29421
522.805	5613.36998
523.012	5681.64758
523.219	5577.43489
523.427	5715.70306
523.634	5534.628
523.841	5731.49296
524.048	5545.73206
524.255	5607.36386
524.462	5538.37393
524.669	5452.41371
524.877	5554.89854
525.084	5651.92046
525.291	5573.51397
525.498	5718.26617
525.705	5543.18008
525.912	5643.30271
526.119	5683.42339
526.326	5587.04921
526.533	5592.8771
526.74	5618.39274
526.947	5522.22428
527.153	5653.16931
527.36	5639.04808
527.567	5603.0735
527.774	5510.87621
527.981	5475.28158
528.188	5468.27445
528.395	5633.81477
528.602	5415.147
528.808	5599.87329
529.015	5485.2777
529.222	5585.62723
529.429	5328.06719
529.635	5665.0314
529.842	5539.37701
530.049	5595.18666
530.256	5569.85194
530.462	5581.43534
530.669	5438.78513
530.876	5428.74083
531.082	5478.03008
531.289	5374.86808
531.495	5418.22757
531.702	5568.00446
531.909	5434.21293
532.115	5374.1032
532.322	5426.78439
532.528	5401.07056
532.735	5385.88255
532.941	5519.60746
533.148	5425.84081
533.354	5482.89532
533.561	5410.36097
533.767	5402.55008
533.974	5322.13496
534.18	5422.08557
534.387	5226.76642
534.593	5297.46746
534.799	5241.76851
535.006	5283.53449
535.212	5234.62434
535.418	5326.10392
535.625	5269.84434
535.831	5295.17673
536.037	5238.70097
536.244	5262.18
536.45	5037.75468
536.656	5264.22693
536.862	5310.66318
537.068	5239.61778
537.275	5079.33239
537.481	5265.7949
537.687	5156.58711
537.893	5298.76763
538.099	5022.98504
538.305	5089.24182
538.512	5086.9612
538.718	5191.25801
538.924	5040.79756
539.13	4936.51344
539.336	5016.37388
539.542	5105.24932
539.748	4961.76457
539.954	4935.59331
540.16	5005.97327
540.366	5023.6671
540.572	4885.48244
540.778	4970.45165
540.984	4790.19698
541.19	5100.76991
541.396	4812.75572
541.602	4989.3907
541.807	4829.90292
542.013	4890.0031
542.219	4824.02892
542.425	4869.45456
542.631	4815.24847
542.837	4815.13704
543.042	4643.03854
543.248	4703.86776
543.454	4691.37183
543.66	4831.83208
543.865	4590.26838
544.071	4683.25596
544.277	4595.65428
544.483	4711.45906
544.688	4582.43958
544.894	4581.34413
545.1	4620.88474
545.305	4524.43675
545.511	4624.99363
545.716	4595.50969
545.922	4540.61808
546.128	4549.07324
546.333	4518.12331
546.539	4552.67772
546.744	4398.98874
546.95	4504.27701
547.155	4456.79274
547.361	4413.46069
547.566	4278.14956
547.772	4482.74355
547.977	4365.1792
548.182	4390.87506
548.388	4355.87422
548.593	4438.1989
548.799	4265.57907
549.004	4368.67939
549.209	4251.42775
549.415	4352.4337
549.62	4299.27037
549.825	4351.22263
550.031	4123.28478
550.236	4165.5084
550.441	4238.54684
550.646	4249.9106
550.852	4259.5671
551.057	4149.74238
551.262	4071.8874
551.467	4193.67482
551.672	4068.29546
551.878	4179.20513
552.083	4166.46812
552.288	4128.72615
552.493	4000.43226
552.698	4122.77379
552.903	3967.00029
553.108	4080.71415
553.313	3938.36341
553.518	4051.86733
553.723	3988.49336
553.928	4036.37596
554.133	3962.81749
554.338	4044.08057
554.543	3955.42113
554.748	3938.2994
554.953	3823.82235
555.158	3938.42372
555.363	3873.93536
555.568	3838.77507
555.773	3804.34991
555.978	3904.07327
556.182	3850.43732
556.387	3811.31925
556.592	3811.80644
556.797	3912.18186
557.002	3659.71356
557.206	3862.78761
557.411	3718.28023
557.616	3749.35917
557.821	3697.60604
558.025	3687.13345
558.23	3659.02793
558.435	3731.84642
558.64	3644.16893
558.844	3719.37065
559.049	3604.48892
559.253	3672.41224
559.458	3557.85422
559.663	3675.76828
559.867	3543.84747
560.072	3621.02454
560.276	3483.45877
560.481	3541.121
560.685	3385.77937
560.89	3431.0329
561.094	3366.22569
561.299	3466.12262
561.503	3320.67306
561.708	3353.60025
561.912	3319.06036
562.117	3385.56034
562.321	3271.05078
562.525	3272.30473
562.73	3276.05133
562.934	3389.65543
563.139	3273.52346
563.343	3342.55204
563.547	3265.20949
563.752	3289.7479
563.956	3105.36637
564.16	3164.04396
564.364	3170.32351
564.569	3186.83941
564.773	3068.91108
564.977	3115.70028
565.181	3129.67528
565.385	3166.55299
565.59	3026.53707
565.794	3095.64919
565.998	3161.8869
566.202	3018.18701
566.406	2949.50309
566.61	3057.40971
566.814	3010.90605
567.018	3057.05287
567.222	2970.6896
567.426	2988.14241
567.63	2919.18144
567.834	2956.66347
568.038	2932.81671
568.242	2911.16641
568.446	2848.88757
568.65	2940.68229
568.854	2771.6249
569.058	2888.10154
569.262	2897.43416
569.466	2874.24617
569.67	2810.86453
569.874	2782.33262
570.078	2788.85727
570.281	2842.85023
570.485	2793.37497
570.689	2810.3804
570.893	2795.22744
571.097	2884.63357
571.3	2713.32633
571.504	2756.43062
571.708	2754.65208
571.912	2692.69174
572.115	2674.78088
572.319	2694.31985
572.523	2633.19922
572.726	2676.72157
572.93	2557.56105
573.133	2624.42452
573.337	2509.0494
573.541	2588.76118
573.744	2510.59876
573.948	2527.53834
574.151	2523.63489
574.355	2587.13114
574.558	2480.84963
574.762	2547.25428
574.965	2503.5282
575.169	2560.64064
575.372	2410.79319
575.576	2471.65102
575.779	2448.09797
575.983	2497.73794
576.186	2426.44319
576.389	2495.83754
576.593	2463.82279
576.796	2527.99175
577	2230.0745
577.203	2578.91019
577.406	2421.89052
577.609	2416.31912
577.813	2344.58211
578.016	2363.8167
578.219	2370.6847
578.423	2332.87893
578.626	2365.8104
578.829	2448.06676
579.032	2300.37146
579.235	2422.87387
579.438	2295.67436
579.642	2341.62642
579.845	2326.10744
580.048	2353.76178
580.251	2226.76023
580.454	2244.15831
580.657	2247.02723
580.86	2262.48727
581.063	2218.50819
581.266	2315.52524
581.469	2251.74921
581.672	2261.68441
581.875	2296.24358
582.078	2367.7106
582.281	2269.92646
582.484	2223.17606
582.687	2311.58003
582.89	2289.82666
583.093	2184.16313
583.296	2276.24919
583.499	2157.49909
583.702	2364.05303
583.904	2181.04698
584.107	2307.61417
584.31	2140.24808
584.513	2277.31877
584.716	2165.13229
584.918	2238.88912
585.121	2125.96936
585.324	2259.51503
585.527	2151.65831
585.729	2209.09885
585.932	2288.99041
586.135	2194.42573
586.337	2142.43086
586.54	2212.48364
586.743	2124.8414
586.945	2142.51359
587.148	2156.63664
587.35	2281.11883
587.553	2147.34472
587.755	2141.36609
587.958	2158.49452
588.161	2186.21805
588.363	2149.99846
588.566	2199.21401
588.768	2130.73358
588.971	2216.2017
589.173	2141.03394
589.375	2198.96381
589.578	2096.53641
589.78	2140.30634
589.983	2031.49367
590.185	2129.28781
590.387	2116.70952
590.59	2152.78714
590.792	2090.02689
590.994	2094.95709
591.197	1970.58374
591.399	2063.94856
591.601	2015.09404
591.803	2099.01752
592.006	1984.12264
592.208	2050.3676
592.41	2018.82624
592.612	2032.64657
592.815	1923.45816
593.017	2040.80593
593.219	2015.42042
593.421	2022.73018
593.623	1884.61308
593.825	1902.63241
594.027	1889.82876
594.229	1992.736
594.432	1892.70849
594.634	1975.96527
594.836	1942.35489
595.038	1884.25479
595.24	1827.70783
595.442	1894.34912
595.644	1871.01704
595.846	1828.83601
596.048	1805.87915
596.249	1859.49182
596.451	1876.30838
596.653	1982.98869
596.855	1898.78988
597.057	1882.89429
597.259	1767.01907
597.461	1864.25125
597.663	1797.01419
597.864	1848.98277
598.066	1798.66163
598.268	1833.46613
598.47	1726.38777
598.671	1827.7661
598.873	1836.48622
599.075	1895.05736
599.277	1854.80069
599.478	1909.99416
599.68	1832.41565
599.882	1875.18905
600.083	1900.6385
600.285	1805.70727
600.487	1760.59466
600.688	1878.08204
600.89	1787.43259
601.091	1887.1693
601.293	1846.24478
601.494	1819.76663
601.696	1805.90008
601.898	1849.27683
602.099	1762.05421
602.301	1759.7414
602.502	1895.53765
602.703	1919.98235
602.905	1766.9623
603.106	1824.75476
603.308	1830.6655
603.509	1847.90364
603.711	1777.66705
603.912	1869.29506
604.113	1841.32136
604.315	1802.72714
604.516	1795.16008
604.717	1794.1836
604.919	1802.86251
605.12	1774.79494
605.321	1792.63784
605.522	1837.55652
605.724	1761.32588
605.925	1814.20249
606.126	1734.68941
606.327	1946.89181
606.528	1747.44379
606.729	1881.9451
606.931	1835.53348
607.132	1904.34626
607.333	1711.25559
607.534	1799.18193
607.735	1740.49975
607.936	1808.0108
608.137	1746.08712
608.338	1777.67707
608.539	1721.20849
608.74	1767.23924
608.941	1812.44423
609.142	1755.2307
609.343	1790.66778
609.544	1831.83949
609.745	1754.10089
609.946	1831.5601
610.147	1741.85331
610.348	1792.31723
610.549	1661.37713
610.75	1832.19296
610.95	1757.8258
611.151	1742.53962
611.352	1726.66664
611.553	1824.71112
611.754	1700.35809
611.954	1757.88245
612.155	1721.65199
612.356	1745.35586
612.557	1707.51565
612.757	1662.72091
612.958	1666.74393
613.159	1763.63177
613.359	1681.85264
613.56	1695.7905
613.761	1750.9449
613.961	1790.57849
614.162	1725.66452
614.362	1698.65128
614.563	1731.69539
614.764	1799.59365
614.964	1753.65019
615.165	1750.54717
615.365	1657.5159
615.566	1671.26003
615.766	1701.43138
615.967	1712.79367
616.167	1688.29762
616.368	1731.249
616.568	1604.5416
616.768	1741.97133
616.969	1720.00623
617.169	1718.98881
617.37	1623.97535
617.57	1705.7794
617.77	1615.39638
617.971	1727.79539
618.171	1682.34549
618.371	1691.58832
618.571	1668.94451
618.772	1712.99383
618.972	1676.84718
619.172	1680.17799
619.372	1632.41735
619.573	1686.40269
619.773	1564.74148
619.973	1689.29571
620.173	1674.82323
620.373	1678.52058
620.573	1583.92418
620.774	1645.15463
620.974	1594.30755
621.174	1700.1383
621.374	1631.44854
621.574	1729.43856
621.774	1699.94527
621.974	1736.37291
622.174	1629.7668
622.374	1690.14168
622.574	1666.58564
622.774	1663.68722
622.974	1484.18653
623.174	1703.68804
623.374	1630.16131
623.574	1727.79539
623.774	1631.02421
623.973	1692.40649
624.173	1719.76827
624.373	1693.55766
624.573	1695.92562
624.773	1699.97673
624.973	1631.8871
625.172	1728.46059
625.372	1693.33787
625.572	1713.73422
625.772	1611.17985
625.971	1658.0501
626.171	1634.88644
626.371	1632.56688
626.57	1574.17946
626.77	1698.54122
626.97	1693.55766
627.169	1757.10116
627.369	1682.76278
627.569	1740.27082
627.768	1672.60526
627.968	1739.99505
628.167	1661.49088
628.367	1725.13502
628.566	1639.12754
628.766	1718.60021
628.965	1664.28172
629.165	1768.50048
629.364	1689.56891
629.564	1719.26684
629.763	1688.76877
629.963	1733.88887
630.162	1700.82723
630.362	1756.19145
630.561	1683.66578
630.76	1663.68722
630.96	1720.28432
631.159	1802.60316
631.358	1722.75442
631.558	1821.82326
631.757	1762.46521
631.956	1658.63909
632.155	1692.06999
632.355	1785.13681
632.554	1649.2386
632.753	1817.20932
632.952	1776.40845
633.152	1789.48089
633.351	1760.70844
633.55	1825.473
633.749	1707.51565
633.948	1867.93871
634.147	1745.86694
634.346	1845.34317
634.545	1764.2528
634.744	1835.29837
634.944	1738.75493
635.143	1870.77888
635.342	1739.32406
635.541	1859.14367
635.74	1703.388
635.939	1794.58512
636.138	1795.04496
636.336	1821.34604
636.535	1754.55276
636.734	1794.91047
636.933	1804.50957
637.132	1866.56337
637.331	1809.37534
637.53	1801.09298
637.729	1834.11067
637.928	1890.14814
638.126	1867.16171
638.325	1979.91355
638.524	1873.74768
638.723	1866.9849
638.921	1892.81302
639.12	1948.59528
639.319	1897.91516
639.518	1813.51544
639.716	1865.96967
639.915	1917.82543
640.114	1909.87243
640.312	2019.29243
640.511	1915.28757
640.71	1976.34825
640.908	1910.15123
641.107	1978.63291
641.305	1836.26615
641.504	1952.04433
641.702	1955.24651
641.901	1972.48661
642.099	1911.07712
642.298	1996.17019
642.496	1967.79474
642.695	2023.3637
642.893	2032.07437
643.092	2106.5449
643.29	1999.92439
643.489	2089.50941
643.687	2080.29598
643.885	2083.51714
644.084	2043.12554
644.282	2168.17948
644.48	2192.9185
644.679	2222.47705
644.877	2164.39837
645.075	2243.40524
645.274	2179.91911
645.472	2200.19498
645.67	2229.60054
645.868	2370.71592
646.067	2257.00084
646.265	2385.71681
646.463	2362.76864
646.661	2409.30524
646.859	2431.03024
647.057	2422.30601
647.256	2435.00111
647.454	2594.60021
647.652	2516.84877
647.85	2550.86922
648.048	2628.09508
648.246	2627.32207
648.444	2666.76501
648.642	2633.09089
648.84	2605.05918
649.038	2713.52418
649.236	2846.81298
649.434	2810.2199
649.632	2785.71145
649.83	2895.53625
650.028	2739.65423
650.226	2942.27299
650.423	2832.2162
650.621	2972.23013
650.819	2852.9267
651.017	3044.46548
651.215	2958.03062
651.413	3017.31072
651.61	3008.31992
651.808	3056.89599
652.006	2944.70967
652.204	3079.30027
652.401	3062.44042
652.599	3119.69872
652.797	3028.56139
652.995	3001.62765
653.192	3030.81814
653.39	3091.04153
653.588	3052.21197
653.785	3070.53743
653.983	3024.4727
654.18	3072.48243
654.378	2863.09795
654.576	3073.11957
654.773	3033.67165
654.971	3104.59501
655.168	2918.56722
655.366	3166.42267
655.563	3010.9646
655.761	3033.0377
655.958	2897.63221
656.156	3016.67477
656.353	2894.18893
656.55	2952.09263
656.748	2881.88415
656.945	2958.1987
657.143	2881.13256
657.34	2853.15647
657.537	2755.98327
657.735	2809.5746
657.932	2749.57896
658.129	2663.61216
658.326	2752.13227
658.524	2653.61647
658.721	2612.34434
658.918	2703.82641
659.115	2518.19939
659.313	2633.19922
659.51	2518.66575
659.707	2649.09163
659.904	2597.79026
660.101	2670.54444
660.298	2705.84725
660.496	2646.79206
660.693	2600.76117
660.89	2664.19465
661.087	2645.31147
661.284	2856.74489
661.481	2778.86873
661.678	2748.32916
661.875	2752.42365
662.072	2858.73564
662.269	2832.77123
662.466	2977.20947
662.663	2959.32792
662.86	3110.84464
663.057	3079.31892
663.254	3182.95673
663.45	3179.6755
663.647	3283.23495
663.844	3308.21216
664.041	3529.08876
664.238	3400.99664
664.435	3556.35383
664.631	3595.28115
664.828	3713.27769
665.025	3843.64555
665.222	3778.98184
665.419	3764.94292
665.615	4100.72183
665.812	3984.84046
666.009	4094.46591
666.205	4218.83769
666.402	4384.56101
666.599	4406.89148
666.795	4568.05712
666.992	4644.98453
667.188	4721.74932
667.385	4676.34712
667.582	4971.27869
667.778	4892.4859
667.975	5028.22478
668.171	5162.93435
668.368	5126.53401
668.564	5224.44258
668.761	5312.17589
668.957	5287.42724
669.154	5375.87045
669.35	5271.35298
669.547	5388.54296
669.743	5381.29813
669.939	5447.64528
670.136	5408.4076
670.332	5490.86049
670.528	5389.99724
670.725	5466.13601
670.921	5393.83441
671.117	5422.02105
671.314	5459.71039
671.51	5458.63967
671.706	5362.84176
671.902	5289.56747
672.099	5299.88095
672.295	5280.85647
672.491	5227.3955
672.687	5182.92448
672.883	5086.65812
673.08	5059.42785
673.276	4920.4738
673.472	4907.27867
673.668	4835.01085
673.864	4746.86067
674.06	4662.0018
674.256	4624.02258
674.452	4383.50861
674.648	4579.01473
674.844	4348.11896
675.04	4289.43067
675.236	4231.31598
675.432	4115.70623
675.628	3923.60885
675.824	3938.74776
676.02	3831.92084
676.216	3787.52133
676.412	3695.09118
676.608	3647.42531
676.804	3421.43342
676.999	3463.12218
677.195	3394.21649
677.391	3362.06094
677.587	3185.26157
677.783	3265.14249
677.978	3203.83641
678.174	3178.01687
678.37	2984.00492
678.566	3004.81251
678.761	3020.63823
678.957	3011.97881
679.153	2874.00643
679.348	2983.13931
679.544	2879.69219
679.74	2971.43688
679.935	2865.47117
680.131	2935.24429
680.327	2840.22942
680.522	2941.43241
680.718	2910.68301
680.913	2989.12082
681.109	2844.99627
681.304	2970.25442
681.5	2862.02133
681.695	3041.97543
681.891	2942.9023
682.086	3131.68818
682.282	3031.01193
682.477	2930.93948
682.672	3139.23521
682.868	3287.12119
683.063	3363.56833
683.259	3362.40276
683.454	3296.71065
683.649	3503.49217
683.845	3521.8486
684.04	3549.77848
684.235	3633.1355
684.43	3753.3079
684.626	3766.71006
684.821	3892.25979
685.016	3885.65534
685.211	3862.57537
685.407	4069.33962
685.602	4204.01082
685.797	4176.46881
685.992	4273.47753
686.187	4347.34477
686.382	4624.60171
686.577	4466.73857
686.773	4692.71588
686.968	4832.07294
687.163	5010.66463
687.358	5007.88122
687.553	5106.7865
687.748	5298.67353
687.943	5403.13698
688.138	5328.16962
688.333	5475.8824
688.528	5500.17695
688.723	5492.38536
688.918	5578.68255
689.112	5717.76119
689.307	5582.19303
689.502	5734.07158
689.697	5886.39221
689.892	6013.45069
690.087	5989.97027
690.282	6045.71796
690.476	5912.32067
690.671	6154.59425
690.866	6124.43778
691.061	6176.65185
691.255	6072.93571
691.45	6199.54396
691.645	6257.75409
691.84	6255.62333
692.034	6152.53211
692.229	6225.2675
692.424	6150.82316
692.618	6160.94623
692.813	6176.30718
693.007	6066.67999
693.202	6110.4647
693.397	6194.24146
693.591	5939.64231
693.786	5946.47439
693.98	5909.60079
694.175	5955.167
694.369	5757.57572
694.564	5823.2245
694.758	5586.81097
694.953	5482.4285
695.147	5533.02692
695.342	5423.53656
695.536	5274.74319
695.73	5300.42699
695.925	5072.51942
696.119	5022.18413
696.313	4854.55611
696.508	4847.30766
696.702	4711.76953
696.896	4621.06142
697.091	4650.13683
697.285	4578.57918
697.479	4379.16904
697.673	4405.92809
697.868	4170.2168
698.062	4135.00425
698.256	4049.54039
698.45	3995.09387
698.644	3986.00727
698.839	3892.5036
699.033	3671.56018
699.227	3760.67301
699.421	3585.38623
699.615	3588.76369
699.809	3569.88296
700.003	3476.10658
700.197	3339.07889
700.391	3282.60542
700.585	3217.05199
700.779	3134.97075
700.973	3057.70058
701.167	3111.88097
701.361	3127.51168
701.555	3049.85177
701.749	2945.52946
701.943	2947.83013
702.137	2938.4259
702.331	2828.10826
702.525	2809.57628
702.718	2906.83094
702.912	2880.03184
703.106	2822.78632
703.3	2808.37803
703.494	2858.20443
703.687	2715.50492
703.881	2763.45296
704.075	2831.73773
704.269	2817.17201
704.462	2818.77905
704.656	2820.5492
704.85	2748.35717
705.043	2931.72975
705.237	2837.78994
705.431	2885.40209
705.624	2746.35257
705.818	2901.37022
706.012	2916.45996
706.205	3085.56319
706.399	2987.77107
706.592	3124.29835
706.786	3024.58332
706.979	3186.0984
707.173	3058.31717
707.366	3140.26318
707.56	3247.89598
707.753	3359.74581
707.947	3388.85055
708.14	3372.5378
708.333	3399.22135
708.527	3585.75831
708.72	3622.59405
708.914	3626.7099
709.107	3846.99863
709.3	3778.98517
709.494	3853.90896
709.687	3986.03299
709.88	4010.80505
710.073	4115.39416
710.267	4160.64486
710.46	4333.55777
710.653	4317.72874
710.846	4523.78512
711.04	4551.8756
711.233	4692.64347
711.426	4834.19711
711.619	4865.61048
711.812	4976.88246
712.005	5102.82576
712.198	5112.27399
712.391	5232.07825
712.585	5284.78736
712.778	5484.31705
712.971	5486.1561
713.164	5611.73234
713.357	5763.40627
713.55	5898.2852
713.743	5814.83672
713.936	6034.95867
714.129	6087.85584
714.322	6209.1824
714.514	6223.74765
714.707	6401.63691
714.9	6421.18687
715.093	6481.8385
715.286	6589.57472
715.479	6729.02154
715.672	6788.04657
715.864	6878.33501
716.057	6768.47479
716.25	6972.06522
716.443	6973.52102
716.636	6934.00968
716.828	7166.67954
717.021	7087.91936
717.214	7137.10277
717.406	7150.52726
717.599	7073.98031
717.792	7221.62715
717.984	7164.54847
718.177	7203.19304
718.37	7177.31313
718.562	7227.94137
718.755	7222.8179
718.947	7217.57758
719.14	6953.04287
719.333	6904.64538
719.525	6856.81854
719.718	6932.52682
719.91	6747.20935
720.103	6767.74214
720.295	6504.38603
720.487	6535.86148
720.68	6438.98512
720.872	6511.1853
721.065	6228.58585
721.257	6185.12989
721.449	5973.60607
721.642	5913.2046
721.834	5722.50077
722.026	5683.98345
722.219	5548.10853
722.411	5512.06051
722.603	5284.32343
722.796	5364.15705
722.988	5195.44107
723.18	5134.45928
723.372	4932.21785
723.565	4871.36473
723.757	4671.18662
723.949	4620.11882
724.141	4505.24734
724.333	4441.68588
724.525	4282.50696
724.717	4202.32116
724.91	4090.35997
725.102	4047.87255
725.294	3742.69179
725.486	3884.06796
725.678	3687.28568
725.87	3666.3046
726.062	3548.36551
726.254	3511.02915
726.446	3366.18775
726.638	3378.14273
726.83	3222.79969
727.022	3171.73912
727.213	3085.98966
727.405	3118.82657
727.597	2979.62265
727.789	2942.37298
727.981	2943.43926
728.173	2985.28099
728.365	2769.35601
728.556	2804.57837
728.748	2696.60505
728.94	2869.72231
729.132	2776.67642
729.324	2852.42291
729.515	2613.70232
729.707	2638.36996
729.899	2661.62552
730.09	2684.30459
730.282	2583.72793
730.474	2628.32216
730.665	2500.44006
730.857	2638.06992
731.049	2505.66735
731.24	2603.53615
731.432	2442.09939
731.623	2607.9282
731.815	2543.79483
732.006	2518.80709
732.198	2454.1359
732.389	2548.8341
732.581	2434.70863
732.772	2527.23804
732.964	2524.07398
733.155	2572.90978
733.347	2522.86939
733.538	2590.19479
733.729	2547.64933
733.921	2621.8076
734.112	2511.35412
734.304	2704.96083
734.495	2618.52326
734.686	2758.1928
734.877	2670.07441
735.069	2723.26983
735.26	2741.66357
735.451	2732.68096
735.643	2710.12415
735.834	2927.96449
736.025	2866.17093
736.216	2915.18296
736.407	2883.8597
736.599	3058.23206
736.79	3016.0993
736.981	3172.58342
737.172	3166.97312
737.363	3184.91203
737.554	3292.45392
737.745	3300.00413
737.936	3337.97172
738.127	3405.95336
738.318	3521.65895
738.509	3625.37308
738.7	3627.99251
738.891	3739.47449
739.082	3689.84432
739.273	3797.64138
739.464	3860.19478
739.655	3905.10618
739.846	3930.07373
740.037	4112.20935
740.228	4140.61201
740.419	4246.31071
740.609	4218.94246
740.8	4415.41566
740.991	4395.66486
741.182	4568.56087
741.373	4565.5202
741.563	4660.84583
741.754	4631.37799
741.945	4763.82479
742.136	4834.65256
742.326	5059.47037
742.517	4958.51011
742.708	5087.68963
742.898	5144.75251
743.089	5307.27602
743.28	5188.5153
743.47	5357.45068
743.661	5407.46352
743.851	5631.65225
744.042	5484.26354
744.233	5707.42463
744.423	5631.67779
744.614	5868.97824
744.804	5736.50584
744.995	5900.013
745.185	5770.91477
745.376	5981.13967
745.566	6006.45465
745.756	6118.90335
745.947	6146.5753
746.137	6242.69242
746.328	6151.44166
746.518	6352.97866
746.708	6251.75367
746.899	6421.30971
747.089	6492.40654
747.279	6398.9971
747.47	6493.50107
747.66	6533.32965
747.85	6412.91135
748.04	6511.66949
748.231	6455.65805
748.421	6569.18492
748.611	6424.6991
748.801	6604.48892
748.991	6518.55023
749.182	6483.84323
749.372	6517.43009
749.562	6561.25883
749.752	6497.64691
749.942	6423.44084
750.132	6402.14181
750.322	6527.95843
750.512	6315.86175
750.702	6436.73984
750.892	6311.71193
751.082	6385.71326
751.272	6167.37841
751.462	6288.12595
751.652	6212.31998
751.842	6124.29923
752.032	6045.52617
752.222	6085.98477
752.412	5938.29582
752.602	5868.92007
752.792	5903.19579
752.981	5819.42571
753.171	5647.32522
753.361	5786.35155
753.551	5682.57125
753.741	5480.68872
753.93	5431.71913
754.12	5477.26154
754.31	5334.23884
754.5	5232.21814
754.689	5115.27062
754.879	5099.93479
755.069	5139.01793
755.258	5097.25435
755.448	5013.42946
755.638	5056.28948
755.827	4776.07114
756.017	4854.43512
756.206	4586.95307
756.396	4821.67219
756.586	4594.41644
756.775	4677.99619
756.965	4400.11018
757.154	4467.53625
757.344	4381.55275
757.533	4417.43225
757.723	4207.8609
757.912	4326.29202
758.101	4173.99526
758.291	4298.67202
758.48	4106.99181
758.67	4100.41416
758.859	4025.78399
759.048	4006.89918
759.238	3852.891
759.427	3931.57487
759.616	3859.66071
759.806	3834.31807
759.995	3638.896
760.184	3826.89285
760.373	3687.18905
760.563	3771.57096
760.752	3550.05278
760.941	3600.69618
761.13	3527.76644
761.319	3405.16664
761.509	3389.86259
761.698	3436.55973
761.887	3224.15578
762.076	3256.71536
762.265	3034.73612
762.454	3083.81842
762.643	2904.95294
762.832	2928.67636
763.021	2733.15324
763.21	2744.00082
763.399	2512.18423
763.588	2693.20674
763.777	2539.50662
763.966	2542.90324
764.155	2438.05545
764.344	2458.54694
764.533	2176.48758
764.722	2322.51465
764.911	2249.39662
765.1	2221.68827
765.288	2016.53128
765.477	2025.98986
765.666	1956.06647
765.855	1975.46814
766.044	1873.8666
766.232	1978.72184
766.421	1771.30542
766.61	1889.38029
766.799	1656.97507
766.987	1674.47303
767.176	1633.71861
767.365	1629.56376
767.553	1608.05281
767.742	1659.28256
767.931	1626.16561
768.119	1678.23444
768.308	1589.20379
768.497	1659.60574
768.685	1511.15825
768.874	1653.48138
769.062	1583.10751
769.251	1708.81077
769.439	1658.4827
769.628	1769.34412
769.816	1754.94896
770.005	1846.85874
770.193	1899.7078
770.382	2118.69882
770.57	2073.59868
770.758	2147.94474
770.947	2232.8692
771.135	2331.89153
771.323	2236.73391
771.512	2377.78047
771.7	2429.06425
771.888	2557.48146
772.077	2624.89435
772.265	2650.76416
772.453	2724.31928
772.642	2789.02153
772.83	2879.17842
773.018	3027.47594
773.206	2999.59288
773.394	3153.88605
773.583	3123.86012
773.771	3269.92252
773.959	3231.34738
774.147	3384.74301
774.335	3454.91406
774.523	3598.92513
774.711	3650.02278
774.899	3747.26283
775.087	3824.03734
775.275	3847.88575
775.463	3880.84088
775.651	4127.29487
775.839	3985.72947
776.027	4088.82425
776.215	4092.30939
776.403	4332.29547
776.591	4264.74226
776.779	4432.70545
776.967	4349.88219
777.155	4473.5552
777.343	4413.61585
777.531	4613.74985
777.718	4458.24138
777.906	4667.09492
778.094	4626.08353
778.282	4820.87103
778.47	4758.05337
778.657	4789.77727
778.845	4819.63859
779.033	4947.10552
779.22	4761.83232
779.408	4947.90012
779.596	4903.65662
779.783	5062.93034
779.971	4953.19348
780.159	4973.04354
780.346	4972.03404
780.534	5279.40974
780.722	5067.52377
780.909	5201.26966
781.097	5122.57518
781.284	5305.32546
781.472	5110.41603
781.659	5247.17822
781.847	5140.95155
782.034	5310.66318
782.222	5217.39295
782.409	5285.55844
782.597	5196.43746
782.784	5260.25623
782.971	5293.97588
783.159	5415.23846
783.346	5071.41644
783.533	5283.39717
783.721	5367.07303
783.908	5320.66327
784.095	5219.72787
784.283	5230.0017
784.47	5145.72341
784.657	5170.47694
784.844	5158.38298
785.032	5112.91926
785.219	5117.83226
785.406	5228.52416
785.593	4952.85281
785.78	5133.49241
785.968	5097.92829
786.155	5112.24271
786.342	5049.48187
786.529	5062.1095
786.716	4852.07681
786.903	4958.60634
787.09	4770.19012
787.277	5038.30081
787.464	4797.18475
787.651	4804.76384
787.838	4742.50479
788.025	4768.67207
788.212	4693.82018
788.399	4697.16047
788.586	4522.04611
788.773	4717.01436
788.96	4411.33027
789.147	4467.53682
789.334	4313.66746
789.521	4425.7691
789.707	4225.95676
789.894	4379.10184
790.081	4246.65841
790.268	4255.60389
790.455	4194.64547
790.641	4192.45235
790.828	4060.80047
791.015	4054.33778
791.202	4024.84968
791.388	4019.11181
791.575	3767.67751
791.762	3813.86408
791.948	3776.87127
792.135	3812.24509
792.322	3626.59168
792.508	3642.62404
792.695	3700.62046
792.881	3677.091
793.068	3652.07647
793.254	3621.02454
793.441	3495.77235
793.627	3535.00944
793.814	3464.45187
794	3440.81656
794.187	3242.19489
794.373	3382.93115
794.56	3242.26009
794.746	3287.58106
794.933	3283.27888
795.119	3262.03911
795.305	3136.27679
795.492	3213.57534
795.678	3043.1665
795.864	3227.93303
796.051	2995.23352
796.237	3093.84754
796.423	2972.27487
796.61	3025.4572
796.796	2976.33333
796.982	3019.74176
797.168	2893.33242
797.355	3004.08047
797.541	2933.23692
797.727	2974.83401
797.913	2736.32475
798.099	2838.00142
798.285	2742.45998
798.471	2834.06699
798.658	2734.28081
798.844	2816.10284
799.03	2831.97272
799.216	2843.02715
799.402	2654.51252
799.588	2834.25318
799.774	2721.98351
799.96	2746.70634
800.146	2748.80323
800.332	2729.27296
800.518	2624.73131
800.704	2777.89246
800.89	2784.34027
801.075	2724.34289
801.261	2732.10995
801.447	2716.77197
801.633	2652.05613
801.819	2710.25567
802.005	2661.27883
802.19	2745.43047
802.376	2726.46118
802.562	2765.56123
802.748	2681.77816
802.934	2772.23826
803.119	2636.78613
803.305	2761.50695
803.491	2758.43966
803.676	2806.85083
803.862	2745.44865
804.048	2794.34622
804.233	2666.68574
804.419	2737.2798
804.605	2647.54456
804.79	2829.19348
804.976	2651.00545
805.161	2876.75621
805.347	2819.35023
805.532	2775.22816
805.718	2786.43738
805.903	2802.082
806.089	2759.0883
806.274	2851.07803
806.46	2778.04845
806.645	2969.94716
806.831	2763.93284
807.016	2924.82714
807.201	2844.86282
807.387	2919.68115
807.572	2870.52363
807.757	2972.76911
807.943	2911.27931
808.128	2967.06496
808.313	2871.91365
808.499	2907.92176
808.684	2945.28127
808.869	2980.91825
809.054	2908.37131
809.24	3048.8087
809.425	2973.19066
809.61	3061.41
809.795	2891.68681
809.98	3113.79002
810.165	2988.97229
810.35	3070.25298
810.536	2984.1344
810.721	3003.3461
810.906	3012.37343
811.091	3141.91039
811.276	3024.83744
811.461	3168.54707
811.646	3040.29283
811.831	3158.05025
812.016	3113.96416
812.201	3199.51839
812.386	3205.87487
812.571	3292.04575
812.756	3062.63928
812.941	3195.49868
813.125	3203.50311
813.31	3279.4509
813.495	3163.33428
813.68	3243.43868
813.865	3223.44402
814.05	3279.61942
814.234	3260.81985
814.419	3367.2126
814.604	3364.62534
814.789	3405.32866
814.973	3336.38657
815.158	3370.08709
815.343	3268.58917
815.528	3245.99689
815.712	3306.90312
815.897	3315.21619
816.081	3317.29354
816.266	3298.01741
816.451	3342.49012
816.635	3327.66677
816.82	3172.97361
817.004	3312.00923
817.189	3255.55442
817.374	3263.95664
817.558	3168.10906
817.743	3129.32804
817.927	3104.59501
818.111	3149.05029
818.296	3103.02261
818.48	3096.78755
818.665	3148.93688
818.849	3181.90062
819.034	3109.62125
819.218	3090.68893
819.402	2992.28456
819.587	3067.25346
819.771	2975.24024
819.955	3109.09969
820.14	2966.84966
820.324	3160.47394
820.508	2929.98226
820.692	3054.61053
820.877	2924.24368
821.061	3006.87334
821.245	2965.81916
821.429	2933.9643
821.613	2964.5446
821.798	2937.84439
821.982	2852.26014
822.166	2885.62229
822.35	2894.07596
822.534	2950.00475
822.718	2798.45642
822.902	2981.52515
823.086	2818.44431
823.27	2953.22085
823.454	2722.22037
823.638	2870.19455
823.822	2761.8351
824.006	2793.77644
824.19	2753.43364
824.374	2829.89871
824.558	2650.49615
824.742	2802.48692
824.926	2617.35307
825.11	2727.57819
825.294	2612.03836
825.477	2745.47962
825.661	2703.67237
825.845	2710.57146
826.029	2654.73557
826.213	2671.20368
826.396	2605.92366
826.58	2683.41048
826.764	2682.34134
826.948	2631.14241
827.131	2603.49068
827.315	2687.41947
827.499	2609.74804
827.682	2648.03874
827.866	2586.88516
828.05	2528.29651
828.233	2540.56531
828.417	2524.08268
828.6	2405.85059
828.784	2556.7349
828.967	2366.77382
829.151	2553.87232
829.335	2378.69416
829.518	2447.66022
829.701	2365.73893
829.885	2452.97716
830.068	2385.32134
830.252	2395.72476
830.435	2247.50866
830.619	2351.84191
830.802	2266.56936
830.985	2345.85184
831.169	2288.27948
831.352	2213.27328
831.535	2239.23239
831.719	2220.83166
831.902	2154.51606
832.085	2194.77144
832.269	2102.39523
832.452	2194.21913
832.635	2174.05814
832.818	2164.06691
833.002	2070.01434
833.185	2099.62124
833.368	1987.95063
833.551	2114.92164
833.734	2047.23748
833.917	2060.01255
834.1	2028.94266
834.284	2098.87364
834.467	1950.36029
834.65	2024.71331
834.833	1937.85852
835.016	1950.05264
835.199	1901.13972
835.382	1875.71036
835.565	1831.67716
835.748	1888.11809
835.931	1855.2711
836.114	1821.63677
836.297	1733.17064
836.479	1786.07518
836.662	1754.3267
836.845	1839.05026
837.028	1674.86218
837.211	1807.75196
837.394	1631.43783
837.577	1772.54775
837.759	1685.18485
837.942	1649.93478
838.125	1654.82558
838.308	1644.7279
838.49	1725.80203
838.673	1533.16066
838.856	1650.31327
839.039	1719.15558
839.221	1617.92921
839.404	1602.72565
839.587	1610.9122
839.769	1662.24082
839.952	1588.47507
840.134	1613.72979
840.317	1493.01667
840.499	1644.61454
840.682	1499.42726
840.865	1577.32066
841.047	1511.18005
841.23	1649.34578
841.412	1522.96999
841.595	1585.39077
841.777	1570.79309
841.959	1613.62375
842.142	1473.93435
842.324	1470.19726
842.507	1445.36047
842.689	1563.51626
842.871	1514.82006
843.054	1563.76756
843.236	1478.89072
843.418	1520.41286
843.601	1417.68596
843.783	1503.06217
843.965	1504.9851
844.147	1585.57461
844.33	1452.24785
844.512	1608.65615
844.694	1508.70239
844.876	1524.07792
845.059	1483.89119
845.241	1508.98606
845.423	1422.15416
845.605	1538.5323
845.787	1338.58028
845.969	1465.97976
846.151	1441.87943
846.333	1572.40032
846.515	1454.92295
846.697	1426.5055
846.879	1383.91382
847.061	1555.96879
847.243	1317.32796
847.425	1443.19962
847.607	1507.06326
847.789	1443.10363
847.971	1467.54414
848.153	1467.5473
848.335	1366.45607
848.517	1417.07097
848.699	1418.06551
848.881	1428.45135
849.062	1379.26109
849.244	1467.15705
849.426	1320.09523
849.608	1547.75226
849.789	1407.38852
849.971	1417.25657
850.153	1253.37597
850.335	1456.55027
850.516	1410.0674
850.698	1496.26721
850.88	1457.08435
851.061	1415.98989
851.243	1355.58233
851.425	1512.30945
851.606	1372.90549
851.788	1434.36407
851.969	1345.83455
852.151	1407.62482
852.333	1386.87683
852.514	1438.80484
852.696	1297.79183
852.877	1448.55335
853.059	1390.63254
853.24	1415.94139
853.422	1343.14291
853.603	1482.4695
853.784	1307.97412
853.966	1382.89673
854.147	1340.24323
854.329	1361.5775
854.51	1421.76675
854.691	1365.67865
854.873	1363.17991
855.054	1456.93853
855.235	1309.9655
855.416	1353.28008
855.598	1371.0432
855.779	1408.70357
855.96	1314.97095
856.141	1375.43932
856.323	1305.11791
856.504	1380.96381
856.685	1325.33691
856.866	1332.79879
857.047	1348.95493
857.228	1385.522
857.409	1343.84882
857.591	1367.26373
857.772	1316.66484
857.953	1318.63156
858.134	1335.90164
858.315	1342.54265
858.496	1370.72315
858.677	1360.90536
858.858	1281.69617
859.039	1421.78705
859.22	1360.09652
859.401	1437.72358
859.582	1336.62596
859.762	1374.70215
859.943	1348.81236
860.124	1409.45812
860.305	1368.57544
860.486	1469.47151
860.667	1409.31484
860.848	1415.28648
861.028	1312.41664
861.209	1474.47113
861.39	1354.7856
861.571	1425.57616
861.751	1394.97813
861.932	1410.0258
862.113	1442.84029
862.293	1435.6357
862.474	1374.82103
862.655	1524.07792
862.835	1341.05093
863.016	1436.28308
863.197	1463.41653
863.377	1431.63201
863.558	1367.05303
863.738	1494.35651
863.919	1440.89487
864.099	1468.04201
864.28	1467.59325
864.46	1496.09835
864.641	1414.77285
864.821	1478.54395
865.002	1395.35037
865.182	1574.68777
865.363	1407.85735
865.543	1484.7272
865.723	1440.22355
865.904	1525.83136
866.084	1374.86677
866.264	1401.80151
866.445	1349.98429
866.625	1452.82593
866.805	1489.0948
866.986	1492.18472
867.166	1513.06565
867.346	1425.8485
867.526	1369.96123
867.707	1468.87194
867.887	1385.64696
868.067	1489.19369
868.247	1401.60584
868.427	1348.54107
868.607	1283.43269
868.788	1413.3126
868.968	1352.50985
869.148	1409.31639
869.328	1289.11598
869.508	1385.22824
869.688	1291.67771
869.868	1337.53255
870.048	1231.67083
870.228	1434.74618
870.408	1282.08662
870.588	1306.1309
870.768	1233.26046
870.948	1291.67771
871.128	1251.0929
871.307	1311.42089
871.487	1309.71784
871.667	1245.15826
871.847	1242.78598
872.027	1259.16128
872.207	1212.82691
872.387	1247.76733
872.566	1161.78623
872.746	1198.51013
872.926	1156.02226
873.106	1238.48291
873.285	1166.62428
873.465	1219.92651
873.645	1113.5433
873.824	1268.70892
874.004	1202.98439
874.184	1153.36929
874.363	1030.42225
874.543	1126.76207
874.723	1035.40567
874.902	1079.33663
875.082	1089.83246
875.261	1016.95345
875.441	1028.67848
875.62	959.18917
875.8	998.94388
875.979	1005.80752
876.159	1000.41864
876.338	1021.00559
876.518	1030.92481
876.697	1025.10094
876.876	956.46465
877.056	950.82682
877.235	846.20416
877.415	936.65145
877.594	886.82551
877.773	1025.96053
877.953	851.95803
878.132	939.54307
878.311	905.72567
878.49	907.04639
878.67	821.89178
878.849	866.88907
879.028	871.5248
879.207	837.03698
879.387	802.33285
879.566	846.33012
879.745	853.1322
879.924	728.957
880.103	815.41311
880.282	949.67663
880.461	823.65489
880.64	850.10821
880.819	725.51239
880.998	853.5264
881.178	624.23592
881.357	781.26119
881.536	777.38696
881.715	767.75023
881.893	735.48895
882.072	626.40049
882.251	672.00212
882.43	709.66114
882.609	662.09071
882.788	626.71716
882.967	623.62699
883.146	699.88616
883.325	634.70571
883.503	709.19658
883.682	688.26986
883.861	668.16562
884.04	651.68419
884.219	613.45119
884.397	584.13615
884.576	632.98275
884.755	569.44113
884.933	576.879
885.112	632.19398
885.291	634.93596
885.469	621.82209
885.648	574.33337
885.827	515.06212
886.005	578.6394
886.184	517.48984
886.363	629.84216
886.541	545.74393
886.72	564.23234
886.898	390.11211
887.077	608.91947
887.255	546.21133
887.434	627.211
887.612	521.04905
887.791	562.0565
887.969	557.17292
888.147	562.71219
888.326	510.62404
888.504	525.61711
888.682	532.86681
888.861	512.14782
889.039	489.24739
889.218	501.78289
889.396	435.71222
889.574	489.08631
889.752	450.71595
889.931	484.86155
890.109	515.17553
890.287	464.50214
890.465	435.87239
890.643	563.47551
890.822	535.53669
891	474.90501
891.178	429.25061
891.356	482.87205
891.534	471.05356
891.712	458.98486
891.89	464.99529
892.068	494.03023
892.247	458.44717
892.425	541.26438
892.603	441.41277
892.781	503.31907
892.959	378.20786
893.137	478.78268
893.314	484.25022
893.492	500.24551
893.67	438.15966
893.848	499.37953
894.026	439.14189
894.204	498.26984
894.382	478.41188
894.56	452.60583
894.738	473.15469
894.915	484.68399
895.093	417.62208
895.271	461.78137
895.449	469.24909
895.626	430.28313
895.804	374.93543
895.982	469.85467
896.16	414.04966
896.337	496.50667
896.515	488.32533
896.693	409.55066
896.87	395.045
897.048	330.06085
897.225	399.51448
897.403	404.78217
897.581	464.26115
897.758	478.14834
897.936	380.23837
898.113	452.07871
898.291	420.55711
898.468	347.76707
898.646	408.6652
898.823	321.00821
899.001	363.74985
899.178	413.24382
899.356	413.33639
899.533	372.8456
899.71	323.44228
899.888	399.94653
900.065	270.66618
900.242	361.79047
900.42	341.80831
900.597	399.99142
900.774	274.62052
900.952	412.63939
901.129	300.48127
901.306	318.16152
901.483	321.55969
901.661	354.84518
901.838	310.34359
902.015	296.72534
902.192	302.53504
902.369	314.88213
902.546	274.47584
902.723	259.8422
902.901	248.84756
903.078	256.87547
903.255	268.1728
903.432	235.42266
903.609	282.33184
903.786	233.13895
903.963	270.03444
904.14	255.65883
904.317	245.48039
904.494	284.70642
904.671	246.55315
904.848	256.856
905.024	269.36417
905.201	265.8424
905.378	219.56743
905.555	245.31389
905.732	262.29522
905.909	253.2096
906.086	179.04991
906.262	234.57886
906.439	230.92576
906.616	280.07527
906.793	226.28359
906.969	273.58464
907.146	200.52267
907.323	283.22655
907.5	306.02487
907.676	316.09423
907.853	265.87263
908.03	279.03096
908.206	259.87148
908.383	288.04989
908.559	255.48516
908.736	273.45051
908.912	211.66619
909.089	334.07974
909.266	204.94879
909.442	295.93064
909.619	275.72856
909.795	274.66196
909.972	218.64629
910.148	222.89211
910.324	249.13069
910.501	272.36299
910.677	279.26267
910.854	310.69442
911.03	242.0674
911.206	284.73862
911.383	175.72998
911.559	278.10164
911.735	210.52294
911.912	197.22918
912.088	265.66154
912.264	236.31949
912.44	240.91183
912.617	260.05749
912.793	210.69781
912.969	339.66458
913.145	273.60532
913.321	287.10516
913.498	182.59504
913.674	217.4269
913.85	240.07423
914.026	203.89062
914.202	184.89259
914.378	216.25777
914.554	204.20812
914.73	161.1884
914.906	178.20607
915.082	200.63652
915.258	226.62652
915.434	172.51915
915.61	169.36776
915.786	203.08633
915.962	162.69885
916.138	169.27089
916.314	169.17441
916.49	184.89259
916.665	140.02211
916.841	191.80758
917.017	136.71618
917.193	125.44638
917.369	150.36671
917.545	154.56766
917.72	231.14492
917.896	140.02744
918.072	216.63591
918.247	171.62635
918.423	158.26529
918.599	191.74916
918.775	129.87087
918.95	153.45157
919.126	153.36433
919.301	151.43273
919.477	135.54616
919.653	170.57535
919.828	127.68362
920.004	204.0993
920.179	141.11263
920.355	46.55027
920.53	96.20163
920.706	153.60363
920.881	164.81337
921.057	127.56704
921.232	144.58453
921.408	142.24591
921.583	129.96005
921.759	158.05938
921.934	132.24749
922.109	171.60013
922.285	119.97536
922.46	128.76768
922.635	135.5255
922.811	156.94269
922.986	126.628
923.161	162.41989
923.336	149.03703
923.512	183.86224
923.687	138.9576
923.862	128.82172
924.037	91.64752
924.212	156.85903
924.388	161.56914
924.563	200.84262
924.738	102.91991
924.913	169.5236
925.088	98.40528
925.263	154.66175
925.438	109.63315
925.613	131.02356
925.788	137.88703
925.963	165.879
926.138	139.03738
926.313	152.49802
926.488	184.12931
926.663	100.74531
926.838	142.21887
927.013	137.86592
927.188	109.79688
927.363	100.70672
927.538	95.04811
927.713	160.35967
927.888	71.45934
928.062	125.44638
928.237	114.23074
928.412	90.62064
928.587	93.96348
928.761	104.05172
928.936	117.58957
929.111	71.46483
929.286	77.0271
929.46	83.8625
929.635	134.51559
929.81	125.41287
929.984	145.83605
930.159	81.57732
930.334	71.39373
930.508	141.25808
930.683	98.54111
930.857	114.26138
931.032	73.68192
931.206	157.05676
931.381	110.94744
931.556	69.21632
931.73	126.77899
931.904	71.48681
932.079	47.82083
932.253	18.49474
932.428	59.09037
932.602	52.27826
932.777	32.03466
932.951	20.77026
933.125	51.18238
933.3	101.94842
933.474	72.62106
933.648	86.21601
933.823	65.84924
933.997	18.53403
934.171	57.99546
934.345	1.59645
934.52	15.12923
934.694	46.71594
934.868	76.05743
935.042	48.97941
935.217	36.54957
935.391	42.20087
935.565	34.32506
935.739	27.55943
935.913	4.97938
936.087	-4.04003
936.261	53.5147
936.435	0.46992
936.609	41.05796
936.783	45.58887
936.957	63.634
937.131	-26.57981
937.305	7.24005
937.479	71.54197
937.653	3.85353
937.827	15.12923
938.001	19.64284
938.175	1.59811
938.349	17.38452
938.523	-4.04456
938.697	1.59725
938.87	-7.42854
939.044	21.89848
939.218	27.56799
939.392	-15.32516
939.566	72.70809
939.739	0.47017
939.913	19.67104
940.087	-28.86173
940.261	4.98303
940.434	41.0738
940.608	9.48207
940.782	24.19444
940.955	46.75393
941.129	-39.02335
941.302	-25.48469
941.476	63.70307
941.65	36.5934
941.823	-14.2005
941.997	44.46347
942.17	-14.2005
942.344	-32.25303
942.517	-36.73961
942.691	61.3734
942.864	32.07429
943.038	-10.816
943.211	-11.94347
943.385	43.35136
943.558	25.27171
943.731	-70.56916
943.905	-13.06668
944.078	26.40467
944.251	-44.66789
944.425	23.04904
944.598	34.2893
944.771	33.23077
944.945	62.54599
945.118	64.80832
945.291	38.84356
945.464	9.50259
945.638	2.72709
945.811	45.62241
945.984	-16.45626
946.157	-8.5551
946.33	54.6677
946.503	30.93179
946.677	53.55212
946.85	-9.69132
947.023	-14.18898
947.196	6.11114
947.369	8.3734
947.542	35.46525
947.715	17.38117
947.888	2.72488
948.061	18.52972
948.234	18.50825
948.407	-14.20215
948.58	26.42303
948.753	-39.01128
948.926	25.29318
949.099	20.77909
949.271	27.55516
949.444	8.3721
949.617	45.62772
949.79	-0.6584
949.963	53.54587
950.136	-18.70227
950.308	-6.30003
950.481	23.04815
950.654	6.10996
950.827	1.5991
950.999	3.85981
951.172	8.36304
951.345	-1.78768
951.517	42.2319
951.69	27.56157
951.863	-22.10483
952.035	33.1895
952.208	-5.17017
952.381	55.79789
952.553	30.93179
952.726	18.54052
952.898	16.24594
953.071	-16.44926
953.243	41.08968
953.416	-2.91421
953.588	1.5967
953.761	37.73324
953.933	-32.25054
954.106	37.72152
954.278	-32.23807
954.45	-0.65789
954.623	29.82148
954.795	27.55836
954.967	-5.17337
955.14	1.6006
955.312	37.72738
955.484	-19.84963
955.657	28.6965
955.829	32.07553
956.001	-15.32102
956.173	9.48936
956.346	51.23963
956.518	-1.7863
956.69	32.07056
956.862	10.62687
957.034	-35.62923
957.207	50.12985
957.379	45.53975
957.551	55.80657
957.723	-50.30723
957.895	29.81339
958.067	25.28243
958.239	-28.83615
958.411	12.87643
958.583	-16.45117
958.755	38.84356
958.927	-6.29881
959.099	45.5871
959.271	3.85101
959.443	77.19904
959.615	3.85487
959.787	-31.12043
959.959	21.91288
960.13	-18.70805
960.302	-10.80931
960.474	33.1895
960.646	15.12574
960.818	19.66721
960.99	16.27103
961.161	26.41895
961.333	-27.72555
961.505	-45.78482
961.677	-9.68493
961.848	8.36918
962.02	27.54556
962.192	39.97607
962.363	23.04189
962.535	14.00943
962.707	33.16389
962.878	67.0502
963.05	6.10808
963.221	23.04011
963.393	2.72404
963.564	-4.0419
963.736	-17.58503
963.907	12.8859
964.079	43.33962
964.25	-51.45656
964.422	27.51163
964.593	-9.68082
964.765	-7.43402
964.936	3.85308
965.108	1.59799
965.279	9.49119
965.45	37.67489
965.622	12.8879
965.793	21.91288
965.964	29.81801
966.136	-16.45181
966.307	89.59553
966.478	65.8975
966.65	-6.30517
966.821	6.10831
966.992	-15.33645
967.163	-1.78582
967.334	-24.36329
967.506	44.47378
967.677	25.32069
967.848	7.23586
968.019	26.41895
968.19	25.29024
968.361	73.84111
968.532	-19.82508
968.703	-51.41872
968.874	-4.03754
969.045	-7.4271
969.216	-2.91421
969.387	25.2922
969.558	-0.65756
969.729	71.53091
969.9	-24.35385
970.071	25.302
970.242	-16.46392
970.413	-0.65815
970.584	-6.29857
970.755	24.15785
970.926	55.79356
971.097	2.72614
971.267	-8.55081
971.438	9.49706
971.609	60.27234
971.78	-13.07224
971.951	32.07429
972.121	74.91623
972.292	-32.26178
972.463	3.85204
972.633	26.43841
972.804	-1.78602
972.975	-24.33881
973.145	-20.97811
973.316	14.00402
973.487	78.28958
973.657	23.04278
973.828	19.63981
973.998	21.91119
974.169	42.2319
974.339	33.17796
974.51	-1.78644
974.68	15.13742
974.851	3.85726
975.021	24.15133
975.192	14.01976
975.362	10.62604
975.533	-16.44672
975.703	14.01106
975.874	-10.80389
976.044	-6.3015
976.214	26.44046
976.385	2.72656
976.555	20.77749
976.725	30.92582
976.896	73.85544
977.066	14.00943
977.236	56.89721
977.406	42.21882
977.577	-7.43315
977.747	38.83604
977.917	37.70398
978.087	-6.30468
978.257	12.86454
978.427	47.84481
978.598	42.2483
978.768	-7.42883
978.938	17.38385
979.108	25.2922
979.278	-15.32932
979.448	26.40874
979.618	4.98457
979.788	-0.65833
979.958	27.54769
980.128	6.11162
980.298	7.24286
980.468	-2.91862
980.638	-39.01581
980.808	-0.6582
980.978	-2.91218
981.148	16.24407
981.317	-13.07427
981.487	34.31709
981.657	-35.66378
981.827	27.54449
981.997	49.01358
982.167	59.15201
982.336	25.31675
982.506	50.14152
982.676	30.90436
982.846	-9.67299
983.015	-6.29614
983.185	-11.93931
983.355	-45.76009
983.524	-37.87228
983.694	-7.42567
983.864	12.87196
984.033	-6.29614
984.203	41.07221
984.372	-17.58027
984.542	-6.29906
984.712	3.85547
984.881	14.00997
985.051	4.97918
985.22	-10.81558
985.39	-6.29881
985.559	-6.29857
985.728	44.4566
985.898	37.71421
986.067	35.4515
986.237	-23.2098
986.406	6.11304
986.576	3.85786
986.745	23.04815
986.914	17.41148
987.084	39.96368
987.253	1.59799
987.422	19.65348
987.591	-16.45626
987.761	30.9306
987.93	12.87891
988.099	28.67648
988.268	23.02408
988.438	4.98206
988.607	48.99837
988.776	15.13742
988.945	41.11677
989.114	18.52612
989.283	53.52508
989.452	35.44738
989.621	-10.81181
989.791	27.55943
989.96	-37.89277
990.129	4.98149
990.298	16.26724
990.467	39.98227
990.636	51.26345
990.805	-18.71385
990.974	19.65576
991.142	-37.91775
991.311	-17.57416
991.48	3.85323
991.649	-10.81432
991.818	-20.96187
991.987	-40.14475
992.156	42.24994
992.325	61.35447
992.493	-13.06718
992.662	-233.41902
992.831	36.56367
993	-7.42595
993.168	3.85532
993.337	35.46525
993.506	28.68647
993.675	18.52254
993.843	-24.34632
994.012	18.53619
994.181	-44.66443
994.349	4.98689
994.518	38.79709
994.686	51.26146
994.855	11.74789
995.024	6.1069
995.192	1.59848
995.361	-4.03925
995.529	-33.3989
995.698	-59.33435
995.866	-10.81978
996.035	-9.68606
996.203	8.3653
996.371	34.31842
996.54	-5.17317
996.708	-10.81307
996.877	35.46249
997.045	34.32639
997.213	-25.49754
997.382	19.65348
997.55	-37.8869
997.718	-14.19062
997.887	0.47019
998.055	-17.58095
998.223	-0.65779
998.391	-15.32694
998.56	41.10241
998.728	-31.15305
998.896	69.36369
999.064	25.30102
999.232	-37.8869
999.401	-59.31828
999.569	46.72135
999.737	30.95098
999.905	42.19273
1000.073	29.83192
1000.241	1.59805
1000.409	71.59187
1000.577	38.78814
1000.745	20.78473
1000.913	24.15785
1001.081	-29.97656
1001.249	0.47013
1001.417	-19.82279
1001.585	19.6474
1001.753	51.21588
1001.921	-8.56007
1002.089	-13.07325
1002.256	16.2685
1002.424	16.27608
1002.592	9.49596
1002.76	43.32623
1002.928	27.5328
1003.096	24.18785
1003.263	-5.17357
1003.431	10.6281
1003.599	-7.4294
1003.767	6.11185
1003.934	6.11588
1004.102	-35.65685
1004.27	-11.94254
1004.437	35.41457
1004.605	3.85861
1004.773	16.26787
1004.94	-25.4916
1005.108	-17.57009
1005.275	11.75971
1005.443	15.13976
1005.61	-5.17097
1005.778	6.11185
1005.945	36.54113
1006.113	-0.65848
1006.28	-11.94393
1006.448	15.13742
1006.615	-6.29979
1006.783	41.12957
1006.95	17.38922
1007.118	38.83003
1007.285	29.81455
1007.452	-2.91545
1007.62	32.07429
1007.787	-13.06819
1007.954	24.17845
1008.122	14.00402
1008.289	-17.598
1008.456	23.058
1008.623	25.30691
1008.791	3.85741
1008.958	37.70398
1009.125	20.77026
1009.292	37.71567
1009.459	70.39888
1009.627	-17.57348
1009.794	15.12865
1009.961	-20.96268
1010.128	61.4376
1010.295	7.24005
1010.462	38.89196
1010.629	36.60335
1010.796	2.72825
1010.963	7.24483
1011.13	-14.19008
1011.297	41.0738
1011.464	-23.21069
1011.631	7.23698
1011.798	-17.58299
1011.965	33.20236
1012.132	9.4989
1012.299	32.05567
1012.466	-7.42538
1012.633	-6.29857
1012.799	20.77588
1012.966	-1.78658
1013.133	8.3734
1013.3	-7.43055
1013.467	-57.02471
1013.633	53.52923
1013.8	26.4118
1013.967	-39.05213
1014.134	9.49559
1014.3	19.65805
1014.467	-44.66962
1014.634	-14.19775
1014.8	7.24483
1014.967	2.72667
1015.134	19.655
1015.3	-28.87179
1015.467	-31.10001
1015.633	38.80456
1015.8	9.49633
1015.966	-23.24397
1016.133	25.27463
1016.3	-23.21338
1016.466	-2.91601
1016.632	-18.69291
1016.799	39.95286
1016.965	-16.44609
1017.132	-5.17277
1017.298	10.62851
1017.465	36.59482
1017.631	-6.2993
1017.797	43.39516
1017.964	37.73471
1018.13	-14.18025
1018.296	45.60297
1018.463	-6.30517
1018.629	28.6787
1018.795	0.46995
1018.961	6.1102
1019.128	-17.57484
1019.294	-44.67135
1019.46	11.7588
1019.626	11.75789
1019.792	-19.84578
1019.959	-6.29881
1020.125	96.40191
1020.291	-27.7309
1020.457	-8.5551
1020.623	-32.22316
1020.789	9.50369
1020.955	-54.82503
1021.121	-24.3832
1021.287	4.9813
1021.453	-2.91601
1021.619	48.99268
1021.785	17.39191
1021.951	10.62645
1022.117	30.93179
1022.283	16.26347
1022.449	19.66721
1022.615	35.46938
1022.781	-36.72547
1022.946	17.40539
1023.112	39.9947
1023.278	-22.07752
1023.444	98.67827
1023.61	36.54957
1023.775	-7.43373
1023.941	-7.43488
1024.107	36.55802
1024.273	15.13625
1024.438	-48.0393
1024.604	-42.38639
1024.77	-69.38684
1024.935	21.90017
1025.101	68.18
1025.267	-28.8785
1025.432	-9.69095
1025.598	34.34238
1025.763	10.62152
1025.929	-8.55908
1026.095	24.16533
1026.26	36.58915
1026.426	6.11185
1026.591	-9.68194
1026.757	52.35267
1026.922	-8.55477
1027.087	-36.77085
1027.253	6.11185
1027.418	-20.98463
1027.584	-17.57213
1027.749	11.75834
1027.914	-32.25678
1028.08	17.40472
1028.245	9.49449
1028.41	1.59867
1028.576	-4.04377
1028.741	-5.16957
1028.906	-59.31599
1029.072	-17.58776
1029.237	28.66983
1029.402	10.62234
1029.567	6.10619
1029.732	60.28167
1029.898	2.72635
1030.063	70.44792
1030.228	20.79764
1030.393	12.8884
1030.558	50.12985
1030.723	26.45282
1030.888	26.40874
1031.053	50.14736
1031.218	19.64436
1031.383	-2.91353
1031.548	4.98534
1031.713	28.65987
1031.878	8.36466
1032.043	6.11422
1032.208	-6.3015
1032.373	-5.16997
1032.538	8.36498
1032.703	-19.84117
1032.868	11.75515
1033.033	12.89391
1033.198	29.82844
1033.362	-41.30415
1033.527	11.75607
1033.692	-19.83503
1033.857	-22.10483
1034.021	68.19851
1034.186	38.82103
1034.351	-45.79014
1034.516	48.99078
1034.68	-23.24578
1034.845	-20.98463
1035.01	-7.43257
1035.174	36.58631
1035.339	37.69378
1035.504	21.91798
1035.668	-49.1494
1035.833	20.77267
1035.997	8.36854
1036.162	33.22042
1036.326	18.55136
1036.491	-35.65685
1036.655	-10.81056
1036.82	-17.57213
1036.984	-32.21449
1037.149	-45.74423
1037.313	-11.93378
1037.478	10.62645
1037.642	2.72635
1037.807	1.5991
1037.971	33.19721
1038.135	34.31444
1038.3	-14.20877
1038.464	50.12596
1038.628	32.07056
1038.792	9.49339
1038.957	21.90949
1039.121	20.78473
1039.285	2.72709
1039.449	19.64512
1039.614	10.62645
1039.778	19.65729
1039.942	36.53832
1040.106	59.16577
1040.27	-9.68306
1040.434	-85.24945
1040.599	-32.27305
1040.763	-32.24555
1040.927	-1.78623
1041.091	8.36692
1041.255	27.5328
1041.419	4.98728
1041.583	14.00132
1041.747	-23.19729
1041.911	-33.36272
1042.075	47.83373
1042.239	46.74668
1042.403	-44.64889
1042.567	-48.02817
1042.731	2.72572
1042.894	-36.74953
1043.058	8.37601
1043.222	26.40976
1043.386	-40.12461
1043.55	12.8829
1043.714	-20.97404
1043.877	-0.65858
1044.041	14.01432
1044.205	8.36562
1044.369	37.70982
1044.532	18.51681
1044.696	-15.31865
1044.86	-17.58571
1045.023	-40.1277
1045.187	24.16159
1045.351	-45.78305
1045.514	12.8879
1045.678	1.59688
1045.841	37.71274
