Data from mildly cloudy_Subt2__1__14-15-27-115.txt Node

Date: Mon Oct 13 14:15:27 EDT 2025
User: brett
Spectrometer: USB4F03499
Trigger mode: 4
Integration Time (sec): 8.500000E-4
Scans to average: 1
Electric dark correction enabled: true
Nonlinearity correction enabled: true
Boxcar width: 0
XAxis mode: Wavelengths
Number of Pixels in Spectrum: 3648
>>>>>Begin Spectral Data<<<<<
345.386	14.49687
345.605	14.49687
345.824	14.49687
346.044	56.31177
346.263	64.12824
346.482	-23.86691
346.701	15.60438
346.92	4.32427
347.139	12.22763
347.358	-14.8561
347.577	-30.6489
347.796	-0.18816
348.015	51.73534
348.234	-17.11404
348.453	-9.21258
348.672	-2.44538
348.891	14.48898
349.11	2.06885
349.329	380.95646
349.548	1159.8925
349.767	1025.48496
349.986	1052.68839
350.205	1044.9072
350.424	1086.37424
350.643	1238.1996
350.862	1178.21378
351.08	1090.88773
351.299	1119.40513
351.518	1147.36892
351.737	1187.64771
351.956	1116.8657
352.174	1166.68527
352.393	1200.7091
352.612	1272.25335
352.831	1270.38401
353.049	1336.89583
353.268	1283.01749
353.487	1380.12805
353.705	1310.25776
353.924	1392.61714
354.143	1441.77685
354.361	1453.16325
354.58	1506.16496
354.798	1552.77461
355.017	1478.85324
355.236	1557.65121
355.454	1532.39704
355.673	1589.09782
355.891	1624.31757
356.11	1577.48918
356.328	1565.75313
356.547	1668.64777
356.765	1746.64673
356.984	1760.02007
357.202	1657.75657
357.42	1805.15893
357.639	1734.05514
357.857	1743.54617
358.076	1639.79463
358.294	1659.56874
358.512	1699.01877
358.731	1704.6884
358.949	1637.60167
359.167	1806.80808
359.386	1693.29153
359.604	1808.48717
359.822	1787.43903
360.04	1832.959
360.259	1790.11845
360.477	1870.39684
360.695	1770.9569
360.913	1848.78271
361.131	1778.2836
361.35	1908.92246
361.568	1916.0595
361.786	1857.03063
362.004	1905.40101
362.222	1941.17665
362.44	1891.52051
362.658	1879.43294
362.876	1917.96849
363.094	1873.3026
363.312	1862.31431
363.53	1913.92288
363.749	1845.16638
363.967	1964.4456
364.184	1990.33508
364.402	2016.91929
364.62	1909.46738
364.838	1991.73446
365.056	2076.00253
365.274	2117.91201
365.492	2114.31506
365.71	2163.59216
365.928	2234.10213
366.146	2296.89585
366.364	2232.02538
366.581	2377.16397
366.799	2388.50093
367.017	2459.41078
367.235	2485.47515
367.453	2683.18781
367.67	2599.20438
367.888	2778.97121
368.106	2733.1333
368.323	2761.32714
368.541	2835.96816
368.759	2913.30932
368.977	2967.45036
369.194	2957.01219
369.412	2956.33996
369.629	3163.04379
369.847	3000.76628
370.065	3111.70508
370.282	3112.31296
370.5	3229.58367
370.717	3262.45876
370.935	3243.78278
371.152	3372.65713
371.37	3497.62593
371.588	3314.96855
371.805	3410.0014
372.022	3433.81247
372.24	3478.78083
372.457	3531.49464
372.675	3594.28344
372.892	3562.82383
373.11	3598.90863
373.327	3593.91565
373.544	3631.42693
373.762	3580.83365
373.979	3585.99708
374.196	3591.57667
374.414	3585.86679
374.631	3568.25103
374.848	3741.35384
375.066	3426.95332
375.283	3663.39568
375.5	3507.13495
375.717	3549.9189
375.935	3632.26791
376.152	3624.7088
376.369	3638.46712
376.586	3713.28538
376.803	3525.29723
377.02	3708.19669
377.238	3631.93882
377.455	3565.73692
377.672	3633.33643
377.889	3582.20813
378.106	3591.27779
378.323	3798.46552
378.54	3611.48534
378.757	3717.57245
378.974	3770.4286
379.191	3824.93284
379.408	3908.78038
379.625	3914.04156
379.842	3806.59716
380.059	3854.17343
380.276	3809.40689
380.493	3695.29526
380.71	3900.91953
380.927	3896.74837
381.143	3993.87156
381.36	4096.8474
381.577	3953.41672
381.794	3957.60356
382.011	4100.02115
382.228	4068.22351
382.444	4044.66973
382.661	4102.48843
382.878	4133.46226
383.095	4100.1239
383.311	4158.81275
383.528	4022.73307
383.745	4035.76823
383.962	4081.14296
384.178	4177.91999
384.395	4185.43338
384.612	4205.07327
384.828	3990.05009
385.045	4135.50609
385.261	4173.42364
385.478	4096.85469
385.695	4120.8413
385.911	4025.31979
386.128	4085.04621
386.344	4127.98614
386.561	4123.9521
386.777	4040.92105
386.994	3970.11027
387.21	3923.00916
387.427	4056.20646
387.643	4024.56061
387.86	3955.97333
388.076	3800.06903
388.292	3951.53675
388.509	3840.05481
388.725	4054.34835
388.942	4026.10378
389.158	4076.32364
389.374	4028.48815
389.591	3920.42273
389.807	3859.79239
390.023	4059.62094
390.239	3992.40391
390.456	4106.27912
390.672	4104.12385
390.888	4087.09368
391.104	4386.29764
391.321	4231.80667
391.537	4384.87979
391.753	4288.30859
391.969	4537.409
392.185	4616.87194
392.401	4583.1658
392.618	4574.20861
392.834	4563.99555
393.05	4738.90221
393.266	4755.29616
393.482	4778.15706
393.698	4689.76966
393.914	4605.3628
394.13	4761.1966
394.346	4650.88256
394.562	4727.42009
394.778	4620.18046
394.994	4789.98791
395.21	4802.84172
395.426	4946.50932
395.642	4956.55375
395.858	5100.76078
396.073	4950.1456
396.289	4950.00686
396.505	5127.62491
396.721	5001.66362
396.937	5047.29514
397.153	4872.80543
397.369	5025.67361
397.584	5250.41473
397.8	4903.29665
398.016	5026.24379
398.232	5185.16834
398.447	5054.60505
398.663	5171.16799
398.879	4997.02972
399.094	5223.76734
399.31	5193.54003
399.526	5025.09582
399.741	5318.35783
399.957	5363.70909
400.173	5395.19843
400.388	5426.61546
400.604	5430.4735
400.82	5614.94938
401.035	5794.27513
401.251	5805.10123
401.466	5686.10115
401.682	6041.88752
401.897	6159.94821
402.113	6192.00304
402.328	6365.95332
402.544	6473.23455
402.759	6426.99662
402.974	6749.969
403.19	6761.4088
403.405	7154.06912
403.621	7406.88342
403.836	7313.76625
404.051	7540.23241
404.267	7758.15001
404.482	7595.85248
404.697	7431.63691
404.913	7523.92087
405.128	8165.5364
405.343	7963.63151
405.559	8011.5539
405.774	8222.56699
405.989	8597.73337
406.204	8634.5289
406.42	8606.75058
406.635	8605.21324
406.85	8497.6969
407.065	8741.17339
407.28	8860.59786
407.495	9011.36578
407.71	8680.78688
407.926	8893.73121
408.141	9321.9818
408.356	9357.3734
408.571	9177.77518
408.786	9058.53661
409.001	9097.56683
409.216	9518.25607
409.431	9468.45223
409.646	9292.76406
409.861	9112.97038
410.076	9210.51367
410.291	9354.29911
410.506	9543.04531
410.721	9194.94554
410.936	9379.20739
411.15	9242.46042
411.365	9443.79196
411.58	9504.69177
411.795	9243.13453
412.01	9836.71007
412.225	9633.9349
412.439	9324.7022
412.654	9490.60833
412.869	9461.24648
413.084	9650.40961
413.299	9645.5163
413.513	9288.06463
413.728	9286.80879
413.943	9712.26889
414.157	9666.82983
414.372	9729.8954
414.587	9859.6295
414.801	10201.6164
415.016	9915.04383
415.231	10197.68982
415.445	9976.10064
415.66	10010.94265
415.874	10333.55482
416.089	10007.93233
416.304	10552.65071
416.518	10232.55516
416.733	10280.77771
416.947	10198.52756
417.162	10293.18621
417.376	10426.78977
417.59	10688.99102
417.805	10648.7123
418.019	10504.895
418.234	10382.12992
418.448	10048.84372
418.663	10634.35756
418.877	10458.86336
419.091	10709.54163
419.306	10473.36274
419.52	10597.79764
419.734	10478.5628
419.949	10997.58468
420.163	10955.12191
420.377	10425.25231
420.591	10688.34523
420.806	10652.88282
421.02	10716.19542
421.234	10915.21614
421.448	10848.07607
421.663	10792.08857
421.877	10655.5222
422.091	10643.34295
422.305	10549.30873
422.519	10640.1697
422.733	11238.64641
422.947	10490.3723
423.161	10515.66635
423.376	10685.0969
423.59	10761.49239
423.804	10880.75044
424.018	10764.76413
424.232	10898.47126
424.446	11309.83269
424.66	11123.22219
424.874	10727.76754
425.088	10625.846
425.302	10735.52639
425.515	11116.34716
425.729	11306.76259
425.943	11209.03441
426.157	11276.27979
426.371	10787.37054
426.585	10991.41253
426.799	11138.76086
427.013	11564.19254
427.226	11634.55038
427.44	11082.7309
427.654	11018.20849
427.868	11209.30514
428.081	11205.93945
428.295	10977.6884
428.509	11143.33578
428.723	11003.19734
428.936	11299.65553
429.15	10813.595
429.364	10954.29983
429.577	10636.34081
429.791	10678.86927
430.005	11337.83474
430.218	11124.69151
430.432	10580.76752
430.645	10581.79524
430.859	10722.09206
431.073	10710.56955
431.286	11066.97923
431.5	11147.70411
431.713	10468.10745
431.927	10669.3308
432.14	10820.84226
432.354	10741.54666
432.567	10658.46055
432.781	10998.89059
432.994	11011.0074
433.207	11043.42671
433.421	11173.91895
433.634	11130.55561
433.848	11362.39376
434.061	10900.2485
434.274	10315.17649
434.488	10657.66956
434.701	10608.7434
434.914	10760.3224
435.127	11065.57469
435.341	11183.1397
435.554	11068.03066
435.767	11381.97891
435.98	11574.72946
436.194	10886.1645
436.407	10951.78584
436.62	11945.59523
436.833	11830.25264
437.046	11399.63224
437.259	11158.81927
437.473	11919.15453
437.686	11795.91531
437.899	11718.03034
438.112	11935.41803
438.325	11560.80723
438.538	11666.65992
438.751	12523.54767
438.964	11800.83746
439.177	12201.84618
439.39	11970.64129
439.603	12929.17718
439.816	12579.67048
440.029	13204.53737
440.242	13551.87372
440.455	13785.10243
440.668	13523.05566
440.881	12616.36141
441.094	12525.01147
441.306	13229.24514
441.519	14023.74354
441.732	13830.57629
441.945	13951.40962
442.158	13413.78627
442.37	13283.76833
442.583	14192.73722
442.796	14562.78768
443.009	14354.72289
443.222	13915.94717
443.434	13157.27796
443.647	14499.8385
443.86	15028.65404
444.072	15153.86265
444.285	14777.92132
444.498	15088.17276
444.71	14472.36554
444.923	14759.36902
445.136	14495.13323
445.348	14202.86531
445.561	14238.6923
445.773	14430.82466
445.986	13747.14404
446.198	14798.78736
446.411	14847.89014
446.623	15006.88871
446.836	15067.93041
447.048	15274.30779
447.261	15708.655
447.473	15603.56101
447.686	14987.2544
447.898	15241.25813
448.11	16268.26066
448.323	16358.65957
448.535	15953.2578
448.748	15224.14248
448.96	15328.13034
449.172	15465.22265
449.385	14952.48712
449.597	15866.83626
449.809	15934.84516
450.021	16229.7957
450.234	16277.49605
450.446	15309.94913
450.658	15387.73349
450.87	15702.61713
451.083	16055.6066
451.295	16268.75906
451.507	15823.74529
451.719	15802.94985
451.931	16360.82229
452.143	16328.33558
452.356	15911.26881
452.568	15845.25116
452.78	16080.21905
452.992	16371.71972
453.204	16808.71587
453.416	16230.00221
453.628	15677.92395
453.84	15832.99371
454.052	16053.54326
454.264	16458.39196
454.476	16450.04729
454.688	17187.16666
454.9	17355.95053
455.112	16334.15098
455.324	15992.09852
455.536	16488.61425
455.747	16972.2891
455.959	16877.00449
456.171	17120.49917
456.383	16389.52799
456.595	16029.82714
456.807	16218.71677
457.018	16045.51025
457.23	16757.51364
457.442	16231.72961
457.654	16740.0893
457.865	16632.99868
458.077	16039.60463
458.289	15861.93869
458.501	16245.6827
458.712	17237.62826
458.924	17746.01791
459.136	16568.29493
459.347	16461.69829
459.559	16576.63683
459.77	17365.51476
459.982	17540.65393
460.194	17319.22036
460.405	16284.0023
460.617	16654.56952
460.828	17364.12553
461.04	17250.32528
461.251	16917.0318
461.463	18135.20873
461.674	17830.87636
461.886	17290.93537
462.097	17050.62012
462.309	17632.5848
462.52	16915.95819
462.731	18349.99467
462.943	17203.42038
463.154	16797.19559
463.366	16881.21373
463.577	17701.61132
463.788	17943.08469
464	18219.68202
464.211	18328.88821
464.422	19380.84924
464.634	18995.19857
464.845	18525.61434
465.056	19093.3694
465.267	18720.01153
465.478	17767.45754
465.69	18705.62454
465.901	18709.00999
466.112	18726.20317
466.323	19037.9157
466.534	19485.90305
466.745	19400.69728
466.957	19542.6372
467.168	19233.21126
467.379	19081.0773
467.59	18696.27881
467.801	18243.71914
468.012	18868.78508
468.223	19388.49408
468.434	18959.75012
468.645	20139.49499
468.856	20477.49061
469.067	19773.80009
469.278	20118.72924
469.489	20312.24634
469.7	19120.58087
469.911	19172.74727
470.122	20663.48561
470.333	21195.95322
470.543	19716.4509
470.754	20317.6884
470.965	20496.47577
471.176	20741.99351
471.387	21361.00422
471.598	20564.45153
471.808	20406.9104
472.019	20845.81116
472.23	20815.51325
472.441	20236.64969
472.651	21079.34968
472.862	20950.38875
473.073	21677.19441
473.283	21294.75918
473.494	21076.6243
473.705	21115.15612
473.915	21103.55819
474.126	22143.49819
474.337	21926.05807
474.547	22192.46028
474.758	22511.60721
474.968	22215.34452
475.179	22460.89971
475.389	22425.18885
475.6	22563.80493
475.81	23035.19099
476.021	23417.97418
476.231	23614.78377
476.442	23196.26629
476.652	22799.78201
476.863	22830.92023
477.073	22854.46173
477.284	23422.34648
477.494	23489.73769
477.704	24715.87877
477.915	25359.61634
478.125	23695.09948
478.335	24525.77743
478.546	25330.14789
478.756	24880.56068
478.966	25392.69883
479.177	25171.84808
479.387	25770.90856
479.597	25685.15668
479.807	25684.02872
480.018	25538.24451
480.228	25995.19771
480.438	26355.55387
480.648	26613.51707
480.858	26659.21462
481.068	26074.81207
481.279	26722.60405
481.489	27775.02046
481.699	27272.21236
481.909	27394.01362
482.119	28788.50059
482.329	28511.64133
482.539	28597.85748
482.749	28084.5557
482.959	28603.27711
483.169	29344.40061
483.379	29195.53024
483.589	29920.51976
483.799	29599.23075
484.009	28980.81209
484.219	29633.77691
484.429	29861.09268
484.639	29492.58022
484.849	30120.61779
485.059	30565.42847
485.268	30774.54507
485.478	31133.50388
485.688	30052.55698
485.898	30412.48078
486.108	30672.49536
486.317	30950.15315
486.527	31118.73889
486.737	31847.13254
486.947	31402.96588
487.156	31854.11515
487.366	31533.26109
487.576	30883.24114
487.785	31125.93645
487.995	31320.68909
488.205	31577.34411
488.414	31810.50038
488.624	31677.45514
488.834	31709.14296
489.043	31279.17575
489.253	31319.96258
489.462	31657.13577
489.672	32361.08073
489.882	32394.09792
490.091	32513.94104
490.301	32350.05557
490.51	32540.53044
490.72	32676.74904
490.929	32711.69611
491.138	32920.43443
491.348	32484.09247
491.557	32485.43579
491.767	33067.07361
491.976	32826.04763
492.185	32752.98501
492.395	32801.7917
492.604	33087.48859
492.813	32748.18961
493.023	33381.15262
493.232	33083.72354
493.441	33157.3908
493.651	33459.67132
493.86	33028.42362
494.069	33369.58109
494.278	33418.77526
494.488	33557.43246
494.697	33609.84162
494.906	33427.67382
495.115	33834.3716
495.324	33604.75121
495.533	33878.3218
495.743	33960.37916
495.952	34433.05895
496.161	34224.11884
496.37	34424.33199
496.579	34531.46658
496.788	34496.12968
496.997	34763.01833
497.206	34506.87694
497.415	34708.1776
497.624	34765.03035
497.833	34678.89098
498.042	34844.17123
498.251	34817.69618
498.46	34980.43095
498.669	34910.84875
498.878	34874.9245
499.087	34790.63754
499.296	35051.99414
499.504	35010.42452
499.713	35082.68057
499.922	35077.12962
500.131	35086.44425
500.34	35133.44278
500.549	35170.17716
500.757	35112.97164
500.966	35198.75486
501.175	35117.79211
501.384	35256.81985
501.592	35136.86638
501.801	35306.06818
502.01	35212.30664
502.218	35211.4145
502.427	35289.30204
502.636	35088.81629
502.844	35274.68165
503.053	35129.43773
503.262	35300.91427
503.47	35157.20609
503.679	35224.16712
503.887	35267.29811
504.096	35229.50201
504.304	35200.47467
504.513	35284.25062
504.721	35194.41096
504.93	35145.10057
505.138	35206.60936
505.347	35152.98024
505.555	35211.833
505.764	35158.50676
505.972	35165.31306
506.18	35064.32985
506.389	35181.80788
506.597	35018.66362
506.806	35179.07586
507.014	35197.51334
507.222	35127.29806
507.431	35173.61188
507.639	35042.5376
507.847	35193.81638
508.055	35105.26454
508.264	35202.85542
508.472	35189.4281
508.68	35079.33052
508.888	35187.4757
509.096	35145.90622
509.305	35229.03157
509.513	35105.80533
509.721	35172.5048
509.929	35113.8699
510.137	35111.96697
510.345	35100.37897
510.553	35135.63
510.762	35158.149
510.97	35124.70015
511.178	35139.96563
511.386	35265.0231
511.594	35226.52035
511.802	35283.18982
512.01	35217.30604
512.218	35346.50372
512.426	35294.26256
512.634	35314.56619
512.842	35356.30966
513.049	35226.2241
513.257	35302.73539
513.465	35305.69015
513.673	35287.49494
513.881	35320.52187
514.089	35373.26462
514.297	35364.39673
514.504	35354.88345
514.712	35327.31389
514.92	35357.99321
515.128	35414.64327
515.336	35350.91684
515.543	35373.34652
515.751	35334.30516
515.959	35312.29883
516.166	35280.68016
516.374	35295.31951
516.582	35218.38422
516.789	35216.38956
516.997	35175.80459
517.205	35199.09049
517.412	35219.3813
517.62	35228.12218
517.827	35207.43008
518.035	35082.44581
518.243	35073.98811
518.45	34885.82956
518.658	34897.95202
518.865	34872.90406
519.073	34900.1567
519.28	34767.82955
519.488	34722.91316
519.695	34686.25502
519.902	34576.30496
520.11	34607.09121
520.317	34715.24697
520.525	34607.84619
520.732	34532.17404
520.939	34535.79763
521.147	34332.58191
521.354	34449.68158
521.561	34374.68299
521.769	34361.09555
521.976	34273.85977
522.183	34388.87262
522.391	34209.0426
522.598	34237.02166
522.805	34182.69244
523.012	34289.36281
523.219	34250.70614
523.427	34231.64848
523.634	34258.36413
523.841	34275.66101
524.048	34083.78072
524.255	34291.74024
524.462	34166.22881
524.669	34025.84381
524.877	34250.38257
525.084	34154.65665
525.291	34039.90916
525.498	34281.59668
525.705	34278.02134
525.912	34396.35488
526.119	34229.57606
526.326	34242.15587
526.533	34375.16028
526.74	34420.88082
526.947	34412.51659
527.153	34451.64341
527.36	34478.90184
527.567	34276.35337
527.774	34389.06971
527.981	34464.54164
528.188	34371.71167
528.395	34479.73155
528.602	34349.91946
528.808	34374.0874
529.015	34304.9051
529.222	34575.88802
529.429	34309.33563
529.635	34586.69829
529.842	34416.54513
530.049	34397.66235
530.256	34292.579
530.462	34400.05357
530.669	34503.79524
530.876	34479.61771
531.082	34485.48234
531.289	34518.64468
531.495	34268.22161
531.702	34543.10488
531.909	34406.3343
532.115	34588.59888
532.322	34391.8438
532.528	34416.60743
532.735	34411.55715
532.941	34451.29778
533.148	34379.78736
533.354	34349.00816
533.561	34524.89978
533.767	34292.91873
533.974	34327.71227
534.18	34338.70185
534.387	34305.34048
534.593	34307.17252
534.799	34264.71725
535.006	34287.22465
535.212	34223.21924
535.418	34286.27019
535.625	34283.76479
535.831	34253.45707
536.037	34197.03579
536.244	34226.48369
536.45	33864.78027
536.656	34148.91039
536.862	34194.20221
537.068	34367.63171
537.275	34208.85035
537.481	34133.21964
537.687	34427.1151
537.893	34435.81741
538.099	34272.85043
538.305	34240.90884
538.512	34265.79313
538.718	34079.14736
538.924	34172.51878
539.13	34027.2192
539.336	34190.76576
539.542	34097.42985
539.748	34122.18032
539.954	34035.63998
540.16	34046.08817
540.366	34063.6539
540.572	34050.48275
540.778	33927.03486
540.984	33879.01614
541.19	33974.18961
541.396	33846.09195
541.602	33909.4611
541.807	33948.23929
542.013	33831.26281
542.219	33606.39832
542.425	33715.7353
542.631	33491.50256
542.837	33365.35479
543.042	33581.00686
543.248	33355.66921
543.454	33558.2242
543.66	33508.14537
543.865	33134.64151
544.071	33508.14537
544.277	33142.13532
544.483	33218.3742
544.688	33229.74709
544.894	33517.22005
545.1	33254.86112
545.305	33157.57703
545.511	33152.98034
545.716	33171.32361
545.922	33037.98653
546.128	32980.24827
546.333	33025.61276
546.539	33274.13405
546.744	33001.40955
546.95	32973.03655
547.155	32979.04752
547.361	33166.72883
547.566	32564.65604
547.772	32868.40421
547.977	32980.85748
548.182	32800.81874
548.388	32863.85231
548.593	32865.25542
548.799	32609.82062
549.004	32638.59716
549.209	32752.13253
549.415	32833.83625
549.62	32652.72376
549.825	32799.04576
550.031	32603.89797
550.236	32647.05643
550.441	32673.80513
550.646	32651.47139
550.852	32687.70837
551.057	32648.18018
551.262	32821.77982
551.467	32753.24045
551.672	32322.60205
551.878	32772.35197
552.083	32482.56611
552.288	32284.2169
552.493	32421.96489
552.698	32267.53359
552.903	32507.4542
553.108	32728.60997
553.313	32428.82459
553.518	32420.4941
553.723	32545.52839
553.928	32549.87068
554.133	32510.06874
554.338	32496.89212
554.543	32440.33489
554.748	32358.72038
554.953	32370.97029
555.158	32618.41348
555.363	32443.3215
555.568	32124.68348
555.773	32558.41333
555.978	32605.11016
556.182	32280.90191
556.387	32427.45203
556.592	32166.19959
556.797	32340.05684
557.002	32251.06225
557.206	32259.75668
557.411	32158.57722
557.616	32248.23786
557.821	32254.89509
558.025	32188.67068
558.23	31954.40193
558.435	32162.51061
558.64	31935.46481
558.844	32056.68187
559.049	32056.6537
559.253	32236.83663
559.458	31756.91723
559.663	32044.57375
559.867	31772.62262
560.072	31737.58921
560.276	31671.49832
560.481	31809.34213
560.685	31885.73747
560.89	31354.70513
561.094	31503.88545
561.299	31526.298
561.503	30924.59519
561.708	31485.53152
561.912	31149.11725
562.117	31084.90533
562.321	31160.65015
562.525	31339.41135
562.73	31201.45355
562.934	31236.62647
563.139	31197.81983
563.343	31129.89245
563.547	31106.28852
563.752	30993.68892
563.956	31070.22464
564.16	31018.41757
564.364	30832.32677
564.569	31019.83794
564.773	30857.09468
564.977	30611.02423
565.181	31046.11006
565.385	30792.29296
565.59	30708.81546
565.794	30623.78559
565.998	30695.9754
566.202	30483.60808
566.406	30560.3225
566.61	30425.68935
566.814	30469.05915
567.018	30411.59929
567.222	30221.51233
567.426	29899.94704
567.63	30203.52886
567.834	30395.35885
568.038	30104.63867
568.242	30310.49747
568.446	29849.93069
568.65	30183.21342
568.854	29909.40543
569.058	29959.20125
569.262	30038.46942
569.466	29922.35749
569.67	29995.56131
569.874	29810.88273
570.078	30196.35678
570.281	29768.9099
570.485	29794.87707
570.689	29821.56658
570.893	29694.41856
571.097	29785.86804
571.3	29534.54688
571.504	29825.04198
571.708	29379.45503
571.912	29602.09109
572.115	29208.56544
572.319	29279.87543
572.523	29195.251
572.726	29067.36733
572.93	29017.988
573.133	29238.49133
573.337	29090.73393
573.541	29069.59368
573.744	28926.3379
573.948	28996.7641
574.151	28860.21273
574.355	29025.88404
574.558	28732.14649
574.762	29053.78434
574.965	28681.06649
575.169	28712.40153
575.372	28622.21707
575.576	28670.38712
575.779	28700.15656
575.983	28866.98114
576.186	28384.73747
576.389	28446.35016
576.593	28528.05878
576.796	28212.55405
577	28126.63489
577.203	28489.53964
577.406	28231.37372
577.609	27985.93014
577.813	28080.67864
578.016	28252.86679
578.219	28148.04718
578.423	28131.61257
578.626	27904.99802
578.829	27808.38786
579.032	27741.91704
579.235	28039.50764
579.438	27917.8712
579.642	27874.13159
579.845	27809.51499
580.048	27677.27831
580.251	27508.077
580.454	27527.03816
580.657	27597.48956
580.86	27535.38918
581.063	27177.52334
581.266	27458.36677
581.469	27536.14185
581.672	27520.97671
581.875	27558.10027
582.078	27470.03131
582.281	27337.81547
582.484	27193.22491
582.687	27450.97376
582.89	27347.34604
583.093	27241.74041
583.296	27251.26865
583.499	27346.84724
583.702	27134.85897
583.904	26955.88551
584.107	27222.41436
584.31	26978.09287
584.513	26876.39182
584.716	26926.77902
584.918	27006.04533
585.121	26892.9226
585.324	26783.18019
585.527	26908.34199
585.729	27031.0091
585.932	26958.51129
586.135	26736.43429
586.337	26723.35715
586.54	26965.15987
586.743	26861.69423
586.945	26574.02797
587.148	26678.96093
587.35	26819.94702
587.553	26467.78519
587.755	26796.60788
587.958	26740.6632
588.161	26554.31589
588.363	26556.06433
588.566	26451.37961
588.768	26610.00101
588.971	26387.17777
589.173	26481.95269
589.375	26417.87412
589.578	26187.28143
589.78	26391.29085
589.983	25979.2856
590.185	26111.67572
590.387	25618.60946
590.59	25950.43984
590.792	25508.02238
590.994	25711.01448
591.197	25423.40861
591.399	25193.14641
591.601	25311.72332
591.803	25083.88621
592.006	25063.92188
592.208	25315.98606
592.41	25021.24447
592.612	24965.79133
592.815	24940.11118
593.017	25115.57897
593.219	24722.92641
593.421	24608.58386
593.623	24384.6739
593.825	24395.96215
594.027	24344.07181
594.229	24334.83743
594.432	24220.81133
594.634	24231.56071
594.836	23890.05953
595.038	24259.6169
595.24	23924.0786
595.442	24013.03786
595.644	23806.68335
595.846	23619.52357
596.048	23854.66972
596.249	23590.25244
596.451	23526.48086
596.653	23584.35125
596.855	23482.97389
597.057	23448.4168
597.259	23419.72567
597.461	23397.04065
597.663	23196.26629
597.864	23091.04872
598.066	23132.40261
598.268	23104.20903
598.47	22955.04546
598.671	23105.45489
598.873	23063.02683
599.075	23152.42227
599.277	23217.3087
599.478	23033.62348
599.68	23150.03524
599.882	23060.69731
600.083	23082.78831
600.285	22893.28241
600.487	22969.22678
600.688	22965.30786
600.89	23160.32043
601.091	23100.70741
601.293	23035.94899
601.494	22922.64707
601.696	23084.08465
601.898	22949.40349
602.099	23102.18809
602.301	23084.15529
602.502	23035.20006
602.703	23084.04308
602.905	22779.33687
603.106	23064.48939
603.308	23029.94851
603.509	23064.26856
603.711	22714.82681
603.912	22851.86296
604.113	22700.93282
604.315	22683.39186
604.516	22745.0327
604.717	22755.90716
604.919	22600.87982
605.12	22759.6625
605.321	22810.67497
605.522	22670.2932
605.724	22651.87929
605.925	22774.58081
606.126	22728.99225
606.327	22774.11657
606.528	22777.82926
606.729	22738.27365
606.931	22809.80045
607.132	22814.57278
607.333	22527.01301
607.534	22651.64154
607.735	22900.32076
607.936	22831.19126
608.137	22608.29459
608.338	22561.94724
608.539	22731.61113
608.74	22579.83144
608.941	22516.29774
609.142	22312.25526
609.343	22604.686
609.544	22616.72702
609.745	22380.63831
609.946	22445.5067
610.147	22397.05972
610.348	22566.89561
610.549	22479.79527
610.75	22395.11671
610.95	22223.52381
611.151	22377.74099
611.352	22411.70344
611.553	22569.11496
611.754	22256.18193
611.954	22427.98448
612.155	22318.90445
612.356	22188.94854
612.557	22059.52459
612.757	22392.27842
612.958	21934.41204
613.159	22102.5442
613.359	22106.85069
613.56	22071.26077
613.761	22291.22085
613.961	22103.03929
614.162	21848.55519
614.362	21976.7663
614.563	22045.36065
614.764	22051.85247
614.964	21923.32423
615.165	21930.17762
615.365	21810.3125
615.566	21749.17664
615.766	21795.49342
615.967	21625.25281
616.167	21651.2069
616.368	21586.7096
616.568	21623.23222
616.768	21505.60811
616.969	21495.86568
617.169	21564.07718
617.37	21512.87059
617.57	21302.00397
617.77	21308.0999
617.971	21237.20634
618.171	21247.87973
618.371	21169.82268
618.571	21200.60333
618.772	21145.62154
618.972	21167.98699
619.172	21018.09288
619.372	20920.8583
619.573	20903.47874
619.773	20871.40804
619.973	20942.75101
620.173	20784.44806
620.373	20906.13961
620.573	20622.04466
620.774	20824.39365
620.974	20524.40821
621.174	20680.78849
621.374	20766.98228
621.574	20742.59991
621.774	20477.69485
621.974	20645.11612
622.174	20471.48941
622.374	20611.96454
622.574	20607.09926
622.774	20441.7563
622.974	20336.66268
623.174	20685.55645
623.374	20545.31153
623.574	20462.5577
623.774	20583.82896
623.973	20568.19961
624.173	20418.81598
624.373	20397.77712
624.573	20362.27152
624.773	20349.19659
624.973	20441.2293
625.172	20427.53072
625.372	20060.11781
625.572	20333.23041
625.772	20227.8269
625.971	20160.53807
626.171	20205.1469
626.371	20415.42856
626.57	20041.62579
626.77	20406.88562
626.97	20085.63967
627.169	20059.59867
627.369	20018.49054
627.569	19940.88749
627.768	19686.27975
627.968	20004.81999
628.167	19911.97909
628.367	19889.61917
628.566	19784.47505
628.766	19835.9104
628.965	19711.92342
629.165	19881.65122
629.364	19694.76708
629.564	19668.43632
629.763	19736.41129
629.963	19712.98628
630.162	19734.49061
630.362	19790.4757
630.561	19569.10629
630.76	19471.51747
630.96	19394.33025
631.159	19412.60723
631.358	19369.57439
631.558	19320.85527
631.757	19548.54535
631.956	19303.31992
632.155	19148.2154
632.355	19241.53288
632.554	19184.42913
632.753	19039.71842
632.952	18834.81917
633.152	19097.71782
633.351	18945.18548
633.55	19022.18421
633.749	18883.79484
633.948	18986.77018
634.147	18655.85766
634.346	18684.36646
634.545	18574.3125
634.744	18702.44144
634.944	18511.88537
635.143	18529.64456
635.342	18568.67336
635.541	18435.66934
635.74	18505.44515
635.939	18504.1511
636.138	18532.16026
636.336	18352.30576
636.535	18302.91773
636.734	18322.6593
636.933	18367.93646
637.132	18483.15675
637.331	18296.53014
637.53	18418.83148
637.729	18296.57574
637.928	18255.53736
638.126	18288.6675
638.325	18219.71192
638.524	18060.66425
638.723	18121.48336
638.921	18195.43741
639.12	18307.82331
639.319	18216.89006
639.518	18292.4086
639.716	18060.01697
639.915	18083.95005
640.114	18151.71519
640.312	18155.44732
640.511	18008.4776
640.71	18185.75974
640.908	17850.45203
641.107	18146.68065
641.305	17885.78915
641.504	18105.59854
641.702	18069.64778
641.901	18108.24331
642.099	17987.63716
642.298	17973.80748
642.496	17843.71973
642.695	17975.30455
642.893	17937.75045
643.092	17894.90534
643.29	17744.66783
643.489	17685.94846
643.687	17806.32422
643.885	17830.48636
644.084	17812.25515
644.282	17731.00098
644.48	17821.50073
644.679	17844.20504
644.877	17640.99081
645.075	17640.07381
645.274	17526.49833
645.472	17630.49213
645.67	17478.2577
645.868	17533.92759
646.067	17477.99979
646.265	17644.11471
646.463	17385.08202
646.661	17424.17853
646.859	17518.99089
647.057	17389.9503
647.256	17395.68128
647.454	17489.99471
647.652	17396.89055
647.85	17325.56653
648.048	17280.32329
648.246	17294.9757
648.444	17036.49747
648.642	17132.42454
648.84	17056.42622
649.038	17044.12655
649.236	17005.69372
649.434	16939.50352
649.632	16769.72536
649.83	17131.53157
650.028	16601.67857
650.226	16613.08277
650.423	16716.10243
650.621	16670.39336
650.819	16502.05042
651.017	16506.84679
651.215	16416.11357
651.413	16627.20872
651.61	16437.90655
651.808	16455.87175
652.006	16132.85511
652.204	16184.14742
652.401	16266.60116
652.599	16275.03747
652.797	16093.80853
652.995	15953.99092
653.192	15872.8827
653.39	16098.65914
653.588	16075.34491
653.785	16042.38892
653.983	15957.43345
654.18	15938.33565
654.378	15722.8334
654.576	15978.95924
654.773	15844.18862
654.971	15949.6111
655.168	15699.76117
655.366	15886.77047
655.563	15547.78169
655.761	15741.86065
655.958	15701.0353
656.156	15627.8606
656.353	15446.28164
656.55	15583.36745
656.748	15678.7129
656.945	15527.66965
657.143	15271.33406
657.34	15369.94502
657.537	15481.40902
657.735	15292.22467
657.932	15151.20562
658.129	15131.69467
658.326	14971.1452
658.524	15233.29432
658.721	15106.21452
658.918	14884.42513
659.115	14856.27792
659.313	14906.53828
659.51	14704.21066
659.707	14952.69473
659.904	14754.10075
660.101	14834.84554
660.298	14700.23141
660.496	14699.46441
660.693	14645.6454
660.89	14735.46678
661.087	14685.61954
661.284	14665.53959
661.481	14615.01034
661.678	14747.31761
661.875	14694.19235
662.072	14654.70064
662.269	14489.74807
662.466	14824.60459
662.663	14592.30453
662.86	14675.29109
663.057	14526.29132
663.254	14539.64301
663.45	14559.886
663.647	14606.08206
663.844	14421.48327
664.041	14436.51551
664.238	14471.25396
664.435	14434.18406
664.631	14263.00681
664.828	14597.0629
665.025	14342.3674
665.222	14245.61695
665.419	14384.21764
665.615	14542.47225
665.812	14357.28561
666.009	14567.89521
666.205	14493.70573
666.402	14450.16751
666.599	14130.51108
666.795	14521.58554
666.992	14471.9611
667.188	14434.14302
667.385	14275.79731
667.582	14420.42248
667.778	14318.44574
667.975	14427.29512
668.171	14365.82313
668.368	14288.4252
668.564	14269.13135
668.761	14532.46809
668.957	14394.68908
669.154	14321.93976
669.35	14370.95693
669.547	14391.00601
669.743	14293.20787
669.939	14443.56553
670.136	14418.44612
670.332	14226.62766
670.528	14365.18162
670.725	14377.51601
670.921	14311.72672
671.117	14361.30902
671.314	14326.99823
671.51	14209.45377
671.706	14228.61377
671.902	14179.05829
672.099	14213.91128
672.295	13951.53064
672.491	14123.06397
672.687	14000.71548
672.883	13990.77578
673.08	13989.3602
673.276	13917.71282
673.472	13954.83761
673.668	14058.50232
673.864	13797.51285
674.06	13929.50443
674.256	13962.47795
674.452	13758.3538
674.648	13762.0086
674.844	13756.55312
675.04	13966.06138
675.236	13726.18797
675.432	13571.70055
675.628	13545.42849
675.824	13401.1886
676.02	13682.60386
676.216	13562.2513
676.412	13652.2091
676.608	13428.58425
676.804	13394.9691
676.999	13400.82896
677.195	13472.04797
677.391	13461.73731
677.587	13285.89756
677.783	13156.15003
677.978	13471.62628
678.174	13382.13702
678.37	13265.76512
678.566	13379.24681
678.761	13167.97319
678.957	13322.72913
679.153	13089.97605
679.348	13217.76267
679.544	13124.01882
679.74	13184.94917
679.935	12961.61888
680.131	13231.93727
680.327	13089.77752
680.522	13057.02866
680.718	12972.37828
680.913	13000.52722
681.109	12887.20647
681.304	13036.57144
681.5	12877.45832
681.695	12890.36368
681.891	12870.64282
682.086	12961.55929
682.282	12728.36834
682.477	12632.54754
682.672	12830.27586
682.868	12833.87398
683.063	12731.93311
683.259	12728.32416
683.454	12539.69243
683.649	12703.29093
683.845	12595.67824
684.04	12747.06464
684.235	12622.44655
684.43	12744.70849
684.626	12596.70929
684.821	12641.34283
685.016	12546.88084
685.211	12380.94907
685.407	12355.82725
685.602	12514.43969
685.797	12248.97656
685.992	12474.91873
686.187	12615.12854
686.382	12472.27687
686.577	12321.27785
686.773	12489.49568
686.968	12187.73772
687.163	12319.64429
687.358	12164.82165
687.553	12241.44404
687.748	12251.37512
687.943	12306.12513
688.138	11978.91312
688.333	12042.20568
688.528	11880.74015
688.723	11856.24502
688.918	11853.68401
689.112	11789.00861
689.307	11578.51001
689.502	11580.1646
689.697	11574.5947
689.892	11398.22841
690.087	11451.26663
690.282	11396.83258
690.476	11269.85634
690.671	11304.11662
690.866	11039.44309
691.061	11133.97038
691.255	10964.79726
691.45	11106.50045
691.645	11016.79364
691.84	10918.26398
692.034	10917.90787
692.229	10828.53538
692.424	10864.09694
692.618	10766.60573
692.813	10573.9628
693.007	10698.67016
693.202	10573.73061
693.397	10541.31097
693.591	10392.28823
693.786	10375.51939
693.98	10275.30091
694.175	10487.38113
694.369	10265.5358
694.564	10345.09935
694.758	10299.58212
694.953	10222.5785
695.147	9998.57293
695.342	10086.53213
695.536	9996.076
695.73	10028.2877
695.925	9907.10841
696.119	10020.07429
696.313	9916.47978
696.508	9725.60322
696.702	9846.35552
696.896	9914.18524
697.091	9710.51847
697.285	9845.15933
697.479	9820.57457
697.673	9817.48479
697.868	9670.42576
698.062	9906.94248
698.256	9738.01057
698.45	9773.46379
698.644	9846.29524
698.839	9947.61124
699.033	9683.40436
699.227	9876.71826
699.421	9765.56686
699.615	9744.64021
699.809	9644.53487
700.003	9924.34119
700.197	9699.72728
700.391	9911.13863
700.585	9724.16776
700.779	9934.14484
700.973	9817.46285
701.167	9902.41871
701.361	9885.86533
701.555	9950.8489
701.749	9732.75324
701.943	9773.49609
702.137	9783.96722
702.331	9712.50261
702.525	9751.17769
702.718	9750.06907
702.912	9691.23198
703.106	9743.33473
703.3	9711.37789
703.494	9785.75542
703.687	9699.70595
703.881	9745.78644
704.075	9518.85646
704.269	9787.46366
704.462	9584.24374
704.656	9646.20232
704.85	9497.84555
705.043	9596.21494
705.237	9550.98333
705.431	9568.67376
705.624	9538.87584
705.818	9532.92237
706.012	9646.50845
706.205	9559.40219
706.399	9496.65637
706.592	9522.61851
706.786	9433.91095
706.979	9614.45278
707.173	9327.63367
707.366	9404.77691
707.56	9377.32236
707.753	9483.44476
707.947	9477.14363
708.14	9349.8731
708.333	9320.34067
708.527	9404.45543
708.72	9253.0613
708.914	9503.64357
709.107	9406.61732
709.3	9334.16633
709.494	9118.3444
709.687	9070.49194
709.88	9292.62816
710.073	9281.48877
710.267	9250.07069
710.46	9214.44413
710.653	9260.81857
710.846	9241.518
711.04	9229.29549
711.233	9265.16666
711.426	9151.62097
711.619	9211.29346
711.812	9227.66099
712.005	9273.46612
712.198	9194.68812
712.391	9284.73032
712.585	9079.15597
712.778	9104.60609
712.971	9083.71299
713.164	9120.44862
713.357	9027.61188
713.55	9088.40585
713.743	9026.98192
713.936	9256.13478
714.129	8994.71424
714.322	9074.87145
714.514	9088.22771
714.707	9163.05716
714.9	8985.68341
715.093	9026.75616
715.286	9010.50847
715.479	8877.70429
715.672	8952.09984
715.864	8956.3429
716.057	8916.54896
716.25	9005.72315
716.443	8818.38717
716.636	8870.70817
716.828	9016.61972
717.021	8806.92285
717.214	8870.88724
717.406	8770.92574
717.599	8696.5587
717.792	8706.10388
717.984	8676.62821
718.177	8581.87234
718.37	8633.71713
718.562	8705.03547
718.755	8547.88305
718.947	8531.4897
719.14	8457.22678
719.333	8342.41651
719.525	8267.1172
719.718	8191.34829
719.91	8033.57985
720.103	8029.19457
720.295	7855.86292
720.487	7851.6513
720.68	7764.2627
720.872	7789.29908
721.065	7605.82402
721.257	7663.46038
721.449	7622.42854
721.642	7562.67558
721.834	7358.75474
722.026	7482.43157
722.219	7208.16429
722.411	7165.65841
722.603	6938.05427
722.796	7158.27593
722.988	7139.91233
723.18	7066.49793
723.372	7032.30082
723.565	6938.46073
723.757	6704.59373
723.949	6846.67954
724.141	6829.48334
724.333	6889.84587
724.525	6725.69025
724.717	6765.34227
724.91	6614.90789
725.102	6558.30079
725.294	6563.78878
725.486	6554.71552
725.678	6490.03547
725.87	6486.8884
726.062	6409.57454
726.254	6287.30253
726.446	6227.32161
726.638	6327.43684
726.83	6195.06503
727.022	6234.62334
727.213	6158.7363
727.405	6214.24181
727.597	6038.70676
727.789	6195.87443
727.981	6027.72304
728.173	6161.00308
728.365	5989.43627
728.556	6171.33203
728.748	6040.40528
728.94	6092.73844
729.132	6003.88521
729.324	6193.93699
729.515	5923.25502
729.707	5959.93448
729.899	6003.71026
730.09	6022.49804
730.282	5962.34554
730.474	6060.20945
730.665	5869.63362
730.857	6010.72923
731.049	5896.30968
731.24	5975.48232
731.432	6008.71768
731.623	5948.26
731.815	5824.88051
732.006	5886.47298
732.198	5879.12636
732.389	5764.08345
732.581	5779.19645
732.772	5845.19201
732.964	5776.38144
733.155	5851.84362
733.347	5827.51946
733.538	5713.84852
733.729	5785.7554
733.921	5949.93368
734.112	5755.41413
734.304	6053.68009
734.495	5796.3605
734.686	5922.39053
734.877	5822.23903
735.069	5760.61373
735.26	5813.84905
735.451	5901.3411
735.643	5843.36913
735.834	6016.49816
736.025	5804.56315
736.216	5909.44183
736.407	5823.88005
736.599	5786.16939
736.79	5866.5816
736.981	6076.93208
737.172	5753.52718
737.363	5955.7896
737.554	5935.17921
737.745	5990.07567
737.936	6015.22802
738.127	6028.87371
738.318	6004.76717
738.509	6108.35514
738.7	6043.38839
738.891	6089.70231
739.082	6020.88129
739.273	5991.90678
739.464	6125.12007
739.655	6120.18912
739.846	6121.80414
740.037	6127.27112
740.228	6045.72026
740.419	6208.33607
740.609	6054.71207
740.8	6075.1631
740.991	6075.11854
741.182	6063.6535
741.373	6043.12105
741.563	6196.91803
741.754	6153.96175
741.945	6234.97077
742.136	6075.1922
742.326	6275.619
742.517	6155.47278
742.708	6253.03472
742.898	6090.46118
743.089	6207.71687
743.28	6112.71253
743.47	6095.53123
743.661	6138.41377
743.851	6154.59259
744.042	6069.99141
744.233	6253.04206
744.423	6097.23011
744.614	6297.70584
744.804	6037.85006
744.995	6206.20476
745.185	5800.54904
745.376	6143.42516
745.566	6066.19496
745.756	6152.47968
745.947	6169.09193
746.137	6091.40116
746.328	6015.16429
746.518	6164.65914
746.708	6000.98776
746.899	6135.66172
747.089	5974.59967
747.279	6073.12954
747.47	5913.40612
747.66	6043.95528
747.85	5980.50672
748.04	6043.29847
748.231	6050.46
748.421	6049.68455
748.611	6023.43374
748.801	5988.60055
748.991	5954.691
749.182	5936.97627
749.372	5848.8547
749.562	5955.33031
749.752	5927.59218
749.942	5993.09266
750.132	5840.73545
750.322	5907.73402
750.512	5818.71732
750.702	5812.04383
750.892	5939.27674
751.082	6043.65127
751.272	5825.81401
751.462	5844.18499
751.652	5786.24937
751.842	5930.63723
752.032	5691.54862
752.222	5832.8639
752.412	5694.97984
752.602	5734.3826
752.792	5725.34157
752.981	5809.77434
753.171	5676.98356
753.361	5708.16182
753.551	5608.3374
753.741	5659.76121
753.93	5551.31919
754.12	5617.96677
754.31	5529.70432
754.5	5643.00608
754.689	5548.58592
754.879	5591.80015
755.069	5494.48207
755.258	5512.47829
755.448	5516.93474
755.638	5591.94923
755.827	5386.75752
756.017	5432.44268
756.206	5356.86555
756.396	5463.58069
756.586	5268.19234
756.775	5457.22924
756.965	5467.32403
757.154	5540.56975
757.344	5324.47223
757.533	5466.13348
757.723	5335.78918
757.912	5477.96054
758.101	5269.37144
758.291	5376.28132
758.48	5359.926
758.67	5330.80533
758.859	5421.31306
759.048	5389.33651
759.238	5370.2004
759.427	5354.60872
759.616	5242.42248
759.806	5372.38479
759.995	5274.16477
760.184	5408.16558
760.373	5181.46377
760.563	5386.65665
760.752	5072.10078
760.941	5145.84333
761.13	5063.54621
761.319	5003.47586
761.509	4956.34242
761.698	4938.61227
761.887	4880.48374
762.076	4834.85704
762.265	4673.54857
762.454	4697.63506
762.643	4476.08156
762.832	4424.5808
763.021	4210.18566
763.21	4381.23102
763.399	4102.07292
763.588	4239.77172
763.777	4069.54354
763.966	4004.62418
764.155	3878.71403
764.344	3921.49276
764.533	3793.59556
764.722	3776.57412
764.911	3599.57787
765.1	3575.7651
765.288	3396.59808
765.477	3346.63917
765.666	3310.40635
765.855	3269.67404
766.044	3105.02217
766.232	3162.05694
766.421	2946.67601
766.61	3091.72466
766.799	2783.02951
766.987	2892.34858
767.176	2746.90616
767.365	2806.38497
767.553	2683.65632
767.742	2661.05352
767.931	2582.97643
768.119	2612.1708
768.308	2474.96004
768.497	2468.87486
768.685	2451.08663
768.874	2476.70039
769.062	2346.58336
769.251	2463.72299
769.439	2437.55304
769.628	2400.94285
769.816	2391.90921
770.005	2481.87248
770.193	2375.2832
770.382	2601.74245
770.57	2463.16448
770.758	2550.56594
770.947	2509.30329
771.135	2602.43754
771.323	2530.91705
771.512	2605.95628
771.7	2551.83221
771.888	2750.1303
772.077	2725.19689
772.265	2851.5962
772.453	2702.71393
772.642	2853.34789
772.83	2776.95442
773.018	2950.60827
773.206	2826.44996
773.394	2942.57933
773.583	2905.10887
773.771	3091.38964
773.959	3074.52043
774.147	3138.00851
774.335	3188.50578
774.523	3240.75327
774.711	3221.44213
774.899	3430.27428
775.087	3371.61946
775.275	3450.86748
775.463	3370.9167
775.651	3541.6493
775.839	3375.06584
776.027	3547.56881
776.215	3521.98949
776.403	3687.39514
776.591	3548.3211
776.779	3640.31717
776.967	3515.31235
777.155	3751.77301
777.343	3576.53098
777.531	3773.81536
777.718	3646.75953
777.906	3787.65604
778.094	3677.34139
778.282	3895.74594
778.47	3638.51788
778.657	3765.1131
778.845	3673.07178
779.033	3755.99514
779.22	3713.90008
779.408	3826.76403
779.596	3663.32562
779.783	3844.57163
779.971	3690.13573
780.159	3759.88047
780.346	3721.57217
780.534	3765.9603
780.722	3816.50471
780.909	3800.16716
781.097	3747.02369
781.284	3765.92073
781.472	3780.20461
781.659	3805.61268
781.847	3644.81
782.034	3834.90519
782.222	3728.49816
782.409	3821.85244
782.597	3577.46082
782.784	3729.08444
782.971	3610.41462
783.159	3686.55695
783.346	3679.93645
783.533	3627.59015
783.721	3645.96177
783.908	3706.9704
784.095	3605.36562
784.283	3583.57827
784.47	3613.18788
784.657	3645.76954
784.844	3569.75177
785.032	3548.98088
785.219	3584.45012
785.406	3555.28081
785.593	3579.52156
785.78	3558.94225
785.968	3553.52464
786.155	3634.29264
786.342	3376.59199
786.529	3609.87963
786.716	3489.35688
786.903	3501.87982
787.09	3424.69797
787.277	3611.64563
787.464	3451.05195
787.651	3514.75889
787.838	3403.66683
788.025	3388.45694
788.212	3369.3318
788.399	3500.81451
788.586	3372.3346
788.773	3521.42677
788.96	3394.55718
789.147	3395.13766
789.334	3282.73114
789.521	3421.14899
789.707	3330.15409
789.894	3389.6155
790.081	3260.7036
790.268	3249.36888
790.455	3168.81766
790.641	3169.22592
790.828	3200.48303
791.015	3287.69322
791.202	3201.21895
791.388	3184.34298
791.575	3089.77359
791.762	3166.28622
791.948	3051.48562
792.135	3188.65105
792.322	3034.71461
792.508	3116.68756
792.695	3109.71436
792.881	3123.69049
793.068	3061.72921
793.254	3082.77673
793.441	2917.69195
793.627	3058.81762
793.814	2948.0155
794	2970.11824
794.187	2895.506
794.373	2960.7616
794.56	2908.19284
794.746	2981.85707
794.933	2874.81911
795.119	3023.90606
795.305	2944.71067
795.492	2911.49937
795.678	2731.86449
795.864	2904.06301
796.051	2761.4231
796.237	2789.31418
796.423	2737.18949
796.61	2938.19676
796.796	2773.72833
796.982	2856.03063
797.168	2725.07287
797.355	2849.74747
797.541	2783.97234
797.727	2793.16501
797.913	2647.57068
798.099	2842.62278
798.285	2594.70857
798.471	2739.12914
798.658	2605.55729
798.844	2752.64296
799.03	2704.4993
799.216	2690.31937
799.402	2649.69793
799.588	2750.80276
799.774	2638.39931
799.96	2649.54381
800.146	2614.86659
800.332	2734.95439
800.518	2628.32292
800.704	2684.94114
800.89	2652.48692
801.075	2766.72773
801.261	2713.64383
801.447	2746.60482
801.633	2572.58
801.819	2749.52451
802.005	2645.95808
802.19	2746.91787
802.376	2675.42222
802.562	2690.45976
802.748	2592.87491
802.934	2724.40093
803.119	2707.6222
803.305	2725.21244
803.491	2709.54132
803.676	2709.68031
803.862	2698.64391
804.048	2779.06587
804.233	2616.6822
804.419	2690.45082
804.605	2547.01707
804.79	2711.0489
804.976	2516.77415
805.161	2758.80577
805.347	2680.17748
805.532	2752.59195
805.718	2610.41725
805.903	2705.99554
806.089	2602.97458
806.274	2644.81663
806.46	2592.52683
806.645	2700.9221
806.831	2587.85775
807.016	2688.37558
807.201	2618.65399
807.387	2630.63706
807.572	2545.66447
807.757	2671.26711
807.943	2541.22354
808.128	2719.23034
808.313	2550.10014
808.499	2618.02006
808.684	2551.08811
808.869	2516.77415
809.054	2483.93468
809.24	2604.08207
809.425	2538.51918
809.61	2625.19436
809.795	2580.61923
809.98	2703.08176
810.165	2433.36854
810.35	2626.46267
810.536	2591.59462
810.721	2569.87667
810.906	2469.31653
811.091	2601.3666
811.276	2466.25123
811.461	2468.11434
811.646	2423.71566
811.831	2483.86121
812.016	2527.52507
812.201	2537.31064
812.386	2468.11857
812.571	2547.48021
812.756	2389.41395
812.941	2392.22446
813.125	2452.80165
813.31	2445.66412
813.495	2249.4821
813.68	2384.70491
813.865	2366.32247
814.05	2444.3288
814.234	2302.54892
814.419	2327.47547
814.604	2275.22886
814.789	2411.65603
814.973	2277.97365
815.158	2390.78021
815.343	2228.45683
815.528	2252.24963
815.712	2125.1406
815.897	2301.77088
816.081	2162.79784
816.266	2178.1056
816.451	2165.12419
816.635	2134.25352
816.82	2099.75686
817.004	2204.14819
817.189	1982.18551
817.374	2067.45577
817.558	1931.9876
817.743	1930.73757
817.927	1932.32451
818.111	2043.82957
818.296	1863.97821
818.48	1962.88732
818.665	1862.25779
818.849	1888.3836
819.034	1798.93475
819.218	1830.93586
819.402	1727.85173
819.587	1718.49326
819.771	1671.81595
819.955	1715.64345
820.14	1589.21244
820.324	1701.65862
820.508	1572.67366
820.692	1720.43884
820.877	1561.80394
821.061	1668.38707
821.245	1576.95259
821.429	1507.27935
821.613	1438.99284
821.798	1566.98238
821.982	1487.33226
822.166	1505.78363
822.35	1478.84638
822.534	1570.83688
822.718	1387.71967
822.902	1410.05083
823.086	1395.46611
823.27	1427.20212
823.454	1348.45226
823.638	1465.53867
823.822	1297.94851
824.006	1429.74443
824.19	1294.17928
824.374	1463.08394
824.558	1327.68799
824.742	1414.33141
824.926	1237.8442
825.11	1392.58963
825.294	1161.20456
825.477	1259.059
825.661	1207.56969
825.845	1291.52584
826.029	1204.52533
826.213	1247.30364
826.396	1254.86719
826.58	1290.43489
826.764	1233.51093
826.948	1362.71355
827.131	1253.01323
827.315	1239.89551
827.499	1222.04959
827.682	1300.00409
827.866	1180.30496
828.05	1279.89175
828.233	1205.39299
828.417	1242.98533
828.6	1148.8391
828.784	1244.66335
828.967	1092.20391
829.151	1226.275
829.335	1225.72986
829.518	1257.88849
829.701	1096.60661
829.885	1255.27024
830.068	1167.16435
830.252	1292.22801
830.435	1179.62101
830.619	1231.99797
830.802	1146.45348
830.985	1214.82054
831.169	1108.4896
831.352	1214.6965
831.535	1128.53988
831.719	1220.21324
831.902	1104.66235
832.085	1125.1972
832.269	1115.39245
832.452	1209.49706
832.635	1190.56276
832.818	1124.14647
833.002	1115.91877
833.185	1168.34339
833.368	1145.11243
833.551	1244.96022
833.734	1106.30868
833.917	1146.63421
834.1	1033.06289
834.284	1159.16379
834.467	1063.82792
834.65	1238.24206
834.833	1039.97973
835.016	1125.81586
835.199	1084.07745
835.382	1130.44723
835.565	1083.4385
835.748	1120.36646
835.931	1095.06976
836.114	1096.26577
836.297	1039.11351
836.479	1122.27602
836.662	1026.50645
836.845	1085.54577
837.028	1002.42078
837.211	1163.48921
837.394	1084.79268
837.577	1038.52566
837.759	1042.2015
837.942	1027.4207
838.125	997.19627
838.308	1028.99943
838.49	1022.68693
838.673	897.82566
838.856	890.32633
839.039	978.52542
839.221	973.59896
839.404	1030.77006
839.587	1026.11428
839.769	1053.9632
839.952	1049.15765
840.134	1085.20694
840.317	959.81338
840.499	997.94189
840.682	905.78584
840.865	1015.40512
841.047	968.08847
841.23	1029.5535
841.412	954.17097
841.595	994.99321
841.777	1005.87667
841.959	1086.22324
842.142	920.98331
842.324	966.22123
842.507	843.46229
842.689	1037.42547
842.871	969.4567
843.054	987.62581
843.236	922.88372
843.418	944.05041
843.601	946.87084
843.783	1003.06035
843.965	943.45134
844.147	998.74447
844.33	953.77068
844.512	989.97542
844.694	899.2214
844.876	1011.83909
845.059	853.1366
845.241	930.48475
845.423	895.43498
845.605	942.82349
845.787	835.66004
845.969	984.95394
846.151	932.16674
846.333	946.70948
846.515	847.3294
846.697	880.1602
846.879	895.18199
847.061	950.92751
847.243	797.48538
847.425	899.44305
847.607	867.29296
847.789	935.55166
847.971	941.12617
848.153	963.40209
848.335	848.98474
848.517	849.93265
848.699	880.2249
848.881	866.76969
849.062	830.18861
849.244	843.58195
849.426	788.65846
849.608	930.35563
849.789	782.44637
849.971	869.11265
850.153	760.10278
850.335	911.76227
850.516	845.21074
850.698	846.41116
850.88	764.79368
851.061	866.4018
851.243	809.38978
851.425	867.20044
851.606	814.88766
851.788	770.76938
851.969	712.47946
852.151	756.14102
852.333	638.48333
852.514	815.49785
852.696	689.11298
852.877	797.26288
853.059	732.06569
853.24	718.37556
853.422	602.91509
853.603	733.63772
853.784	637.97522
853.966	710.91747
854.147	647.79751
854.329	726.52699
854.51	606.01741
854.691	644.764
854.873	699.84855
855.054	728.33465
855.235	598.10343
855.416	691.44392
855.598	604.95547
855.779	659.54775
855.96	644.89869
856.141	671.84286
856.323	531.94752
856.504	598.40663
856.685	566.62085
856.866	552.77956
857.047	553.70923
857.228	589.66293
857.409	544.49593
857.591	575.33569
857.772	564.40506
857.953	502.87633
858.134	548.14339
858.315	540.59709
858.496	411.85997
858.677	462.24443
858.858	487.75873
859.039	568.24866
859.22	427.86965
859.401	549.27275
859.582	516.26554
859.762	494.34753
859.943	432.16048
860.124	513.70193
860.305	435.5936
860.486	447.57927
860.667	425.45496
860.848	463.45834
861.028	426.75686
861.209	491.14378
861.39	471.69174
861.571	462.15924
861.751	391.97858
861.932	442.74314
862.113	406.88626
862.293	461.16711
862.474	361.70295
862.655	450.38421
862.835	396.49033
863.016	492.9273
863.197	452.91247
863.377	356.3053
863.558	376.7807
863.738	462.79237
863.919	418.85748
864.099	443.37904
864.28	421.67869
864.46	365.13887
864.641	411.35711
864.821	392.41604
865.002	367.5851
865.182	466.68941
865.363	450.16724
865.543	439.09303
865.723	426.02402
865.904	380.09713
866.084	334.97266
866.264	361.68955
866.445	279.18258
866.625	399.94878
866.805	360.01082
866.986	417.91513
867.166	370.92847
867.346	339.19271
867.526	294.9351
867.707	348.93244
867.887	319.91162
868.067	397.94363
868.247	307.28514
868.427	380.87158
868.607	350.7583
868.788	319.79146
868.968	330.61152
869.148	387.94316
869.328	291.68316
869.508	329.85347
869.688	314.12439
869.868	355.19076
870.048	321.85618
870.228	328.67537
870.408	332.03659
870.588	353.29078
870.768	291.83656
870.948	277.25023
871.128	270.43934
871.307	358.82825
871.487	254.79422
871.667	250.19748
871.847	241.44187
872.027	311.90255
872.207	254.72715
872.387	305.34989
872.566	280.74173
872.746	235.90708
872.926	270.59205
873.106	298.48622
873.285	245.04084
873.465	269.40245
873.645	242.36031
873.824	253.96333
874.004	268.39543
874.184	270.46983
874.363	244.8182
874.543	265.03894
874.723	253.93446
874.902	287.25725
875.082	231.4888
875.261	195.45478
875.441	163.81678
875.62	258.20792
875.8	199.82398
875.979	275.18
876.159	185.33862
876.338	255.82614
876.518	234.86731
876.697	226.93846
876.876	200.9818
877.056	213.26005
877.235	159.37749
877.415	262.82093
877.594	259.31677
877.773	273.07663
877.953	209.83839
878.132	216.80634
878.311	200.03585
878.49	222.50824
878.67	178.63947
878.849	206.65197
879.028	244.79047
879.207	234.58346
879.387	219.04676
879.566	217.93482
879.745	214.63083
879.924	134.77818
880.103	177.54507
880.282	231.72674
880.461	277.78606
880.64	220.3089
880.819	205.67979
880.998	262.91042
881.178	141.52656
881.357	223.47641
881.536	188.88042
881.715	239.41157
881.893	142.84437
882.072	151.61177
882.251	146.08096
882.43	182.01709
882.609	131.49146
882.788	158.42461
882.967	161.85169
883.146	188.78706
883.325	206.71456
883.503	212.47821
883.682	188.93804
883.861	186.62956
884.04	185.53594
884.219	142.71363
884.397	186.64378
884.576	140.38319
884.755	157.37449
884.933	101.14039
885.112	195.76748
885.291	203.42981
885.469	161.96285
885.648	211.38112
885.827	143.88542
886.005	145.11354
886.184	164.15856
886.363	194.60035
886.541	212.59973
886.72	181.04726
886.898	6.55385
887.077	204.73803
887.255	130.43317
887.434	199.31803
887.612	200.15002
887.791	193.40426
887.969	132.64981
888.147	123.66267
888.326	128.16147
888.504	114.55488
888.682	159.61934
888.861	159.73515
889.039	119.09991
889.218	129.29476
889.396	77.4749
889.574	87.60651
889.752	157.38049
889.931	161.76562
890.109	121.44796
890.287	172.14025
890.465	103.35665
890.643	195.75999
890.822	179.97308
891	116.8759
891.178	92.12988
891.356	136.02448
891.534	163.11074
891.712	115.65567
891.89	109.03193
892.068	111.31795
892.247	120.30099
892.425	190.14008
892.603	99.98209
892.781	185.57842
892.959	167.41133
893.137	121.51315
893.314	127.11094
893.492	171.07618
893.67	102.2487
893.848	105.65196
894.026	69.6213
894.204	86.53877
894.382	121.41546
894.56	111.2372
894.738	151.83698
894.915	99.97447
895.093	133.89078
895.271	119.17719
895.449	98.87354
895.626	78.62294
895.804	124.78144
895.982	126.0013
896.16	61.82138
896.337	112.5025
896.515	161.06851
896.693	120.31479
896.87	121.42938
897.048	94.35275
897.225	86.57526
897.403	102.2448
897.581	147.34375
897.758	89.88509
897.936	48.25126
898.113	140.61878
898.291	83.17732
898.468	26.84436
898.646	139.49499
898.823	68.46791
899.001	102.29167
899.178	76.51801
899.356	117.07318
899.533	87.71722
899.71	91.00231
899.888	100.1855
900.065	12.19848
900.242	73.10428
900.42	120.40246
900.597	87.80855
900.774	83.22524
900.952	144.21726
901.129	53.97197
901.306	110.21062
901.483	55.07157
901.661	33.63725
901.838	64.0738
902.015	89.89882
902.192	75.33623
902.369	52.82219
902.546	25.74918
902.723	60.64847
902.901	30.26933
903.078	84.40285
903.255	81.05523
903.432	95.59333
903.609	41.5306
903.786	58.43342
903.963	53.92201
904.14	77.61459
904.317	82.08383
904.494	102.36226
904.671	68.56231
904.848	70.87921
905.024	82.20431
905.201	76.52097
905.378	52.76936
905.555	29.1205
905.732	49.43379
905.909	9.96328
906.086	7.69708
906.262	70.91763
906.439	37.03191
906.616	24.6229
906.793	33.6256
906.969	62.97675
907.146	22.35789
907.323	18.97201
907.5	85.50599
907.676	87.76111
907.853	69.76869
908.03	40.41164
908.206	58.40424
908.383	68.59134
908.559	64.05409
908.736	24.63051
908.912	6.57585
909.089	72.0198
909.266	12.21111
909.442	91.12448
909.619	46.05493
909.795	40.42725
909.972	59.57797
910.148	21.22856
910.324	60.76553
910.501	30.27167
910.677	62.99623
910.854	97.9526
911.03	59.55274
911.206	46.0656
911.383	43.72522
911.559	58.47853
911.735	11.08287
911.912	37.01621
912.088	29.14522
912.264	23.48201
912.44	-21.63099
912.617	7.71192
912.793	43.7806
912.969	73.14664
913.145	41.5643
913.321	103.54694
913.498	31.37137
913.674	25.75116
913.85	31.4211
914.026	-2.44359
914.202	23.49196
914.378	-13.72752
914.554	59.61712
914.73	7.70003
914.906	66.3082
915.082	73.06491
915.258	69.7579
915.434	-6.95563
915.61	75.37397
915.786	66.37983
915.962	77.65956
916.138	43.7941
916.314	-12.59801
916.49	6.57965
916.665	34.76275
916.841	43.8178
917.017	8.83963
917.193	-26.15137
917.369	70.91213
917.545	6.57787
917.72	59.62404
917.896	5.45224
918.072	61.89791
918.247	48.3331
918.423	33.69725
918.599	21.25233
918.775	-15.98039
918.95	-0.18797
919.126	22.34672
919.301	17.87844
919.477	13.34781
919.653	99.06726
919.828	26.8774
920.004	59.58487
920.179	25.74124
920.355	-90.31221
920.53	26.87429
920.706	28.0219
920.881	21.2515
921.057	-15.97299
921.232	18.99324
921.408	27.99703
921.583	31.39314
921.759	25.76012
921.934	41.54984
922.109	52.83444
922.285	56.24389
922.46	20.10718
922.635	16.72821
922.811	39.2907
922.986	34.78556
923.161	-30.65364
923.336	23.49831
923.512	37.03334
923.687	3.1975
923.862	-54.40085
924.037	-8.08092
924.212	3.19614
924.388	57.3692
924.563	53.98033
924.738	26.86704
924.913	92.34981
925.088	9.95867
925.263	18.98956
925.438	-17.10544
925.613	8.83451
925.788	9.97138
925.963	13.34987
926.138	50.58403
926.313	48.32188
926.488	54.01596
926.663	16.73661
926.838	22.35789
927.013	58.45369
927.188	30.28456
927.363	14.47495
927.538	6.57787
927.713	52.83035
927.888	25.74918
928.062	22.36996
928.237	46.04604
928.412	29.14184
928.587	33.63985
928.761	9.96136
928.936	14.47775
929.111	-0.18805
929.286	-24.99979
929.46	35.90334
929.635	77.6116
929.81	5.45161
929.984	58.49664
930.159	26.87325
930.334	11.08159
930.508	35.91861
930.683	64.10346
930.857	33.65803
931.032	-30.65364
931.206	35.93532
931.381	23.52107
931.556	-1.31641
931.73	79.94697
931.904	26.88674
932.079	-1.31641
932.253	-44.17172
932.428	23.50012
932.602	-28.38376
932.777	-8.08467
932.951	22.36737
933.125	-14.85495
933.3	48.34059
933.474	33.65543
933.648	66.40039
933.823	32.52041
933.997	41.56752
934.171	25.76909
934.345	-47.55785
934.52	9.96174
934.694	-0.18814
934.868	35.93811
935.042	33.66455
935.217	-12.60094
935.391	-17.12334
935.565	28.02733
935.739	11.10216
935.913	-12.59315
936.087	-19.35961
936.261	58.49438
936.435	7.70566
936.609	30.25882
936.783	12.22668
936.957	41.56109
937.131	-50.92668
937.305	30.26465
937.479	52.8508
937.653	3.19565
937.827	-30.65839
938.001	-29.53616
938.175	22.36564
938.349	-15.9841
938.523	-14.86416
938.697	-13.72116
938.87	18.9859
939.044	23.49559
939.218	55.10991
939.392	-8.08467
939.566	70.92313
939.739	14.47775
939.913	32.55822
940.087	-8.08217
940.261	4.32494
940.434	9.96829
940.608	-20.47671
940.782	48.36874
940.955	38.19897
941.129	6.57711
941.302	-8.08498
941.476	23.54031
941.65	49.47012
941.823	-3.57298
941.997	23.50921
942.17	22.36823
942.344	-31.78261
942.517	-9.20406
942.691	17.87081
942.864	13.36074
943.038	-5.83074
943.211	14.47607
943.385	44.94877
943.558	-0.18798
943.731	-48.65663
943.905	-1.3158
944.078	-48.73758
944.251	-0.18793
944.425	14.4901
944.598	-45.34248
944.771	51.75946
944.945	50.61148
945.118	37.07786
945.291	26.90445
945.464	24.64386
945.638	18.9903
945.811	31.42598
945.984	15.60137
946.157	18.9815
946.33	72.05328
946.503	34.78422
946.677	74.32526
946.85	6.58449
947.023	-10.33566
947.196	21.24247
947.369	44.94355
947.542	3.20023
947.715	6.57787
947.888	-34.03542
948.061	46.06738
948.234	-19.36634
948.407	-17.11868
948.58	35.91444
948.753	-32.89763
948.926	-25.03274
949.099	-3.57437
949.271	28.02515
949.444	37.04479
949.617	59.63098
949.79	13.35297
949.963	34.83015
950.136	-35.15891
950.308	-13.73018
950.481	19.00428
950.654	-17.11471
950.827	41.54823
950.999	32.55696
951.172	31.37258
951.345	30.27987
951.517	30.29279
951.69	49.46054
951.863	18.98736
952.035	-19.38588
952.208	-26.14225
952.381	55.13986
952.553	2.06941
952.726	73.15229
952.898	-39.66669
953.071	-0.18794
953.243	37.04909
953.416	-13.72752
953.588	-28.37938
953.761	15.62619
953.933	-20.49329
954.106	48.34246
954.278	-1.31514
954.45	-17.11007
954.623	67.50157
954.795	13.35919
954.967	18.9925
955.14	39.3303
955.312	38.19748
955.484	22.37341
955.657	16.7509
955.829	42.69688
956.001	-6.95456
956.173	-31.77892
956.346	28.02841
956.518	23.49377
956.69	14.48785
956.862	6.58347
957.034	-1.31535
957.207	40.44919
957.379	-13.72274
957.551	77.7047
957.723	-1.31535
957.895	-9.22295
958.067	-18.24704
958.239	-17.09162
958.411	-18.2435
958.583	-37.42813
958.755	69.74981
958.927	-25.01526
959.099	6.58398
959.271	13.33548
959.443	11.10821
959.615	22.36996
959.787	5.44971
959.959	24.63909
960.13	-3.57147
960.302	-30.65246
960.474	-4.70412
960.646	-32.90908
960.818	28.0382
960.99	35.91583
961.161	-19.38286
961.333	-40.79859
961.505	-31.7691
961.677	-30.66433
961.848	-3.57409
962.02	-17.12334
962.192	30.29279
962.363	25.76809
962.535	25.75713
962.707	-18.24209
962.878	34.81389
963.05	-19.36634
963.221	41.55305
963.393	-12.59023
963.564	-5.82803
963.736	-2.44434
963.907	37.04336
964.079	9.971
964.25	-12.59704
964.422	-31.7691
964.593	-8.08279
964.765	14.48616
964.936	-2.44368
965.108	-2.44415
965.279	-22.75383
965.45	-18.24421
965.622	6.58577
965.793	26.89506
965.964	35.92835
966.136	-32.9129
966.307	37.07498
966.478	38.18415
966.65	-5.83458
966.821	-0.18797
966.992	35.91028
967.163	-8.08404
967.334	3.19676
967.506	48.32562
967.677	72.0449
967.848	-28.39693
968.019	15.60981
968.19	3.19775
968.361	40.4712
968.532	-11.4612
968.703	-22.73715
968.874	-24.98534
969.045	-13.72752
969.216	6.5794
969.387	22.3786
969.558	-29.51103
969.729	31.41622
969.9	-10.34085
970.071	52.83648
970.242	-5.83187
970.413	16.73079
970.584	-3.57216
970.755	23.50012
970.926	64.15808
971.097	-13.72858
971.267	-22.74504
971.438	13.35142
971.609	7.71731
971.78	11.0927
971.951	3.19961
972.121	50.59186
972.292	-15.98533
972.463	-19.36186
972.633	28.03712
972.804	6.57914
972.975	2.06646
973.145	14.47831
973.316	-3.57257
973.487	33.67237
973.657	5.45667
973.828	-21.62847
973.998	13.35556
974.169	20.13599
974.339	4.32561
974.51	-9.21543
974.68	28.01215
974.851	44.93833
975.021	-10.34325
975.192	21.26222
975.362	4.32611
975.533	-10.33686
975.703	0.94055
975.874	-57.72974
976.044	-10.34646
976.214	6.58884
976.385	-9.21579
976.555	20.1196
976.725	-2.44538
976.896	19.0228
977.066	-12.60484
977.236	25.7821
977.406	40.43351
977.577	8.84203
977.747	16.7444
977.917	11.1
978.087	42.68531
978.257	-48.69228
978.427	25.7651
978.598	46.10311
978.768	-6.95859
978.938	-21.6268
979.108	24.63432
979.278	4.32461
979.448	-3.57312
979.618	-11.47717
979.788	-8.08905
979.958	5.45519
980.128	-2.445
980.298	20.12505
980.468	57.37142
980.638	-4.69794
980.808	-4.70175
980.978	-31.76787
981.148	-13.71587
981.317	24.62765
981.487	-5.83322
981.657	6.5822
981.827	-5.83187
981.997	69.7795
982.167	25.7821
982.336	39.3303
982.506	24.65823
982.676	14.46993
982.846	-52.06525
983.015	20.10099
983.185	-1.3159
983.355	-29.49625
983.524	-22.73628
983.694	-34.04201
983.864	5.45013
984.033	-74.70159
984.203	9.9679
984.372	-11.46828
984.542	-19.37159
984.712	18.9903
984.881	11.0957
985.051	-14.84864
985.22	5.45329
985.39	56.15931
985.559	-15.9841
985.728	35.90889
985.898	7.71611
986.067	32.53802
986.237	-27.25225
986.406	-2.44557
986.576	-10.35289
986.745	44.95051
986.914	37.06921
987.084	61.85
987.253	7.70715
987.422	32.5292
987.591	16.72885
987.761	13.35401
987.93	-4.70175
988.099	20.1235
988.268	-5.82938
988.438	-41.95834
988.607	47.21293
988.776	7.71072
988.945	43.84329
989.114	-11.47895
989.283	63.01575
989.452	26.89506
989.621	-27.27227
989.791	28.0295
989.96	-43.06806
990.129	-15.9841
990.298	-6.96102
990.467	44.96445
990.636	40.4539
990.805	-8.08592
990.974	13.35608
991.142	22.36996
991.311	-26.13012
991.48	-3.57174
991.649	-13.73018
991.818	3.19466
991.987	-41.93234
992.156	29.1769
992.325	11.09656
992.493	-27.2691
992.662	-230.69092
992.831	47.17643
993	-1.31585
993.168	-12.60387
993.337	47.21476
993.506	64.10593
993.675	-20.51077
993.843	-32.90526
994.012	42.70019
994.181	16.71984
994.349	6.58628
994.518	14.47272
994.686	3.20061
994.855	-4.70048
995.024	-18.23433
995.192	37.02477
995.361	-18.228
995.529	-23.89277
995.698	-10.33487
995.866	48.31068
996.035	-20.5044
996.203	21.23755
996.371	65.21754
996.54	0.94048
996.708	-11.47138
996.877	29.1633
997.045	23.51559
997.213	-17.12134
997.382	3.19812
997.55	-17.10412
997.718	-0.18791
997.887	4.32544
998.055	-21.62513
998.223	-30.65009
998.391	-15.98533
998.56	62.99379
998.728	17.86735
998.896	41.61928
999.064	2.07005
999.232	5.44866
999.401	-23.86323
999.569	49.44524
999.737	51.72331
999.905	3.19713
1000.073	79.9222
1000.241	-11.47094
1000.409	74.3166
1000.577	-18.23785
1000.745	7.71371
1000.913	26.88258
1001.081	-71.28004
1001.249	-28.41014
1001.417	-36.27369
1001.585	4.32544
1001.753	-4.70321
1001.921	33.65153
1002.089	12.22148
1002.256	8.84066
1002.424	49.45863
1002.592	-5.83074
1002.76	-13.73497
1002.928	-9.21472
1003.096	50.61148
1003.263	-1.31682
1003.431	5.45562
1003.599	-4.70193
1003.767	-8.08842
1003.934	37.05196
1004.102	-45.35481
1004.27	7.70834
1004.437	13.3442
1004.605	31.41866
1004.773	-20.51236
1004.94	25.75116
1005.108	-56.60038
1005.275	20.12974
1005.443	-3.57451
1005.61	25.74719
1005.778	-5.83096
1005.945	-3.57202
1006.113	25.76311
1006.28	15.60438
1006.448	8.83895
1006.615	-31.79493
1006.783	57.39592
1006.95	-1.31636
1007.118	11.09957
1007.285	17.87358
1007.452	-0.18808
1007.62	34.80038
1007.787	-31.78754
1007.954	6.58756
1008.122	-22.75912
1008.289	9.97061
1008.456	41.58527
1008.623	7.71671
1008.791	11.10043
1008.958	12.22858
1009.125	-3.57285
1009.292	50.5899
1009.459	7.71551
1009.627	-20.48775
1009.794	-46.46864
1009.961	3.19478
1010.128	31.44066
1010.295	-20.50758
1010.462	47.2662
1010.629	22.40033
1010.796	-17.128
1010.963	24.64386
1011.13	-17.10412
1011.297	6.58322
1011.464	-49.82703
1011.631	-6.95671
1011.798	-10.34165
1011.965	34.80038
1012.132	15.61042
1012.299	-14.86474
1012.466	-28.39583
1012.633	-2.44406
1012.799	-1.31662
1012.966	28.00674
1013.133	32.53928
1013.3	-30.67505
1013.467	-67.84095
1013.633	32.56202
1013.8	17.86113
1013.967	-17.12001
1014.134	23.49831
1014.3	2.06989
1014.467	-53.23521
1014.634	-13.72752
1014.8	20.13052
1014.967	14.47663
1015.134	14.48392
1015.3	-14.85552
1015.467	-48.68476
1015.633	-36.31442
1015.8	-15.99091
1015.966	40.421
1016.133	-28.40133
1016.3	-35.15619
1016.466	-17.124
1016.632	-9.20406
1016.799	26.89194
1016.965	-0.1879
1017.132	12.2229
1017.298	20.12505
1017.465	52.85489
1017.631	-12.59996
1017.797	66.43133
1017.964	-31.84455
1018.13	-32.87862
1018.296	43.8178
1018.463	31.41135
1018.629	3.19837
1018.795	-53.2476
1018.961	-20.50202
1019.128	-8.08123
1019.294	-14.8515
1019.46	30.28104
1019.626	4.32746
1019.792	-8.08717
1019.959	-10.34205
1020.125	74.32815
1020.291	-35.16163
1020.457	-14.85552
1020.623	-65.61116
1020.789	-28.43559
1020.955	-36.2877
1021.121	40.43664
1021.287	-25.01332
1021.453	12.22526
1021.619	32.54558
1021.785	-14.86185
1021.951	13.35297
1022.117	-4.70376
1022.283	4.32528
1022.449	73.14381
1022.615	52.85899
1022.781	-24.97958
1022.946	-3.57645
1023.112	41.59335
1023.278	-48.68664
1023.444	41.61928
1023.61	5.45245
1023.775	-0.18817
1023.941	14.48785
1024.107	11.09441
1024.273	20.11727
1024.438	-20.48459
1024.604	-54.33338
1024.77	-71.17297
1024.935	7.70923
1025.101	52.86514
1025.267	5.45266
1025.432	17.86804
1025.598	3.20073
1025.763	-19.37309
1025.929	6.5822
1026.095	23.50739
1026.26	40.44291
1026.426	7.71012
1026.591	0.93982
1026.757	13.35556
1026.922	5.45119
1027.087	-22.75295
1027.253	29.13734
1027.418	32.5292
1027.584	-20.48617
1027.749	-8.0925
1027.914	-37.43248
1028.08	24.64577
1028.245	9.96443
1028.41	17.86251
1028.576	15.60559
1028.741	-8.08373
1028.906	-19.35141
1029.072	-35.18616
1029.237	-5.83141
1029.402	-3.57298
1029.567	-13.7201
1029.732	20.13912
1029.898	-11.47227
1030.063	49.49124
1030.228	42.70847
1030.393	32.53928
1030.558	44.96096
1030.723	15.62985
1030.888	-28.40904
1031.053	33.692
1031.218	29.13284
1031.383	-9.21151
1031.548	26.89194
1031.713	-0.18803
1031.878	-0.188
1032.043	32.53172
1032.208	28.01106
1032.373	-5.82803
1032.538	-12.59899
1032.703	-11.4705
1032.868	28.01648
1033.033	13.36438
1033.198	41.58204
1033.362	-17.11669
1033.527	23.50739
1033.692	-26.13618
1033.857	0.94026
1034.021	81.06778
1034.186	20.12194
1034.351	-29.51559
1034.516	51.7153
1034.68	-8.09156
1034.845	6.58398
1035.01	26.89194
1035.174	35.92835
1035.339	5.45498
1035.504	13.35971
1035.668	-21.60428
1035.833	-0.18806
1035.997	3.19725
1036.162	78.80151
1036.326	63.04511
1036.491	-20.5044
1036.655	-29.527
1036.82	-27.25541
1036.984	-70.10958
1037.149	-70.10147
1037.313	-45.31789
1037.478	13.35297
1037.642	-2.44453
1037.807	5.4554
1037.971	11.1013
1038.135	31.40163
1038.3	5.45583
1038.464	32.54937
1038.628	19.00207
1038.792	-3.57257
1038.957	14.48279
1039.121	51.69931
1039.285	-18.24987
1039.449	-10.34485
1039.614	40.41632
1039.778	12.22858
1039.942	-18.23926
1040.106	33.68938
1040.27	-14.85495
1040.434	-50.91296
1040.599	31.39192
1040.763	-29.51787
1040.927	-18.2435
1041.091	-9.21579
1041.255	-0.18803
1041.419	74.25047
1041.583	-6.95617
1041.747	-57.69853
1041.911	-61.11574
1042.075	-13.73497
1042.239	24.65247
1042.403	9.95446
1042.567	-45.30039
1042.731	-9.21294
1042.894	-9.20654
1043.058	44.95747
1043.222	23.4974
1043.386	-49.81163
1043.55	8.83998
1043.714	38.14728
1043.877	-0.18816
1044.041	-2.44614
1044.205	-5.82916
1044.369	14.48785
1044.532	-53.26623
1044.696	-20.48934
1044.86	-5.82938
1045.023	-28.37501
1045.187	-15.99339
1045.351	-24.99786
1045.514	14.48673
1045.678	-44.18366
1045.841	-28.43448
