Data from 3_57 pm cloudy_Subt2__0__15-59-37-571.txt Node

Date: Tue Oct 07 15:59:37 EDT 2025
User: brett
Spectrometer: USB4F03499
Trigger mode: 4
Integration Time (sec): 1.000000E-2
Scans to average: 1
Electric dark correction enabled: true
Nonlinearity correction enabled: true
Boxcar width: 0
XAxis mode: Wavelengths
Number of Pixels in Spectrum: 3648
>>>>>Begin Spectral Data<<<<<
345.386	-14.20015
345.605	-14.20015
345.824	-14.20015
346.044	-6.25191
346.263	-26.18447
346.482	-17.55386
346.701	-13.29804
346.92	6.28768
347.139	-14.08822
347.358	12.21226
347.577	-14.09093
347.796	-2.89139
348.015	10.98317
348.234	-22.37175
348.453	39.96383
348.672	11.7647
348.891	3.04035
349.11	-18.22312
349.329	120.98639
349.548	195.54776
349.767	177.49727
349.986	206.28537
350.205	217.76082
350.424	199.4874
350.643	206.49372
350.862	190.80061
351.08	188.37222
351.299	189.40758
351.518	199.10664
351.737	217.14388
351.956	231.49848
352.174	246.78471
352.393	232.00684
352.612	220.63047
352.831	247.96024
353.049	220.39829
353.268	210.47632
353.487	209.54154
353.705	259.98015
353.924	215.03345
354.143	193.1687
354.361	271.07288
354.58	204.52163
354.798	267.20585
355.017	237.18748
355.236	259.42056
355.454	240.06109
355.673	239.3495
355.891	261.53729
356.11	250.99115
356.328	276.96382
356.547	252.65108
356.765	255.19664
356.984	250.95362
357.202	271.70352
357.42	272.477
357.639	260.46194
357.857	256.15602
358.076	264.6218
358.294	228.8733
358.512	275.57056
358.731	275.72239
358.949	237.80932
359.167	263.36746
359.386	280.9305
359.604	246.09476
359.822	234.36383
360.04	303.86918
360.259	257.18584
360.477	260.55923
360.695	257.43499
360.913	273.99315
361.131	265.29634
361.35	303.14099
361.568	266.43234
361.786	271.82589
362.004	271.77522
362.222	291.39798
362.44	293.40459
362.658	291.24264
362.876	235.98311
363.094	273.34169
363.312	281.10196
363.53	243.69004
363.749	311.23201
363.967	274.00285
364.184	279.10873
364.402	293.80587
364.62	304.3823
364.838	251.31751
365.056	303.50968
365.274	297.58827
365.492	298.81013
365.71	300.33167
365.928	282.29078
366.146	269.96497
366.364	318.68414
366.581	342.00746
366.799	312.87614
367.017	297.56837
367.235	344.29641
367.453	303.56612
367.67	333.55342
367.888	283.44126
368.106	358.82854
368.323	382.66101
368.541	328.95302
368.759	344.17174
368.977	348.13649
369.194	347.96023
369.412	375.4148
369.629	345.57549
369.847	337.70642
370.065	379.10881
370.282	385.19354
370.5	397.48164
370.717	370.58841
370.935	368.09616
371.152	377.68178
371.37	402.25545
371.588	368.67239
371.805	441.40092
372.022	354.14085
372.24	364.93145
372.457	478.24285
372.675	408.32197
372.892	402.09269
373.11	448.94188
373.327	405.71052
373.544	441.20671
373.762	431.79078
373.979	429.69757
374.196	448.87928
374.414	462.29889
374.631	475.72084
374.848	480.12809
375.066	460.60352
375.283	428.89684
375.5	410.50017
375.717	491.77925
375.935	454.21835
376.152	449.45875
376.369	449.93254
376.586	486.84976
376.803	462.3939
377.02	432.30378
377.238	480.13483
377.455	479.35535
377.672	436.39555
377.889	499.95582
378.106	480.71189
378.323	476.44468
378.54	468.11073
378.757	480.89403
378.974	486.80187
379.191	489.20516
379.408	457.83376
379.625	470.92554
379.842	457.48733
380.059	524.57671
380.276	512.67805
380.493	487.1092
380.71	476.58894
380.927	466.6977
381.143	526.41662
381.36	501.94967
381.577	521.76176
381.794	450.17282
382.011	514.0956
382.228	510.81269
382.444	552.68821
382.661	488.49808
382.878	518.29098
383.095	474.7135
383.311	504.62296
383.528	542.49024
383.745	503.23981
383.962	517.11745
384.178	529.83038
384.395	560.58604
384.612	551.73272
384.828	519.31566
385.045	548.42763
385.261	569.02955
385.478	565.31759
385.695	550.15824
385.911	562.51937
386.128	557.98066
386.344	574.26884
386.561	563.65904
386.777	536.3597
386.994	556.66866
387.21	549.36772
387.427	572.64391
387.643	576.75974
387.86	553.20777
388.076	513.10702
388.292	579.08188
388.509	505.44107
388.725	534.8659
388.942	497.149
389.158	602.12277
389.374	538.69064
389.591	549.48985
389.807	595.65388
390.023	553.2479
390.239	556.12922
390.456	565.55251
390.672	587.4999
390.888	576.92667
391.104	563.44493
391.321	572.89678
391.537	607.83338
391.753	601.96405
391.969	577.66264
392.185	639.86231
392.401	617.75172
392.618	626.41339
392.834	655.80644
393.05	632.59389
393.266	628.96422
393.482	647.19902
393.698	642.62745
393.914	640.6427
394.13	702.88236
394.346	661.45645
394.562	669.79801
394.778	639.87956
394.994	713.92772
395.21	683.95355
395.426	701.71331
395.642	731.33255
395.858	749.6356
396.073	728.78426
396.289	721.4362
396.505	783.51496
396.721	750.15302
396.937	799.94002
397.153	745.48287
397.369	764.87751
397.584	759.41776
397.8	822.31066
398.016	793.03016
398.232	802.09345
398.447	768.9362
398.663	789.6446
398.879	811.09974
399.094	837.87049
399.31	813.02567
399.526	778.17171
399.741	830.63697
399.957	859.83517
400.173	847.07007
400.388	915.10792
400.604	912.03791
400.82	899.21097
401.035	886.12423
401.251	955.57135
401.466	900.43866
401.682	976.11201
401.897	1012.82646
402.113	965.24406
402.328	1021.78357
402.544	1029.56416
402.759	1040.7333
402.974	1129.39614
403.19	1076.44535
403.405	1084.42666
403.621	1180.84802
403.836	1128.23506
404.051	1245.61543
404.267	1261.29474
404.482	1232.53728
404.697	1305.65889
404.913	1270.52632
405.128	1418.1546
405.343	1395.9377
405.559	1341.65108
405.774	1370.90095
405.989	1450.77523
406.204	1520.56382
406.42	1546.26302
406.635	1521.04877
406.85	1492.67633
407.065	1565.29404
407.28	1547.66099
407.495	1654.6122
407.71	1549.46244
407.926	1721.23631
408.141	1797.89779
408.356	1840.16565
408.571	1735.35393
408.786	1775.19175
409.001	1789.06101
409.216	1780.27603
409.431	1845.39477
409.646	1815.48857
409.861	1862.96989
410.076	1918.85521
410.291	1824.30185
410.506	1925.7513
410.721	1890.06238
410.936	1853.47763
411.15	1910.67373
411.365	2006.28137
411.58	2014.5233
411.795	1948.88779
412.01	2057.84778
412.225	2039.62883
412.439	1966.83333
412.654	2048.75766
412.869	2019.73372
413.084	2036.65612
413.299	2044.06217
413.513	1983.82253
413.728	2100.0884
413.943	2072.96189
414.157	2165.56815
414.372	2180.39621
414.587	2232.17046
414.801	2300.1502
415.016	2177.52805
415.231	2296.26014
415.445	2291.95072
415.66	2295.52927
415.874	2358.80906
416.089	2343.1054
416.304	2407.59925
416.518	2421.99769
416.733	2370.82008
416.947	2438.72755
417.162	2500.57065
417.376	2429.04767
417.59	2470.93936
417.805	2528.45932
418.019	2471.88748
418.234	2468.49606
418.448	2403.92843
418.663	2524.05835
418.877	2542.82521
419.091	2466.71655
419.306	2549.46524
419.52	2589.58282
419.734	2467.82466
419.949	2633.02045
420.163	2639.22358
420.377	2559.75816
420.591	2611.09733
420.806	2675.90479
421.02	2653.31596
421.234	2732.26409
421.448	2675.41445
421.663	2726.38968
421.877	2634.57535
422.091	2702.35231
422.305	2644.16485
422.519	2670.36774
422.733	2754.65782
422.947	2698.14751
423.161	2685.39194
423.376	2640.90738
423.59	2761.90474
423.804	2768.46053
424.018	2798.68777
424.232	2771.46817
424.446	2990.44114
424.66	2825.84639
424.874	2848.53836
425.088	2755.0522
425.302	2716.04969
425.515	2892.85263
425.729	2942.43719
425.943	2935.29715
426.157	2889.49807
426.371	2812.14858
426.585	2837.5578
426.799	2903.21246
427.013	3051.93543
427.226	3084.42418
427.44	2891.55597
427.654	2892.58941
427.868	2941.63935
428.081	2866.55454
428.295	2929.92477
428.509	2964.79136
428.723	2965.95665
428.936	2918.16114
429.15	2804.36402
429.364	2967.93449
429.577	2760.44367
429.791	2829.03988
430.005	3046.45005
430.218	3049.85919
430.432	2861.35628
430.645	2956.81513
430.859	2895.88683
431.073	2964.1297
431.286	2971.90903
431.5	3031.73951
431.713	2912.0736
431.927	2794.17976
432.14	2907.61936
432.354	2880.60648
432.567	2905.36532
432.781	2963.5954
432.994	2994.6944
433.207	3029.16511
433.421	3041.07538
433.634	2998.36482
433.848	3074.86484
434.061	2998.7523
434.274	2907.96311
434.488	2992.2631
434.701	2879.77267
434.914	2956.8367
435.127	3018.42251
435.341	2982.88634
435.554	3099.61858
435.767	3198.12428
435.98	3158.82829
436.194	2977.77143
436.407	2937.65843
436.62	3331.84682
436.833	3222.12516
437.046	3182.86583
437.259	3117.36345
437.473	3140.44124
437.686	3324.08294
437.899	3164.62211
438.112	3289.7588
438.325	3282.77076
438.538	3220.37409
438.751	3512.67423
438.964	3331.01807
439.177	3281.70431
439.39	3331.35488
439.603	3593.04503
439.816	3394.85912
440.029	3627.38153
440.242	3654.75939
440.455	3768.83709
440.668	3723.44379
440.881	3488.33242
441.094	3522.88109
441.306	3732.60063
441.519	3914.55281
441.732	3861.33514
441.945	3953.80065
442.158	3759.21885
442.37	3734.82347
442.583	3945.59497
442.796	4033.27057
443.009	4026.1334
443.222	3888.32265
443.434	3731.09895
443.647	4150.03528
443.86	4208.95297
444.072	4314.20679
444.285	4133.08546
444.498	4239.07807
444.71	4092.39671
444.923	4167.37326
445.136	4215.35817
445.348	4082.93574
445.561	4178.11529
445.773	4147.04334
445.986	3947.21203
446.198	4315.61098
446.411	4371.89365
446.623	4391.1602
446.836	4326.91088
447.048	4381.22798
447.261	4461.68199
447.473	4530.04338
447.686	4351.9998
447.898	4430.61218
448.11	4635.50747
448.323	4779.46536
448.535	4606.9316
448.748	4390.66131
448.96	4493.17536
449.172	4482.24863
449.385	4339.01989
449.597	4596.33718
449.809	4650.21575
450.021	4796.57592
450.234	4714.05039
450.446	4521.92713
450.658	4588.79294
450.87	4557.78994
451.083	4734.27791
451.295	4687.6762
451.507	4718.54353
451.719	4728.61898
451.931	4822.90905
452.143	4865.92606
452.356	4804.65649
452.568	4935.78147
452.78	4857.19172
452.992	4988.47353
453.204	5122.03965
453.416	4812.49907
453.628	4733.1237
453.84	4860.99978
454.052	4944.95871
454.264	5027.83083
454.476	5104.27212
454.688	5302.34546
454.9	5259.88258
455.112	4994.62215
455.324	4952.67674
455.536	5094.22493
455.747	5134.89201
455.959	5192.35949
456.171	5297.45133
456.383	5071.56773
456.595	4899.07154
456.807	5022.24055
457.018	4821.79579
457.23	5138.10896
457.442	5149.93797
457.654	5249.07354
457.865	5181.66377
458.077	5008.3775
458.289	5003.79993
458.501	5091.7408
458.712	5302.80425
458.924	5623.46498
459.136	5172.03771
459.347	5197.28048
459.559	5256.06126
459.77	5443.07295
459.982	5547.39067
460.194	5459.68594
460.405	5321.05717
460.617	5192.27765
460.828	5520.30814
461.04	5431.93743
461.251	5290.53877
461.463	5805.31618
461.674	5773.1686
461.886	5607.68536
462.097	5408.43213
462.309	5547.11267
462.52	5391.40835
462.731	5750.28496
462.943	5539.58342
463.154	5269.70037
463.366	5423.60349
463.577	5678.88058
463.788	5897.94479
464	5798.58119
464.211	5999.34297
464.422	6289.51875
464.634	6049.83274
464.845	6105.4281
465.056	6147.86668
465.267	6060.77051
465.478	5747.11129
465.69	6092.50927
465.901	6016.25553
466.112	6119.09958
466.323	6189.38185
466.534	6355.41816
466.745	6373.19126
466.957	6444.22357
467.168	6244.53318
467.379	6357.12321
467.59	6068.82815
467.801	5954.35972
468.012	6276.63009
468.223	6351.94861
468.434	6184.47391
468.645	6603.04605
468.856	6723.81744
469.067	6576.10808
469.278	6635.46397
469.489	6708.64343
469.7	6391.42202
469.911	6440.28401
470.122	6843.8904
470.333	7024.05211
470.543	6695.26216
470.754	6834.68456
470.965	6855.74165
471.176	6920.77902
471.387	7236.42111
471.598	7007.61742
471.808	6919.05088
472.019	7086.11934
472.23	7060.33857
472.441	6971.33754
472.651	7164.00839
472.862	6946.90014
473.073	7343.07448
473.283	7136.05236
473.494	7011.77442
473.705	7073.0661
473.915	7166.19168
474.126	7410.95812
474.337	7356.76999
474.547	7687.82116
474.758	7662.66028
474.968	7637.33514
475.179	7730.57578
475.389	7497.60639
475.6	7695.31247
475.81	7790.95098
476.021	7983.69506
476.231	8116.43616
476.442	8007.90923
476.652	7683.7705
476.863	8003.39333
477.073	7904.26564
477.284	8117.67733
477.494	7937.80767
477.704	8576.31877
477.915	8742.78373
478.125	8282.95349
478.335	8553.93167
478.546	8769.61393
478.756	8626.15811
478.966	8819.81773
479.177	8731.11507
479.387	8955.71121
479.597	8985.90865
479.807	8972.03129
480.018	8932.38754
480.228	9203.98145
480.438	9247.08712
480.648	9339.63464
480.858	9327.08434
481.068	9172.8981
481.279	9368.96221
481.489	9872.75869
481.699	9691.70071
481.909	9683.02211
482.119	10298.92732
482.329	10086.28848
482.539	10290.18677
482.749	9891.19696
482.959	10161.94389
483.169	10586.40573
483.379	10565.0323
483.589	10648.00943
483.799	10621.4228
484.009	10411.015
484.219	10675.90677
484.429	10750.30543
484.639	10622.45363
484.849	10916.23186
485.059	11173.82168
485.268	11176.55894
485.478	11356.4216
485.688	11085.61371
485.898	11171.78308
486.108	11311.77626
486.317	11448.73673
486.527	11395.53886
486.737	11820.17179
486.947	11716.27867
487.156	11996.47982
487.366	11879.84675
487.576	11544.57158
487.785	11655.03782
487.995	11654.76739
488.205	11827.69257
488.414	11848.92272
488.624	12054.84318
488.834	12064.4487
489.043	11996.8621
489.253	11832.16858
489.462	12117.62282
489.672	12201.78168
489.882	12335.93618
490.091	12425.82266
490.301	12225.5121
490.51	12566.67313
490.72	12477.20311
490.929	12651.90963
491.138	12814.19966
491.348	12660.92742
491.557	12684.17342
491.767	12811.53828
491.976	12801.40202
492.185	12692.20396
492.395	12833.04255
492.604	12923.76596
492.813	12955.52381
493.023	13200.14993
493.232	13158.42339
493.441	13017.94483
493.651	13272.05829
493.86	13056.26359
494.069	13492.24781
494.278	13365.23868
494.488	13310.05098
494.697	13467.14092
494.906	13366.1576
495.115	13642.76201
495.324	13524.51189
495.533	13689.5491
495.743	13812.65617
495.952	14064.24703
496.161	13946.40548
496.37	14108.54013
496.579	13996.60826
496.788	14361.94206
496.997	14310.97194
497.206	14162.00265
497.415	14232.70181
497.624	14387.98479
497.833	14442.29744
498.042	14612.70541
498.251	14876.05243
498.46	14935.45177
498.669	14779.07787
498.878	14832.95645
499.087	14880.01031
499.296	15158.72873
499.504	15158.70142
499.713	15004.84728
499.922	15185.68028
500.131	15156.80629
500.34	15120.88798
500.549	15395.55407
500.757	15118.19317
500.966	15322.88924
501.175	15398.44653
501.384	15627.73984
501.592	15392.39016
501.801	15555.3622
502.01	15521.44521
502.218	15430.15745
502.427	15629.45002
502.636	15596.39899
502.844	15680.99466
503.053	15434.4236
503.262	15674.20037
503.47	15586.52153
503.679	15725.13298
503.887	15607.06956
504.096	15884.38187
504.304	15839.14401
504.513	15761.66295
504.721	15596.10799
504.93	15706.78679
505.138	16067.61402
505.347	15874.92952
505.555	15703.72127
505.764	15874.30088
505.972	15981.91625
506.18	15772.36445
506.389	15743.56761
506.597	15845.83641
506.806	15958.4042
507.014	16090.40033
507.222	15823.38284
507.431	15755.54014
507.639	15765.69661
507.847	15994.92958
508.055	16003.24359
508.264	16005.65022
508.472	16054.26099
508.68	16023.41986
508.888	16224.34152
509.096	16148.37946
509.305	16116.62139
509.513	16095.15646
509.721	16181.59481
509.929	16200.09603
510.137	16140.77043
510.345	16184.52275
510.553	16147.33493
510.762	16287.83193
510.97	16265.3746
511.178	16337.50453
511.386	16496.93141
511.594	16540.01105
511.802	16547.13862
512.01	16480.53261
512.218	16399.69725
512.426	16589.95835
512.634	16669.41355
512.842	16587.51681
513.049	16884.35095
513.257	16629.16178
513.465	16676.44856
513.673	16840.72868
513.881	16830.69127
514.089	16876.87105
514.297	16962.07992
514.504	16943.82439
514.712	17032.35287
514.92	17029.81793
515.128	17180.67343
515.336	16978.56314
515.543	17111.91954
515.751	17294.09361
515.959	17115.43009
516.166	16869.5166
516.374	16846.86944
516.582	17283.10552
516.789	17245.81429
516.997	17198.39855
517.205	17201.91996
517.412	17094.37834
517.62	17219.98894
517.827	17209.33013
518.035	17132.66856
518.243	17259.2064
518.45	16975.17843
518.658	16950.39121
518.865	16915.78359
519.073	17047.06955
519.28	16892.13966
519.488	16989.85303
519.695	16833.35063
519.902	17020.38953
520.11	16996.7745
520.317	17036.76175
520.525	17101.1477
520.732	16668.20456
520.939	16941.93139
521.147	16778.75776
521.354	17018.84058
521.561	16884.38511
521.769	16945.91493
521.976	16910.09961
522.183	16888.90373
522.391	16867.33218
522.598	16927.57614
522.805	16843.20168
523.012	16946.99841
523.219	16945.6734
523.427	17123.38231
523.634	17037.57322
523.841	17056.14293
524.048	16786.86551
524.255	17206.09661
524.462	17219.36946
524.669	16950.48125
524.877	17204.73168
525.084	17102.48941
525.291	17125.53586
525.498	17230.02407
525.705	17321.63391
525.912	17275.85964
526.119	17191.454
526.326	17351.11975
526.533	17365.3547
526.74	17481.65068
526.947	17460.98078
527.153	17807.9205
527.36	17457.90759
527.567	17452.85639
527.774	17474.31389
527.981	17305.55722
528.188	17535.71632
528.395	17616.55789
528.602	17707.76671
528.808	17427.54465
529.015	17676.17238
529.222	17785.87611
529.429	17640.18984
529.635	17618.40059
529.842	17844.9461
530.049	17800.79897
530.256	17586.14318
530.462	18032.00067
530.669	17860.2478
530.876	17803.90642
531.082	17716.39307
531.289	17851.25745
531.495	18044.51395
531.702	17880.44034
531.909	17948.81188
532.115	18361.92776
532.322	17985.46935
532.528	18029.69001
532.735	17989.26667
532.941	18074.07535
533.148	18055.08996
533.354	17953.28772
533.561	18208.57914
533.767	17977.62278
533.974	18045.50442
534.18	18184.40642
534.387	18001.81365
534.593	18175.64164
534.799	18119.6508
535.006	18175.76479
535.212	18053.30363
535.418	18177.88054
535.625	18253.79668
535.831	18078.19424
536.037	18326.6516
536.244	18124.82143
536.45	17958.41887
536.656	18127.00343
536.862	18235.74456
537.068	18118.48622
537.275	18199.97552
537.481	18312.75828
537.687	18446.9964
537.893	18402.0714
538.099	18385.70656
538.305	18345.52089
538.512	18445.38067
538.718	18526.47403
538.924	18446.03581
539.13	18299.96426
539.336	18365.20751
539.542	18412.55419
539.748	18411.53194
539.954	18309.80504
540.16	18553.75832
540.366	18343.00938
540.572	18525.46682
540.778	18384.20669
540.984	18363.62205
541.19	18470.09228
541.396	18485.04763
541.602	18397.63012
541.807	18160.93498
542.013	18422.32498
542.219	18217.36562
542.425	18363.46636
542.631	18405.46099
542.837	18394.62507
543.042	18355.66881
543.248	18098.08303
543.454	18193.91085
543.66	18236.34983
543.865	18150.4242
544.071	18216.2843
544.277	18085.5421
544.483	18171.61204
544.688	18116.66267
544.894	18277.86236
545.1	18315.28524
545.305	18121.56973
545.511	18120.93159
545.716	18116.64681
545.922	18076.12784
546.128	18159.04274
546.333	18079.4872
546.539	18105.61487
546.744	18008.65045
546.95	18063.67266
547.155	18000.8389
547.361	18067.15371
547.566	18088.90884
547.772	18166.31254
547.977	18081.48481
548.182	17937.6459
548.388	18095.26926
548.593	17984.18581
548.799	18017.34498
549.004	17970.08676
549.209	18069.63224
549.415	18176.69364
549.62	18145.00366
549.825	18195.75066
550.031	17992.46801
550.236	18150.70699
550.441	18290.46004
550.646	18148.04107
550.852	17997.78884
551.057	17906.75293
551.262	18019.62816
551.467	18074.95391
551.672	18089.54291
551.878	18303.96634
552.083	18011.02946
552.288	18015.90335
552.493	18258.67089
552.698	18055.71066
552.903	18189.31399
553.108	18350.24765
553.313	18282.86539
553.518	18096.52103
553.723	18273.68948
553.928	18316.57088
554.133	18193.40069
554.338	18331.6616
554.543	18375.04772
554.748	18225.27517
554.953	18207.58852
555.158	18454.33086
555.363	18321.62803
555.568	18179.08901
555.773	18464.61693
555.978	18388.68031
556.182	18248.58987
556.387	18403.54227
556.592	18327.20688
556.797	18569.89838
557.002	18421.49168
557.206	18338.24993
557.411	18450.97382
557.616	18248.24194
557.821	18450.97313
558.025	18450.80185
558.23	18342.19635
558.435	18566.9438
558.64	18329.96885
558.844	18392.78806
559.049	18433.01282
559.253	18341.55792
559.458	18268.9506
559.663	18322.7009
559.867	18273.04927
560.072	18310.48854
560.276	18259.05603
560.481	18310.16203
560.685	18178.07764
560.89	18226.94073
561.094	18377.20485
561.299	18162.30731
561.503	18103.81891
561.708	18417.85826
561.912	18137.45174
562.117	18321.43697
562.321	18167.18117
562.525	18307.79462
562.73	18269.50297
562.934	18118.45793
563.139	18089.82324
563.343	18199.94182
563.547	17955.52073
563.752	18133.65999
563.956	18152.9649
564.16	18065.60375
564.364	17989.19913
564.569	18093.18602
564.773	18129.58934
564.977	18024.96626
565.181	18066.3347
565.385	17896.83809
565.59	18223.31395
565.794	17995.09657
565.998	17913.66319
566.202	17830.79785
566.406	18145.10245
566.61	18041.32851
566.814	17933.0161
567.018	17862.63232
567.222	17917.12046
567.426	17878.83941
567.63	17822.27603
567.834	17906.16501
568.038	17806.175
568.242	17780.79593
568.446	17701.58379
568.65	17609.9662
568.854	17798.59472
569.058	17900.07384
569.262	17672.79406
569.466	17819.04402
569.67	17677.4648
569.874	17813.05139
570.078	17612.93353
570.281	17569.91567
570.485	17637.4435
570.689	17617.15384
570.893	17381.80269
571.097	17597.23126
571.3	17530.93688
571.504	17578.68872
571.708	17551.97609
571.912	17580.73684
572.115	17549.89239
572.319	17183.05897
572.523	17420.12167
572.726	17249.2862
572.93	17415.26704
573.133	17438.32691
573.337	17286.59299
573.541	17312.79641
573.744	17198.31205
573.948	17312.62542
574.151	17351.53259
574.355	17288.20113
574.558	17377.65456
574.762	17370.61419
574.965	17055.04734
575.169	17287.9069
575.372	17156.75937
575.576	17069.77133
575.779	17122.82678
575.983	17106.67691
576.186	17166.08903
576.389	16993.09176
576.593	17077.02158
576.796	17046.80819
577	16864.41127
577.203	17083.36451
577.406	16859.4299
577.609	16870.8773
577.813	16843.33698
578.016	16859.76823
578.219	16829.9301
578.423	16909.66013
578.626	16893.51813
578.829	16759.8264
579.032	16827.74178
579.235	17089.46645
579.438	16815.42799
579.642	16888.0083
579.845	16754.44846
580.048	16756.71479
580.251	16745.98237
580.454	17057.42117
580.657	16569.77107
580.86	16860.25553
581.063	16644.88539
581.266	16805.81389
581.469	16660.88779
581.672	16688.99208
581.875	16633.36221
582.078	16617.68528
582.281	16563.01485
582.484	16782.69173
582.687	16771.19382
582.89	16758.18395
583.093	16671.48263
583.296	16662.67522
583.499	16718.9594
583.702	16673.96548
583.904	16672.12491
584.107	16744.26112
584.31	16752.74579
584.513	16720.89805
584.716	16721.72502
584.918	16678.22093
585.121	16796.38508
585.324	16659.01652
585.527	16557.0274
585.729	16833.2836
585.932	16841.56469
586.135	16785.20537
586.337	16800.08474
586.54	16816.33395
586.743	16809.85767
586.945	16620.75096
587.148	16603.67299
587.35	16808.55215
587.553	16675.32675
587.755	16706.83555
587.958	16652.15289
588.161	16584.3881
588.363	16657.32167
588.566	16601.60062
588.768	16520.46011
588.971	16858.20127
589.173	16712.20576
589.375	16439.47013
589.578	16664.05718
589.78	16587.48057
589.983	16282.62773
590.185	16522.98275
590.387	16295.34953
590.59	16337.70984
590.792	16063.54759
590.994	16039.06381
591.197	16065.39687
591.399	15895.40073
591.601	15873.12405
591.803	15737.16629
592.006	15661.92898
592.208	15747.15759
592.41	15655.90442
592.612	15566.48417
592.815	15456.12409
593.017	15410.76242
593.219	15310.98876
593.421	15282.74795
593.623	15282.17482
593.825	15287.49451
594.027	15095.01358
594.229	15083.57957
594.432	14975.96838
594.634	14981.70097
594.836	14850.37327
595.038	15120.85898
595.24	14644.43889
595.442	14942.68549
595.644	14813.81621
595.846	14629.19212
596.048	14688.08631
596.249	14442.8697
596.451	14483.88862
596.653	14424.29722
596.855	14386.91406
597.057	14577.50932
597.259	14389.15512
597.461	14319.55443
597.663	14410.27818
597.864	14134.93849
598.066	14337.60711
598.268	14334.73231
598.47	14480.18484
598.671	14228.24635
598.873	14236.81247
599.075	14188.7753
599.277	14347.21784
599.478	14093.4993
599.68	14309.42609
599.882	14275.86327
600.083	14215.25081
600.285	14320.44263
600.487	14270.82523
600.688	14264.46683
600.89	14212.50203
601.091	14475.37908
601.293	14333.35492
601.494	14364.54405
601.696	14408.44616
601.898	14441.10628
602.099	14558.88477
602.301	14641.6925
602.502	14635.53441
602.703	14699.80596
602.905	14536.25151
603.106	14750.45192
603.308	14673.98755
603.509	14749.00852
603.711	14569.19764
603.912	14619.95198
604.113	14666.72479
604.315	14819.48594
604.516	14748.64086
604.717	14699.3505
604.919	14872.83735
605.12	14718.79487
605.321	14932.51102
605.522	14883.64258
605.724	14849.88524
605.925	14772.36388
606.126	15123.96146
606.327	14979.47084
606.528	14962.02873
606.729	15037.33967
606.931	15213.68817
607.132	15197.52479
607.333	14892.34181
607.534	15043.73897
607.735	15305.48401
607.936	15272.31468
608.137	15165.94172
608.338	15311.76404
608.539	15226.41113
608.74	15150.98782
608.941	15218.6885
609.142	15231.46423
609.343	15205.80147
609.544	15484.04322
609.745	15316.13027
609.946	15584.37524
610.147	15272.43267
610.348	15288.92202
610.549	15297.65715
610.75	15471.1286
610.95	15262.12487
611.151	15486.97724
611.352	15352.88109
611.553	15486.26838
611.754	15421.38387
611.954	15429.36188
612.155	15310.09885
612.356	15310.50873
612.557	15309.00581
612.757	15489.47909
612.958	15325.89138
613.159	15406.80507
613.359	15227.30481
613.56	15291.39228
613.761	15367.89216
613.961	15245.14226
614.162	15265.7054
614.362	15298.83567
614.563	15244.1947
614.764	15210.98177
614.964	15385.07972
615.165	15371.20241
615.365	15344.00108
615.566	15327.92628
615.766	15357.69365
615.967	15112.00643
616.167	14988.02682
616.368	14995.55743
616.568	15051.71857
616.768	15185.77229
616.969	15169.92411
617.169	15143.34081
617.37	15142.15564
617.57	15145.81199
617.77	15056.08312
617.971	14954.33643
618.171	14968.4388
618.371	14912.11031
618.571	14888.03832
618.772	15033.50322
618.972	15024.51975
619.172	14978.61399
619.372	14689.92713
619.573	14878.90122
619.773	14706.26267
619.973	14864.70857
620.173	14706.43583
620.373	14771.10288
620.573	14852.67362
620.774	14950.952
620.974	14683.08238
621.174	14526.37243
621.374	14675.808
621.574	14864.38527
621.774	14551.34547
621.974	14752.82289
622.174	14716.34381
622.374	14724.72627
622.574	14691.32059
622.774	14681.43318
622.974	14656.92001
623.174	14827.51287
623.374	14815.9162
623.574	14746.06713
623.774	14624.7678
623.973	14734.71767
624.173	14643.59629
624.373	14732.93516
624.573	14654.19326
624.773	14466.65138
624.973	14642.76048
625.172	14545.82385
625.372	14631.3182
625.572	14635.81344
625.772	14612.19624
625.971	14496.7161
626.171	14413.72226
626.371	14633.37239
626.57	14432.95694
626.77	14473.77016
626.97	14429.31295
627.169	14536.54513
627.369	14516.13812
627.569	14470.27293
627.768	14408.21447
627.968	14533.87278
628.167	14533.22324
628.367	14463.99142
628.566	14308.60786
628.766	14403.12918
628.965	14382.32171
629.165	14473.98336
629.364	14472.70619
629.564	14316.34491
629.763	14205.6277
629.963	14255.47947
630.162	14181.51393
630.362	14130.62553
630.561	14136.8135
630.76	14007.75129
630.96	14006.72313
631.159	14013.93277
631.358	14015.33521
631.558	13943.18636
631.757	14020.07795
631.956	13895.29976
632.155	13883.00762
632.355	13824.45305
632.554	13795.35875
632.753	13810.36428
632.952	13850.07385
633.152	13774.91398
633.351	13702.07231
633.55	13802.64073
633.749	13592.83771
633.948	13685.22452
634.147	13662.87222
634.346	13531.79116
634.545	13665.96578
634.744	13621.23471
634.944	13526.08836
635.143	13582.93769
635.342	13519.54143
635.541	13500.19543
635.74	13477.08107
635.939	13438.63496
636.138	13524.55587
636.336	13410.15512
636.535	13448.89082
636.734	13428.94903
636.933	13547.57642
637.132	13372.96386
637.331	13420.5229
637.53	13372.36031
637.729	13367.21663
637.928	13424.35189
638.126	13355.76696
638.325	13301.76872
638.524	13345.49154
638.723	13377.82637
638.921	13388.39092
639.12	13456.10338
639.319	13396.31843
639.518	13496.54355
639.716	13492.38513
639.915	13347.68564
640.114	13514.07997
640.312	13371.6889
640.511	13413.95924
640.71	13379.41461
640.908	13327.58357
641.107	13403.398
641.305	13457.39885
641.504	13428.56295
641.702	13332.64293
641.901	13277.52111
642.099	13345.84939
642.298	13235.20712
642.496	13322.12036
642.695	13355.36685
642.893	13255.60236
643.092	13298.02614
643.29	13346.54285
643.489	13189.94239
643.687	13098.99386
643.885	13344.23704
644.084	13228.42487
644.282	13356.12636
644.48	13366.06773
644.679	13205.14201
644.877	13062.53152
645.075	13228.49135
645.274	13368.84265
645.472	13141.70202
645.67	13085.5191
645.868	13113.54813
646.067	13102.32858
646.265	13205.83945
646.463	13278.52624
646.661	12966.73631
646.859	13159.20801
647.057	13026.33843
647.256	12992.81044
647.454	13003.10594
647.652	13014.65469
647.85	13070.7452
648.048	13017.38585
648.246	12971.34674
648.444	12910.67391
648.642	12823.86784
648.84	12741.38715
649.038	12698.1347
649.236	12610.73967
649.434	12636.89459
649.632	12648.41665
649.83	12770.43076
650.028	12556.01528
650.226	12499.32632
650.423	12325.0497
650.621	12426.15496
650.819	12254.36443
651.017	12261.66217
651.215	12309.00965
651.413	12264.31773
651.61	12119.16026
651.808	12046.58969
652.006	12240.79492
652.204	12178.40141
652.401	12056.90341
652.599	12008.87009
652.797	12098.70247
652.995	12057.5093
653.192	11864.2073
653.39	11854.96134
653.588	11996.7787
653.785	11755.29478
653.983	11766.43999
654.18	11760.14864
654.378	11675.20739
654.576	11779.06027
654.773	11621.65149
654.971	11638.93879
655.168	11799.70185
655.366	11597.49168
655.563	11574.08856
655.761	11629.15353
655.958	11725.72452
656.156	11638.3019
656.353	11475.04809
656.55	11526.93008
656.748	11500.36575
656.945	11470.02454
657.143	11290.51437
657.34	11408.18326
657.537	11515.5618
657.735	11324.40463
657.932	11244.8798
658.129	11228.71208
658.326	11113.54038
658.524	11308.85454
658.721	11341.16781
658.918	11062.60183
659.115	10936.06152
659.313	11117.15137
659.51	10982.15842
659.707	11077.95572
659.904	11001.29495
660.101	11143.58891
660.298	11033.06181
660.496	11000.47973
660.693	11007.61186
660.89	11009.46703
661.087	10933.82102
661.284	11089.00479
661.481	11099.64749
661.678	11047.77268
661.875	11037.55991
662.072	11009.9794
662.269	11226.73466
662.466	11053.05492
662.663	11030.54536
662.86	11013.11271
663.057	11039.35618
663.254	11051.02312
663.45	11086.82568
663.647	10887.32689
663.844	11119.20663
664.041	10990.70923
664.238	11121.20338
664.435	11094.099
664.631	11007.31384
664.828	10906.91516
665.025	11152.10526
665.222	11076.72486
665.419	11028.40836
665.615	11116.49105
665.812	10987.8236
666.009	11058.74553
666.205	11131.13836
666.402	11020.77147
666.599	11101.68616
666.795	11090.73122
666.992	11225.00156
667.188	11211.19741
667.385	11227.02824
667.582	11448.3479
667.778	11184.55735
667.975	11254.6275
668.171	11190.60662
668.368	11335.17094
668.564	11243.47887
668.761	11344.88894
668.957	11301.06373
669.154	11311.43561
669.35	11189.78278
669.547	11282.20896
669.743	11347.02186
669.939	11352.46933
670.136	11266.71281
670.332	11313.86727
670.528	11414.6097
670.725	11341.83948
670.921	11468.18609
671.117	11328.43264
671.314	11455.8347
671.51	11268.45619
671.706	11464.42221
671.902	11242.4005
672.099	11450.93976
672.295	11265.39957
672.491	11394.78324
672.687	11193.98126
672.883	11373.46641
673.08	11200.23423
673.276	11275.29018
673.472	11233.37969
673.668	11345.59673
673.864	11183.00255
674.06	11252.383
674.256	11246.96604
674.452	11138.43669
674.648	11167.36059
674.844	11176.33514
675.04	11265.80657
675.236	11120.26653
675.432	11141.02853
675.628	11176.47061
675.824	10992.03449
676.02	11141.44526
676.216	11118.42317
676.412	10946.72759
676.608	10983.04712
676.804	11072.09586
676.999	11075.81846
677.195	10846.51365
677.391	11043.23302
677.587	11017.08795
677.783	10908.54036
677.978	10910.36089
678.174	10853.6221
678.37	10914.80074
678.566	10885.66089
678.761	10936.01429
678.957	10920.74909
679.153	10835.10652
679.348	11001.47671
679.544	10887.98071
679.74	10923.38758
679.935	10784.20596
680.131	10854.40542
680.327	10897.95153
680.522	10790.90718
680.718	10702.14252
680.913	10774.01879
681.109	10718.92118
681.304	10755.05281
681.5	10703.98119
681.695	10911.83978
681.891	10650.77578
682.086	10846.16768
682.282	10591.71672
682.477	10659.75795
682.672	10660.45175
682.868	10647.56073
683.063	10795.39424
683.259	10728.4809
683.454	10596.33981
683.649	10524.67713
683.845	10424.01594
684.04	10564.92037
684.235	10627.01187
684.43	10666.3001
684.626	10456.90671
684.821	10526.4099
685.016	10490.58615
685.211	10533.10496
685.407	10450.27223
685.602	10471.27131
685.797	10450.38126
685.992	10562.32261
686.187	10551.32105
686.382	10478.74506
686.577	10405.36823
686.773	10430.94898
686.968	10395.35512
687.163	10387.57584
687.358	10403.90014
687.553	10377.08503
687.748	10381.36136
687.943	10335.72096
688.138	10191.84227
688.333	10343.84327
688.528	10105.72725
688.723	10252.70369
688.918	10179.7212
689.112	10034.81181
689.307	9894.13252
689.502	9764.9845
689.697	9906.96868
689.892	9911.25084
690.087	9617.06593
690.282	9760.30727
690.476	9650.1216
690.671	9608.91682
690.866	9498.12956
691.061	9470.09771
691.255	9480.23654
691.45	9434.91941
691.645	9304.78136
691.84	9322.4525
692.034	9257.27854
692.229	9156.43041
692.424	9148.57377
692.618	9259.06917
692.813	9088.1953
693.007	8988.70641
693.202	8940.28799
693.397	9074.52076
693.591	8984.00572
693.786	8958.97971
693.98	8873.55303
694.175	8936.25834
694.369	8816.28085
694.564	8852.34722
694.758	8828.32687
694.953	8744.62345
695.147	8783.25235
695.342	8795.05359
695.536	8585.70659
695.73	8563.13073
695.925	8530.47838
696.119	8601.96481
696.313	8288.00467
696.508	8322.23442
696.702	8458.27418
696.896	8202.01058
697.091	8405.86774
697.285	8337.31663
697.479	8079.86863
697.673	8256.92697
697.868	8115.97843
698.062	8361.1541
698.256	8208.19515
698.45	8233.92719
698.644	8204.95009
698.839	8183.38661
699.033	8314.93886
699.227	8309.30701
699.421	8171.54573
699.615	8149.23626
699.809	8263.03611
700.003	8340.89034
700.197	8180.63941
700.391	8292.10422
700.585	8287.62715
700.779	8314.47051
700.973	8293.95994
701.167	8221.70205
701.361	8332.11231
701.555	8295.56026
701.749	8215.91479
701.943	8336.94518
702.137	8311.41254
702.331	8237.54856
702.525	8268.02751
702.718	8232.42455
702.912	8237.99616
703.106	8151.64798
703.3	8205.54003
703.494	8255.1778
703.687	8173.0545
703.881	8192.06368
704.075	8185.85803
704.269	8200.06905
704.462	8177.71068
704.656	8293.88895
704.85	8142.44046
705.043	8284.361
705.237	8090.54192
705.431	8313.47628
705.624	8203.44482
705.818	8292.27303
706.012	8325.9981
706.205	8230.15714
706.399	8171.94209
706.592	8263.9606
706.786	8213.44348
706.979	8230.08686
707.173	8110.68518
707.366	8268.48665
707.56	8298.03001
707.753	8201.1883
707.947	8255.74237
708.14	8235.47546
708.333	8244.73186
708.527	8206.67919
708.72	8194.59668
708.914	8331.89497
709.107	8281.72939
709.3	8212.83366
709.494	8261.62269
709.687	8143.54964
709.88	8220.79735
710.073	8226.87916
710.267	8255.8038
710.46	8208.30706
710.653	8328.21581
710.846	8231.81533
711.04	8364.41397
711.233	8320.69158
711.426	8314.66559
711.619	8331.52418
711.812	8387.92116
712.005	8526.98748
712.198	8373.68809
712.391	8374.17128
712.585	8412.90995
712.778	8373.77212
712.971	8443.96757
713.164	8470.40304
713.357	8462.82643
713.55	8399.72119
713.743	8445.82769
713.936	8485.71411
714.129	8459.3301
714.322	8377.09427
714.514	8467.51949
714.707	8366.63851
714.9	8473.77097
715.093	8425.96263
715.286	8446.72919
715.479	8511.36867
715.672	8472.31613
715.864	8590.00662
716.057	8551.44085
716.25	8451.89299
716.443	8550.24675
716.636	8583.57605
716.828	8458.65189
717.021	8513.84156
717.214	8598.90349
717.406	8715.41458
717.599	8552.85913
717.792	8461.12019
717.984	8464.93115
718.177	8481.66435
718.37	8428.11373
718.562	8447.34646
718.755	8274.16994
718.947	8253.21253
719.14	8082.59782
719.333	8138.57809
719.525	8015.91744
719.718	8004.5648
719.91	7889.49707
720.103	7910.28424
720.295	7765.4187
720.487	7756.87804
720.68	7590.83259
720.872	7549.95629
721.065	7390.2685
721.257	7379.98416
721.449	7107.98022
721.642	7263.40382
721.834	7022.67742
722.026	7106.14724
722.219	6931.16996
722.411	6882.21844
722.603	6784.67384
722.796	6714.57182
722.988	6663.31751
723.18	6610.29475
723.372	6567.48732
723.565	6499.96253
723.757	6571.11279
723.949	6572.17425
724.141	6325.64435
724.333	6321.63131
724.525	6258.41671
724.717	6226.71063
724.91	6216.46022
725.102	6112.46915
725.294	6099.98612
725.486	6099.45589
725.678	6117.59125
725.87	5988.34966
726.062	5941.59263
726.254	6014.09503
726.446	5892.75626
726.638	5921.5478
726.83	5801.52753
727.022	5847.35704
727.213	5744.26034
727.405	5775.20613
727.597	5719.1447
727.789	5792.00068
727.981	5683.86411
728.173	5682.0214
728.365	5736.48827
728.556	5657.9828
728.748	5498.36556
728.94	5635.94937
729.132	5599.85726
729.324	5503.49602
729.515	5559.14995
729.707	5467.4831
729.899	5498.94686
730.09	5483.09305
730.282	5514.62971
730.474	5620.12769
730.665	5641.28675
730.857	5555.19225
731.049	5458.2965
731.24	5489.59655
731.432	5416.35354
731.623	5573.92264
731.815	5551.9064
732.006	5532.70116
732.198	5516.96825
732.389	5608.90322
732.581	5576.53428
732.772	5574.71833
732.964	5598.34566
733.155	5496.56379
733.347	5546.25321
733.538	5489.50105
733.729	5555.15168
733.921	5534.44443
734.112	5467.04455
734.304	5680.39365
734.495	5639.86541
734.686	5705.69191
734.877	5712.44442
735.069	5614.51174
735.26	5698.81522
735.451	5763.58993
735.643	5730.46172
735.834	5765.49298
736.025	5841.54612
736.216	5893.56265
736.407	5821.68228
736.599	5894.07851
736.79	5894.71708
736.981	5924.12186
737.172	5942.73933
737.363	6161.24486
737.554	6046.5571
737.745	6062.62233
737.936	6145.50545
738.127	6259.67446
738.318	6242.44106
738.509	6329.39655
738.7	6287.21574
738.891	6376.98429
739.082	6362.61956
739.273	6417.73149
739.464	6487.97948
739.655	6506.98635
739.846	6512.39839
740.037	6549.05945
740.228	6619.78105
740.419	6560.7552
740.609	6621.12388
740.8	6756.8978
740.991	6708.56023
741.182	6777.64428
741.373	6852.40025
741.563	6890.83159
741.754	6741.97519
741.945	6937.75192
742.136	6843.63629
742.326	6967.92914
742.517	7028.54411
742.708	7088.24341
742.898	7052.4107
743.089	7045.47267
743.28	7119.56344
743.47	7096.83185
743.661	7132.67362
743.851	7214.79914
744.042	7186.50465
744.233	7327.49755
744.423	7210.11575
744.614	7196.72308
744.804	7232.04021
744.995	7335.91563
745.185	7239.02083
745.376	7299.91178
745.566	7411.18193
745.756	7450.7596
745.947	7450.35317
746.137	7474.0628
746.328	7505.96163
746.518	7472.61102
746.708	7595.7958
746.899	7588.85523
747.089	7534.33951
747.279	7550.55631
747.47	7550.55411
747.66	7610.9799
747.85	7562.02764
748.04	7698.7638
748.231	7681.5512
748.421	7676.20104
748.611	7570.38913
748.801	7654.79038
748.991	7702.69652
749.182	7742.03769
749.372	7624.72547
749.562	7811.92631
749.752	7770.18677
749.942	7695.59249
750.132	7805.08438
750.322	7764.41142
750.512	7764.16839
750.702	7850.64114
750.892	7756.29776
751.082	7810.67598
751.272	7745.67171
751.462	7839.36177
751.652	7761.55639
751.842	7765.97831
752.032	7744.6689
752.222	7796.1828
752.412	7726.56547
752.602	7851.7893
752.792	7855.54673
752.981	7951.28957
753.171	7672.73067
753.361	7758.71073
753.551	7741.71936
753.741	7698.14934
753.93	7816.17485
754.12	7796.03743
754.31	7855.1854
754.5	7741.38528
754.689	7671.87273
754.879	7751.07848
755.069	7571.00167
755.258	7718.79088
755.448	7775.16479
755.638	7634.08973
755.827	7659.76959
756.017	7740.84748
756.206	7711.64938
756.396	7706.89383
756.586	7695.39204
756.775	7690.66929
756.965	7730.48309
757.154	7541.22506
757.344	7563.71312
757.533	7535.94737
757.723	7600.58879
757.912	7614.93266
758.101	7622.17046
758.291	7604.52417
758.48	7610.75525
758.67	7633.71526
758.859	7443.1814
759.048	7609.22748
759.238	7606.52053
759.427	7508.42079
759.616	7445.22702
759.806	7478.32202
759.995	7484.70837
760.184	7521.39196
760.373	7470.87877
760.563	7471.99076
760.752	7307.31647
760.941	7396.08121
761.13	7259.89949
761.319	7326.23555
761.509	7258.83411
761.698	7161.92747
761.887	6974.3418
762.076	7006.91346
762.265	6803.41086
762.454	6850.73069
762.643	6581.77028
762.832	6552.23225
763.021	6339.19747
763.21	6309.97979
763.399	6225.12103
763.588	6216.69535
763.777	6133.71325
763.966	5873.27852
764.155	5773.48797
764.344	5697.41758
764.533	5597.38259
764.722	5533.45488
764.911	5385.02992
765.1	5387.28599
765.288	5195.149
765.477	5171.82099
765.666	4961.06828
765.855	4881.27141
766.044	4938.13173
766.232	4754.43016
766.421	4667.4802
766.61	4665.3628
766.799	4551.27847
766.987	4355.48217
767.176	4335.69719
767.365	4301.30074
767.553	4238.77801
767.742	4201.92677
767.931	4126.83984
768.119	4118.54402
768.308	4069.13603
768.497	4032.69985
768.685	3972.78291
768.874	4004.18812
769.062	3991.65041
769.251	4025.62738
769.439	3903.41014
769.628	3966.0816
769.816	3871.2773
770.005	3883.62802
770.193	3999.33559
770.382	4062.87407
770.57	3997.52884
770.758	4181.20073
770.947	4183.11221
771.135	4263.76178
771.323	4285.46751
771.512	4340.7754
771.7	4405.52827
771.888	4540.14729
772.077	4536.79102
772.265	4642.88407
772.453	4501.52174
772.642	4686.8849
772.83	4664.77671
773.018	4798.25343
773.206	4825.59956
773.394	4879.36482
773.583	5006.5886
773.771	5095.58378
773.959	5126.82553
774.147	5239.44877
774.335	5352.73923
774.523	5274.05477
774.711	5372.06272
774.899	5371.46653
775.087	5468.09649
775.275	5485.79223
775.463	5616.80338
775.651	5700.80444
775.839	5679.01399
776.027	5834.20262
776.215	5812.50767
776.403	5818.71047
776.591	5861.87165
776.779	5980.90859
776.967	5873.01876
777.155	5969.17711
777.343	6017.54455
777.531	6078.39098
777.718	6109.87028
777.906	6052.86513
778.094	6101.60234
778.282	6149.18803
778.47	6211.49198
778.657	6148.61754
778.845	6097.45387
779.033	6116.54651
779.22	6193.64334
779.408	6300.23293
779.596	6207.53021
779.783	6325.60359
779.971	6226.78964
780.159	6236.94167
780.346	6181.05978
780.534	6381.3125
780.722	6195.08466
780.909	6331.35089
781.097	6226.87858
781.284	6169.56616
781.472	6270.67652
781.659	6289.9145
781.847	6191.12434
782.034	6301.28095
782.222	6252.01797
782.409	6121.71096
782.597	6229.09422
782.784	6114.92419
782.971	6181.19575
783.159	6209.41023
783.346	6168.1983
783.533	6079.99949
783.721	6101.28736
783.908	6054.08618
784.095	6097.66725
784.283	6132.24733
784.47	6156.92464
784.657	6074.85084
784.844	5935.21498
785.032	6065.53363
785.219	6088.68538
785.406	5978.02744
785.593	6024.4097
785.78	6013.6042
785.968	6024.2339
786.155	6068.77782
786.342	5982.12777
786.529	6067.45502
786.716	6023.61112
786.903	6045.6421
787.09	5868.86142
787.277	5982.9527
787.464	5917.90927
787.651	5964.95321
787.838	5874.97302
788.025	5924.39391
788.212	5863.79197
788.399	5837.97377
788.586	5897.24654
788.773	5854.68351
788.96	5847.68422
789.147	5902.8224
789.334	5667.99856
789.521	5757.39496
789.707	5826.74723
789.894	5777.3966
790.081	5716.63151
790.268	5717.68207
790.455	5617.74377
790.641	5676.09434
790.828	5667.91509
791.015	5585.78403
791.202	5582.6326
791.388	5512.41996
791.575	5590.93062
791.762	5495.94758
791.948	5536.05914
792.135	5496.74768
792.322	5383.14546
792.508	5443.72237
792.695	5422.61113
792.881	5314.87642
793.068	5399.10252
793.254	5326.08053
793.441	5370.51585
793.627	5247.47726
793.814	5320.27776
794	5352.9846
794.187	5242.01937
794.373	5228.64953
794.56	5115.43682
794.746	5239.36231
794.933	5229.01485
795.119	5201.27927
795.305	5179.85296
795.492	5053.5416
795.678	5089.07042
795.864	5136.22159
796.051	5019.44753
796.237	5104.14808
796.423	5021.23265
796.61	5055.22156
796.796	5095.54905
796.982	5108.63115
797.168	5023.02206
797.355	4989.70212
797.541	5002.90107
797.727	5040.68923
797.913	4942.94418
798.099	5000.88006
798.285	4850.91642
798.471	4854.61081
798.658	4881.27013
798.844	4923.69495
799.03	4905.11432
799.216	4884.62774
799.402	4966.66128
799.588	4842.18879
799.774	4868.73023
799.96	4768.24471
800.146	4856.52288
800.332	4882.28264
800.518	4821.12313
800.704	4864.24465
800.89	4866.82206
801.075	4892.24321
801.261	4917.98952
801.447	4801.62489
801.633	4800.39396
801.819	4776.96598
802.005	4820.57749
802.19	4890.89839
802.376	4880.81917
802.562	4873.53818
802.748	4821.1118
802.934	4820.21628
803.119	4727.75984
803.305	4788.51878
803.491	4715.16268
803.676	4806.67202
803.862	4745.69806
804.048	4901.53046
804.233	4728.97871
804.419	4689.37093
804.605	4615.4873
804.79	4716.3006
804.976	4650.4494
805.161	4733.67893
805.347	4699.49069
805.532	4688.13182
805.718	4715.85056
805.903	4559.07355
806.089	4633.00866
806.274	4659.84605
806.46	4578.85042
806.645	4648.88648
806.831	4640.19457
807.016	4610.44008
807.201	4619.715
807.387	4555.76738
807.572	4622.26194
807.757	4663.17911
807.943	4512.82017
808.128	4617.92148
808.313	4527.9149
808.499	4634.62634
808.684	4637.09119
808.869	4669.98416
809.054	4587.76996
809.24	4646.93218
809.425	4500.93584
809.61	4620.40939
809.795	4637.8675
809.98	4641.68203
810.165	4616.20167
810.35	4537.76534
810.536	4610.58868
810.721	4522.28713
810.906	4527.73678
811.091	4655.15521
811.276	4569.12956
811.461	4512.52942
811.646	4436.59669
811.831	4557.11421
812.016	4507.97912
812.201	4464.32263
812.386	4514.55363
812.571	4547.83387
812.756	4420.47016
812.941	4482.3027
813.125	4411.23398
813.31	4411.66298
813.495	4517.3154
813.68	4336.35617
813.865	4393.90758
814.05	4319.1527
814.234	4364.52683
814.419	4307.37379
814.604	4297.07021
814.789	4278.87601
814.973	4294.91364
815.158	4231.57455
815.343	4189.82336
815.528	4223.18556
815.712	4190.90603
815.897	4167.14912
816.081	4083.91121
816.266	3918.91746
816.451	4068.16589
816.635	4006.61832
816.82	3906.34541
817.004	3931.5683
817.189	3859.30743
817.374	3854.36006
817.558	3818.714
817.743	3824.19964
817.927	3689.88749
818.111	3677.39176
818.296	3661.14357
818.48	3577.80008
818.665	3479.81264
818.849	3559.57034
819.034	3502.81868
819.218	3404.49143
819.402	3312.21803
819.587	3333.27972
819.771	3296.59221
819.955	3241.05416
820.14	3215.64847
820.324	3139.97753
820.508	3086.70038
820.692	3092.18549
820.877	3070.01273
821.061	3064.5912
821.245	2980.78217
821.429	3018.56458
821.613	2900.35894
821.798	2953.70628
821.982	2927.05148
822.166	2854.6448
822.35	2899.79096
822.534	2825.97562
822.718	2855.45168
822.902	2788.45341
823.086	2780.12179
823.27	2771.71078
823.454	2718.5113
823.638	2739.84087
823.822	2745.98477
824.006	2722.94295
824.19	2696.33226
824.374	2774.91643
824.558	2745.76871
824.742	2639.41742
824.926	2653.83369
825.11	2656.11394
825.294	2620.23442
825.477	2626.46421
825.661	2700.98928
825.845	2627.10511
826.029	2618.13071
826.213	2614.54105
826.396	2654.88983
826.58	2671.51364
826.764	2648.42123
826.948	2608.81036
827.131	2641.60839
827.315	2660.8279
827.499	2643.26324
827.682	2658.527
827.866	2587.45927
828.05	2654.61705
828.233	2624.62442
828.417	2609.11009
828.6	2747.58853
828.784	2708.14593
828.967	2768.13684
829.151	2770.18585
829.335	2611.67588
829.518	2714.79356
829.701	2610.89263
829.885	2669.07893
830.068	2644.05292
830.252	2613.06299
830.435	2719.89859
830.619	2764.2817
830.802	2653.61668
830.985	2740.27631
831.169	2602.27044
831.352	2641.53759
831.535	2703.80148
831.719	2665.98363
831.902	2680.04711
832.085	2729.12018
832.269	2633.0614
832.452	2689.68844
832.635	2636.35431
832.818	2592.67992
833.002	2622.15022
833.185	2699.37854
833.368	2651.78431
833.551	2670.44502
833.734	2638.05656
833.917	2625.7215
834.1	2724.8232
834.284	2575.11828
834.467	2654.14834
834.65	2650.14678
834.833	2650.11889
835.016	2745.41237
835.199	2530.29086
835.382	2706.15171
835.565	2660.49936
835.748	2589.59783
835.931	2571.76781
836.114	2711.09985
836.297	2587.34999
836.479	2655.09294
836.662	2586.33352
836.845	2694.61003
837.028	2583.84425
837.211	2600.05319
837.394	2617.63381
837.577	2673.89044
837.759	2602.07098
837.942	2684.17849
838.125	2640.38334
838.308	2633.58016
838.49	2685.01432
838.673	2703.87939
838.856	2581.2339
839.039	2749.3301
839.221	2615.47207
839.404	2705.99577
839.587	2705.3825
839.769	2741.86829
839.952	2624.82149
840.134	2661.91207
840.317	2625.94039
840.499	2701.20868
840.682	2626.53553
840.865	2652.99402
841.047	2636.03634
841.23	2628.53003
841.412	2751.5824
841.595	2655.58236
841.777	2703.06706
841.959	2731.63942
842.142	2678.02287
842.324	2796.14533
842.507	2716.2839
842.689	2690.79678
842.871	2753.89333
843.054	2735.93555
843.236	2751.43083
843.418	2781.72098
843.601	2774.31285
843.783	2757.08647
843.965	2760.39153
844.147	2792.70802
844.33	2741.99721
844.512	2799.26351
844.694	2780.48998
844.876	2899.49893
845.059	2790.1967
845.241	2824.95422
845.423	2803.27696
845.605	2824.40876
845.787	2731.49227
845.969	2843.63843
846.151	2770.75021
846.333	2806.66684
846.515	2802.76602
846.697	2830.47078
846.879	2812.26224
847.061	2810.98268
847.243	2824.5984
847.425	2812.1172
847.607	2785.30505
847.789	2801.61476
847.971	2771.77127
848.153	2814.54754
848.335	2723.56964
848.517	2809.43223
848.699	2768.8568
848.881	2752.91886
849.062	2792.34215
849.244	2816.62398
849.426	2754.11109
849.608	2754.36793
849.789	2806.49039
849.971	2691.27114
850.153	2803.54865
850.335	2782.34539
850.516	2850.30404
850.698	2720.91733
850.88	2766.3389
851.061	2724.77816
851.243	2711.69327
851.425	2689.50812
851.606	2704.11765
851.788	2760.23326
851.969	2654.35142
852.151	2684.02334
852.333	2684.79868
852.514	2734.92822
852.696	2724.05088
852.877	2736.35938
853.059	2720.41567
853.24	2698.72651
853.422	2688.11227
853.603	2671.81472
853.784	2676.86111
853.966	2663.37446
854.147	2633.05595
854.329	2684.62597
854.51	2585.60104
854.691	2685.42633
854.873	2578.92469
855.054	2592.22656
855.235	2663.2433
855.416	2608.66644
855.598	2564.01033
855.779	2568.41037
855.96	2556.96267
856.141	2621.45297
856.323	2541.48205
856.504	2531.07054
856.685	2476.71817
856.866	2524.72491
857.047	2452.01841
857.228	2458.336
857.409	2461.73777
857.591	2449.11578
857.772	2387.10427
857.953	2469.12357
858.134	2376.75543
858.315	2435.23237
858.496	2409.58721
858.677	2381.18259
858.858	2436.53556
859.039	2354.23347
859.22	2368.33984
859.401	2328.96257
859.582	2337.71973
859.762	2339.3852
859.943	2373.39455
860.124	2305.19725
860.305	2375.26431
860.486	2400.59285
860.667	2286.08756
860.848	2356.31019
861.028	2309.41226
861.209	2335.43954
861.39	2279.31973
861.571	2318.58083
861.751	2336.06915
861.932	2350.73903
862.113	2320.44112
862.293	2353.25879
862.474	2299.13342
862.655	2322.54009
862.835	2319.98097
863.016	2324.87623
863.197	2278.67566
863.377	2279.4491
863.558	2240.6335
863.738	2340.41813
863.919	2220.53798
864.099	2322.66905
864.28	2305.07418
864.46	2327.64881
864.641	2340.28071
864.821	2272.70574
865.002	2208.81377
865.182	2285.38979
865.363	2256.93107
865.543	2316.83642
865.723	2273.98034
865.904	2287.91377
866.084	2312.78903
866.264	2239.69054
866.445	2221.18689
866.625	2238.55103
866.805	2259.56244
866.986	2204.80619
867.166	2255.98261
867.346	2231.1211
867.526	2218.39054
867.707	2135.7645
867.887	2212.81912
868.067	2181.36134
868.247	2216.98151
868.427	2202.07561
868.607	2191.82818
868.788	2211.02858
868.968	2247.8416
869.148	2228.35357
869.328	2201.4261
869.508	2120.53782
869.688	2140.23027
869.868	2118.44795
870.048	2119.80179
870.228	2136.31546
870.408	2101.78488
870.588	2091.99713
870.768	2117.38976
870.948	2066.64706
871.128	2006.05849
871.307	2140.70801
871.487	2030.24293
871.667	2042.04785
871.847	1970.62389
872.027	2084.85606
872.207	2010.49524
872.387	2022.11986
872.566	2047.27839
872.746	2105.10266
872.926	2019.99347
873.106	2018.38155
873.285	2074.92849
873.465	1974.50128
873.645	1929.04746
873.824	1978.30692
874.004	1986.52004
874.184	1974.0314
874.363	1983.37493
874.543	1996.13502
874.723	1915.10189
874.902	1963.52614
875.082	1978.97856
875.261	1933.04135
875.441	1943.46264
875.62	1944.46022
875.8	1880.11231
875.979	1966.93876
876.159	1873.07923
876.338	1912.69999
876.518	1969.88048
876.697	2001.75625
876.876	1943.02456
877.056	1914.03478
877.235	1907.55548
877.415	1972.39697
877.594	1885.61622
877.773	1961.5834
877.953	1917.6593
878.132	1886.94571
878.311	1866.46976
878.49	1888.30241
878.67	1903.93558
878.849	1928.46417
879.028	1851.11253
879.207	1932.06802
879.387	1850.32453
879.566	1857.27796
879.745	1852.79097
879.924	1867.98932
880.103	1834.43001
880.282	1840.52318
880.461	1843.64791
880.64	1866.80549
880.819	1779.88769
880.998	1825.37696
881.178	1804.47172
881.357	1817.85203
881.536	1796.37661
881.715	1836.0507
881.893	1713.45556
882.072	1825.99062
882.251	1808.63403
882.43	1823.92576
882.609	1808.12581
882.788	1828.4564
882.967	1827.32978
883.146	1758.12781
883.325	1754.82513
883.503	1721.29661
883.682	1734.0643
883.861	1761.70728
884.04	1702.44285
884.219	1771.05028
884.397	1709.41549
884.576	1708.40815
884.755	1683.7524
884.933	1726.56081
885.112	1683.03435
885.291	1788.44083
885.469	1709.58451
885.648	1702.70336
885.827	1663.79803
886.005	1710.04152
886.184	1620.51933
886.363	1696.6315
886.541	1662.82546
886.72	1644.88536
886.898	1725.40133
887.077	1699.94083
887.255	1695.51785
887.434	1640.00215
887.612	1651.02081
887.791	1686.72363
887.969	1670.65163
888.147	1631.0563
888.326	1653.67506
888.504	1680.02147
888.682	1709.98679
888.861	1605.29235
889.039	1670.64266
889.218	1613.18772
889.396	1654.8098
889.574	1627.23199
889.752	1636.62622
889.931	1583.71083
890.109	1628.34422
890.287	1624.13771
890.465	1644.87967
890.643	1643.64847
890.822	1557.23714
891	1644.60269
891.178	1581.10045
891.356	1608.0616
891.534	1589.59008
891.712	1639.47306
891.89	1609.47972
892.068	1594.10075
892.247	1600.89964
892.425	1612.98647
892.603	1531.75506
892.781	1586.74829
892.959	1526.69295
893.137	1546.12259
893.314	1602.20232
893.492	1588.71248
893.67	1586.13703
893.848	1598.97268
894.026	1601.39908
894.204	1535.97803
894.382	1570.14643
894.56	1620.01455
894.738	1565.85344
894.915	1545.23838
895.093	1585.10499
895.271	1506.31207
895.449	1552.00737
895.626	1505.18915
895.804	1519.8423
895.982	1489.33977
896.16	1507.43107
896.337	1461.51901
896.515	1494.45293
896.693	1481.15665
896.87	1444.0441
897.048	1434.68833
897.225	1448.44152
897.403	1393.8186
897.581	1423.65717
897.758	1419.43278
897.936	1425.98429
898.113	1333.95375
898.291	1409.57605
898.468	1328.24365
898.646	1333.68091
898.823	1366.22083
899.001	1348.7473
899.178	1320.94432
899.356	1295.43166
899.533	1228.60044
899.71	1261.00514
899.888	1244.72015
900.065	1234.50639
900.242	1198.14867
900.42	1153.23615
900.597	1174.98814
900.774	1159.2884
900.952	1119.85702
901.129	1144.47388
901.306	1057.44298
901.483	1084.61388
901.661	1051.88078
901.838	1045.11096
902.015	1038.08639
902.192	1012.1416
902.369	1010.25238
902.546	961.54173
902.723	930.70667
902.901	956.09776
903.078	932.27311
903.255	926.9843
903.432	873.13493
903.609	898.81242
903.786	911.15916
903.963	894.44829
904.14	891.13538
904.317	799.57606
904.494	808.08017
904.671	859.34468
904.848	820.42988
905.024	774.4493
905.201	821.17422
905.378	799.04386
905.555	818.0549
905.732	819.57422
905.909	821.02936
906.086	815.62816
906.262	798.87826
906.439	791.12782
906.616	867.88477
906.793	793.198
906.969	761.98367
907.146	788.02199
907.323	765.29801
907.5	797.47739
907.676	778.00293
907.853	771.82104
908.03	781.41855
908.206	801.50817
908.383	813.41598
908.559	826.8168
908.736	846.8381
908.912	775.73313
909.089	837.35213
909.266	802.87193
909.442	873.87797
909.619	821.61803
909.795	882.84042
909.972	834.88419
910.148	768.95746
910.324	835.20176
910.501	808.63762
910.677	820.66846
910.854	840.6807
911.03	858.93981
911.206	828.19418
911.383	758.04825
911.559	815.60564
911.735	815.03421
911.912	828.07254
912.088	840.06188
912.264	779.20992
912.44	867.87494
912.617	797.17111
912.793	837.76444
912.969	809.70679
913.145	738.62936
913.321	775.89816
913.498	752.39067
913.674	759.47156
913.85	792.75043
914.026	724.67805
914.202	751.51686
914.378	723.6443
914.554	731.68407
914.73	696.75298
914.906	697.9963
915.082	687.18869
915.258	693.96685
915.434	642.41344
915.61	697.18805
915.786	652.34759
915.962	677.44751
916.138	616.8351
916.314	635.92267
916.49	596.05852
916.665	640.8665
916.841	689.06673
917.017	596.97082
917.193	651.08814
917.369	648.80364
917.545	657.89156
917.72	498.35295
917.896	592.21783
918.072	586.48266
918.247	585.60842
918.423	580.4602
918.599	590.26708
918.775	565.88676
918.95	587.58072
919.126	558.74528
919.301	549.099
919.477	522.27961
919.653	563.54711
919.828	523.88391
920.004	566.9239
920.179	550.5537
920.355	581.56587
920.53	501.28043
920.706	550.81741
920.881	574.33923
921.057	527.20545
921.232	570.79655
921.408	561.50186
921.583	517.32248
921.759	570.87011
921.934	558.77637
922.109	575.88524
922.285	545.49229
922.46	519.95054
922.635	564.41148
922.811	591.46611
922.986	593.58725
923.161	530.86041
923.336	588.53995
923.512	565.76401
923.687	574.59192
923.862	553.60695
924.037	565.41865
924.212	558.9071
924.388	564.79784
924.563	554.58247
924.738	568.91764
924.913	616.13855
925.088	566.17206
925.263	548.53444
925.438	552.92378
925.613	589.84606
925.788	594.52555
925.963	596.097
926.138	634.31455
926.313	587.10595
926.488	588.62072
926.663	562.67193
926.838	612.60364
927.013	582.85914
927.188	606.86988
927.363	622.18421
927.538	595.92517
927.713	536.06815
927.888	646.01839
928.062	611.61673
928.237	596.32083
928.412	582.38374
928.587	636.505
928.761	621.57987
928.936	593.20869
929.111	573.05455
929.286	610.63141
929.46	578.83706
929.635	593.23504
929.81	534.27202
929.984	589.39839
930.159	601.82706
930.334	577.92069
930.508	536.58355
930.683	547.05939
930.857	511.20456
931.032	485.59459
931.206	534.51077
931.381	535.91201
931.556	509.93591
931.73	492.79493
931.904	514.54326
932.079	490.10047
932.253	465.07967
932.428	454.37566
932.602	460.10045
932.777	395.83245
932.951	426.01861
933.125	409.43271
933.3	427.87398
933.474	362.27184
933.648	395.18016
933.823	363.81208
933.997	363.09141
934.171	331.18966
934.345	322.33568
934.52	323.57864
934.694	326.78517
934.868	325.59638
935.042	322.82727
935.217	301.27171
935.391	268.66092
935.565	238.51246
935.739	287.29959
935.913	273.10773
936.087	245.46923
936.261	211.01329
936.435	235.95661
936.609	188.98843
936.783	234.6842
936.957	222.27637
937.131	204.91119
937.305	199.59124
937.479	147.50299
937.653	187.0649
937.827	170.20974
938.001	123.0711
938.175	145.54531
938.349	156.85294
938.523	99.66895
938.697	121.29458
938.87	127.2994
939.044	145.27554
939.218	112.95871
939.392	79.25758
939.566	107.69454
939.739	114.29318
939.913	102.92221
940.087	129.79061
940.261	77.82646
940.434	94.08492
940.608	111.17216
940.782	90.06032
940.955	111.31792
941.129	75.45279
941.302	81.50213
941.476	66.97014
941.65	74.58318
941.823	115.72188
941.997	82.80122
942.17	103.58591
942.344	79.2606
942.517	70.53236
942.691	62.39686
942.864	94.22188
943.038	94.34817
943.211	84.62667
943.385	98.9044
943.558	166.99563
943.731	83.14316
943.905	40.93866
944.078	73.90877
944.251	116.8365
944.425	113.87577
944.598	58.93016
944.771	95.5978
944.945	92.09884
945.118	62.59684
945.291	67.29815
945.464	103.02239
945.638	72.77289
945.811	122.08254
945.984	113.49681
946.157	71.65667
946.33	110.1816
946.503	64.19234
946.677	75.0052
946.85	69.32278
947.023	80.47333
947.196	87.83603
947.369	126.92397
947.542	101.46334
947.715	113.72926
947.888	88.8431
948.061	125.66865
948.234	85.71337
948.407	115.61875
948.58	95.21838
948.753	85.52212
948.926	69.97295
949.099	84.17575
949.271	102.89876
949.444	81.44638
949.617	94.10279
949.79	78.92184
949.963	89.31787
950.136	111.11738
950.308	61.1729
950.481	71.24983
950.654	91.27377
950.827	82.05866
950.999	77.46113
951.172	88.6564
951.345	74.68088
951.517	131.10397
951.69	66.76161
951.863	77.23146
952.035	86.85542
952.208	71.09719
952.381	90.42003
952.553	89.16863
952.726	86.54932
952.898	119.64329
953.071	61.0703
953.243	66.72602
953.416	76.60097
953.588	74.67235
953.761	85.50259
953.933	94.33022
954.106	72.54082
954.278	111.25875
954.45	70.32733
954.623	70.45537
954.795	49.32346
954.967	96.44951
955.14	59.62888
955.312	57.58521
955.484	76.43664
955.657	87.83269
955.829	77.92059
956.001	93.39582
956.173	65.94549
956.346	56.35874
956.518	80.25565
956.69	93.648
956.862	119.43757
957.034	57.02576
957.207	107.58264
957.379	87.63557
957.551	66.84806
957.723	36.81058
957.895	58.37957
958.067	78.46226
958.239	65.87125
958.411	51.78331
958.583	77.03114
958.755	103.79398
958.927	107.92654
959.099	74.79279
959.271	117.86153
959.443	77.6938
959.615	123.211
959.787	91.87499
959.959	115.07229
960.13	104.92101
960.302	81.02666
960.474	95.51424
960.646	68.75012
960.818	98.10603
960.99	116.65696
961.161	76.13578
961.333	109.37728
961.505	98.20675
961.677	94.52174
961.848	77.33747
962.02	79.48141
962.192	67.41261
962.363	97.20713
962.535	91.96943
962.707	46.42669
962.878	113.19116
963.05	121.77913
963.221	82.1612
963.393	71.86133
963.564	80.35533
963.736	93.95875
963.907	143.74125
964.079	80.35533
964.25	119.60702
964.422	121.15974
964.593	42.83908
964.765	134.54781
964.936	93.94806
965.108	137.06158
965.279	111.16372
965.45	91.53574
965.622	80.26481
965.793	93.21455
965.964	95.55777
966.136	110.97361
966.307	119.08368
966.478	114.16394
966.65	107.81463
966.821	82.9541
966.992	101.25875
967.163	104.89712
967.334	129.34291
967.506	78.98871
967.677	106.12796
967.848	80.48558
968.019	142.73375
968.19	112.97158
968.361	82.48753
968.532	114.60722
968.703	134.1053
968.874	80.49171
969.045	129.09461
969.216	133.22018
969.387	68.19847
969.558	166.53533
969.729	131.09901
969.9	102.15815
970.071	130.88511
970.242	125.31862
970.413	133.14862
970.584	118.49714
970.755	152.52858
970.926	129.80045
971.097	129.46465
971.267	93.62667
971.438	124.86623
971.609	106.2802
971.78	156.70551
971.951	120.55698
972.121	120.13465
972.292	119.50419
972.463	111.95564
972.633	132.78261
972.804	98.40441
972.975	138.55547
973.145	170.75648
973.316	169.04883
973.487	129.06531
973.657	126.65682
973.828	148.83488
973.998	126.76874
974.169	152.41665
974.339	181.9092
974.51	199.92686
974.68	138.67261
974.851	147.92833
975.021	155.75727
975.192	163.32057
975.362	170.20974
975.533	163.94885
975.703	217.71989
975.874	155.10974
976.044	204.18919
976.214	181.26495
976.385	205.77567
976.555	205.57502
976.725	175.06219
976.896	177.99175
977.066	174.54876
977.236	186.89738
977.406	144.52754
977.577	162.19515
977.747	213.69032
977.917	168.9786
978.087	202.14361
978.257	205.21612
978.427	132.28993
978.598	166.90123
978.768	152.94742
978.938	191.46499
979.108	201.47203
979.278	153.61313
979.448	151.81106
979.618	163.53208
979.788	136.33309
979.958	142.12026
980.128	164.43991
980.298	160.9701
980.468	165.40364
980.638	201.398
980.808	169.96666
980.978	171.9276
981.148	183.9033
981.317	161.13922
981.487	126.10681
981.657	139.90884
981.827	195.24876
981.997	153.13466
982.167	142.72834
982.336	147.16721
982.506	149.34936
982.676	168.72931
982.846	124.7496
983.015	145.37646
983.185	136.98896
983.355	152.39936
983.524	143.27719
983.694	150.61432
983.864	145.02974
984.033	136.26761
984.203	163.86167
984.372	141.01197
984.542	118.62251
984.712	144.49753
984.881	156.85887
985.051	156.71143
985.22	169.57661
985.39	120.07732
985.559	132.53371
985.728	184.56097
985.898	167.84044
986.067	137.01487
986.237	154.31964
986.406	187.56893
986.576	131.95432
986.745	168.41901
986.914	178.15743
987.084	143.56954
987.253	155.44499
987.422	189.90518
987.591	157.64238
987.761	156.66464
987.93	192.68172
988.099	192.43615
988.268	191.15081
988.438	137.4002
988.607	168.13404
988.776	165.76439
988.945	118.25992
989.114	192.14381
989.283	166.39829
989.452	158.62581
989.621	164.99337
989.791	194.33139
989.96	155.82799
990.129	192.05709
990.298	152.84128
990.467	134.00354
990.636	147.9619
990.805	182.74272
990.974	162.58008
991.142	144.68855
991.311	188.17113
991.48	197.11454
991.649	156.82333
991.818	163.53826
991.987	170.91355
992.156	170.12639
992.325	174.21299
992.493	163.55062
992.662	225.26124
992.831	185.48453
993	149.64552
993.168	195.22671
993.337	171.01258
993.506	142.0191
993.675	124.89938
993.843	193.90562
994.012	153.41829
994.181	172.50169
994.349	147.15052
994.518	189.70992
994.686	158.94956
994.855	141.83822
995.024	135.59084
995.192	181.39314
995.361	171.52051
995.529	139.05041
995.698	183.34365
995.866	167.05713
996.035	147.41947
996.203	176.10909
996.371	148.21928
996.54	150.37911
996.708	191.65278
996.877	201.15895
997.045	165.24221
997.213	169.51263
997.382	144.21371
997.55	142.22141
997.718	135.65656
997.887	199.27854
998.055	167.09495
998.223	210.39603
998.391	196.18236
998.56	163.53826
998.728	99.52683
998.896	130.44241
999.064	135.96273
999.232	166.10018
999.401	181.44095
999.569	129.50793
999.737	124.84733
999.905	163.41399
1000.073	134.31894
1000.241	144.68855
1000.409	139.24792
1000.577	162.20128
1000.745	164.09171
1000.913	172.79063
1001.081	140.23397
1001.249	163.96122
1001.417	141.52871
1001.585	150.56314
1001.753	135.71821
1001.921	149.15374
1002.089	141.34233
1002.256	178.88038
1002.424	130.29599
1002.592	137.08531
1002.76	147.4078
1002.928	137.43133
1003.096	127.91701
1003.263	126.6089
1003.431	148.24726
1003.599	151.4868
1003.767	136.6843
1003.934	163.28975
1004.102	128.30644
1004.27	153.88499
1004.437	156.90564
1004.605	166.53533
1004.773	175.20049
1004.94	134.03907
1005.108	136.28311
1005.275	114.12934
1005.443	130.19395
1005.61	145.61683
1005.778	147.60375
1005.945	142.34944
1006.113	138.26686
1006.28	171.18479
1006.448	140.14327
1006.615	116.82765
1006.783	138.34737
1006.95	110.40967
1007.118	141.17729
1007.285	165.06791
1007.452	155.68068
1007.62	105.67236
1007.787	122.56272
1007.954	150.41156
1008.122	127.73247
1008.289	149.59574
1008.456	121.18268
1008.623	121.20105
1008.791	134.92948
1008.958	119.38325
1009.125	108.03435
1009.292	110.48385
1009.459	123.06644
1009.627	153.21761
1009.794	120.73964
1009.961	108.58154
1010.128	127.73247
1010.295	119.96541
1010.462	128.20425
1010.629	106.16019
1010.796	139.28484
1010.963	79.36043
1011.13	137.8841
1011.297	87.2998
1011.464	130.10175
1011.631	133.36744
1011.798	124.54467
1011.965	115.70873
1012.132	122.05942
1012.299	135.92149
1012.466	103.4622
1012.633	132.69583
1012.799	85.27878
1012.966	133.24541
1013.133	130.37992
1013.3	107.06786
1013.467	97.11367
1013.633	128.90009
1013.8	116.32554
1013.967	84.53729
1014.134	103.65848
1014.3	87.29648
1014.467	123.00115
1014.634	92.85407
1014.8	127.87822
1014.967	72.20242
1015.134	96.55042
1015.3	65.39114
1015.467	113.04919
1015.633	128.21396
1015.8	116.1739
1015.966	126.5497
1016.133	118.87337
1016.3	73.99252
1016.466	100.67611
1016.632	100.79185
1016.799	93.09555
1016.965	123.63527
1017.132	94.77071
1017.298	129.89269
1017.465	73.92004
1017.631	95.55777
1017.797	92.86466
1017.964	118.04957
1018.13	73.77717
1018.296	88.72109
1018.463	112.07608
1018.629	99.69546
1018.795	18.81389
1018.961	98.78122
1019.128	78.81593
1019.294	107.79827
1019.46	77.82053
1019.626	101.46334
1019.792	108.1709
1019.959	99.32192
1020.125	104.2614
1020.291	90.40628
1020.457	112.4247
1020.623	85.94695
1020.789	98.32238
1020.955	60.17255
1021.121	57.35924
1021.287	124.31141
1021.453	94.77431
1021.619	82.71449
1021.785	101.45564
1021.951	77.44641
1022.117	82.83586
1022.283	97.43832
1022.449	77.79683
1022.615	56.36734
1022.781	50.19377
1022.946	72.42893
1023.112	82.85796
1023.278	36.01903
1023.444	83.7185
1023.61	77.6085
1023.775	89.97579
1023.941	75.20611
1024.107	70.00227
1024.273	50.67592
1024.438	101.05796
1024.604	68.55769
1024.77	105.53249
1024.935	56.45343
1025.101	57.7081
1025.267	35.58106
1025.432	47.43033
1025.598	74.36782
1025.763	85.21556
1025.929	64.86389
1026.095	53.45984
1026.26	52.45073
1026.426	57.16382
1026.591	72.99946
1026.757	109.84579
1026.922	29.43849
1027.087	66.07999
1027.253	63.41131
1027.418	67.67252
1027.584	83.82085
1027.749	76.8073
1027.914	57.93192
1028.08	89.60938
1028.245	52.22494
1028.41	94.11711
1028.576	27.85995
1028.741	75.11709
1028.906	50.77234
1029.072	91.44122
1029.237	107.37514
1029.402	37.37008
1029.567	51.55361
1029.732	48.98964
1029.898	99.90794
1030.063	89.76561
1030.228	79.49352
1030.393	95.34843
1030.558	52.33085
1030.723	49.2266
1030.888	79.60545
1031.053	75.49018
1031.218	30.64854
1031.383	49.77865
1031.548	54.12715
1031.713	80.49784
1031.878	48.09813
1032.043	76.25642
1032.208	69.64525
1032.373	85.07439
1032.538	79.6931
1032.703	66.75906
1032.868	62.19203
1033.033	99.96121
1033.198	92.56415
1033.362	75.68235
1033.527	45.7622
1033.692	32.33492
1033.857	62.50162
1034.021	52.10908
1034.186	54.7138
1034.351	38.48471
1034.516	46.76244
1034.68	64.39655
1034.845	45.42468
1035.01	60.82787
1035.174	67.88606
1035.339	77.2491
1035.504	55.03284
1035.668	51.22967
1035.833	60.9607
1035.997	40.73825
1036.162	69.31749
1036.326	58.25877
1036.491	40.17238
1036.655	44.75827
1036.82	47.89079
1036.984	59.15396
1037.149	31.89714
1037.313	65.30911
1037.478	60.38258
1037.642	31.89714
1037.807	64.64991
1037.971	25.74638
1038.135	49.32722
1038.3	42.63648
1038.464	43.3985
1038.628	56.3523
1038.792	39.71102
1038.957	46.19052
1039.121	81.81301
1039.285	51.56344
1039.449	23.50829
1039.614	72.43996
1039.778	71.23351
1039.942	60.15191
1040.106	39.61579
1040.27	11.31845
1040.434	80.72478
1040.599	75.80869
1040.763	44.62758
1040.927	22.72412
1041.091	66.4309
1041.255	33.91169
1041.419	24.73543
1041.583	58.47365
1041.747	79.03676
1041.911	8.74853
1042.075	66.20451
1042.239	51.33375
1042.403	55.38343
1042.567	15.00796
1042.731	81.3902
1042.894	71.77677
1043.058	16.24562
1043.222	33.68012
1043.386	65.30164
1043.55	18.0312
1043.714	79.84453
1043.877	55.38131
1044.041	63.51839
1044.205	39.83508
1044.369	39.39042
1044.532	45.65377
1044.696	51.23163
1044.86	39.39042
1045.023	11.20912
1045.187	55.12794
1045.351	37.14628
1045.514	58.39518
1045.678	54.90207
1045.841	24.29625
