Data from 4_51 _Subt2__0__16-51-23-322.txt Node

Date: Tue Oct 07 16:51:23 EDT 2025
User: brett
Spectrometer: USB4F03499
Trigger mode: 4
Integration Time (sec): 2.970000E-3
Scans to average: 5
Electric dark correction enabled: true
Nonlinearity correction enabled: true
Boxcar width: 0
XAxis mode: Wavelengths
Number of Pixels in Spectrum: 3648
>>>>>Begin Spectral Data<<<<<
345.386	25.66453
345.605	25.66453
345.824	25.66453
346.044	11.48207
346.263	-31.52464
346.482	5.6218
346.701	-73.95817
346.92	23.24861
347.139	-17.83386
347.358	-30.55685
347.577	29.119
347.796	75.65956
348.015	-2.6893
348.234	-7.0905
348.453	-20.7717
348.672	-33.00002
348.891	52.56664
349.11	66.30974
349.329	-11.49043
349.548	12.47999
349.767	5.13256
349.986	8.06168
350.205	-45.69433
350.424	-39.85584
350.643	-39.3434
350.862	-9.5319
351.08	-10.50181
351.299	6.1055
351.518	8.06168
351.737	-82.28244
351.956	-59.84144
352.174	-40.80723
352.393	-64.24815
352.612	-73.0292
352.831	-70.08891
353.049	-71.47285
353.268	-49.09357
353.487	-55.91572
353.705	4.64301
353.924	-145.70462
354.143	-21.74592
354.361	-86.74173
354.58	42.31236
354.798	16.87347
355.017	-12.94679
355.236	43.28632
355.454	-44.23079
355.673	83.4413
355.891	-15.89223
356.11	40.82876
356.328	-85.28065
356.547	-24.67301
356.765	-12.46021
356.984	-16.86625
357.202	11.48976
357.42	66.72004
357.639	89.28996
357.857	9.04627
358.076	-56.36706
358.294	-52.50734
358.512	-41.70898
358.731	43.30453
358.949	-45.65244
359.167	-0.24435
359.386	41.33126
359.604	-55.4639
359.822	-27.60353
360.04	47.1723
360.259	21.76067
360.477	59.93931
360.695	14.41656
360.913	22.75936
361.131	-67.59899
361.35	-38.81548
361.568	4.64729
361.786	-16.8606
362.004	-58.88311
362.222	25.65594
362.44	52.63309
362.658	-12.95654
362.876	-10.01828
363.094	-58.95227
363.312	4.15188
363.53	-58.89295
363.749	-43.72342
363.967	-5.62383
364.184	-39.83914
364.402	38.43081
364.62	-54.472
364.838	-28.59307
365.056	11.97057
365.274	26.64848
365.492	-25.68069
365.71	38.91019
365.928	-4.15664
366.146	12.94971
366.364	-9.52712
366.581	-38.87061
366.799	-13.92181
367.017	11.48207
367.235	-36.41219
367.453	2.20181
367.67	32.9601
367.888	-14.43338
368.106	-102.27915
368.323	-21.73866
368.541	-91.59038
368.759	99.11699
368.977	14.91137
369.194	-99.90879
369.412	37.40818
369.629	-2.20087
369.847	-46.66083
370.065	-12.95545
370.282	-87.61834
370.5	78.5143
370.717	6.11214
370.935	4.15849
371.152	-97.42947
371.37	-43.2707
371.588	-55.94369
371.805	119.76389
372.022	3.66254
372.24	7.57886
372.457	43.77138
372.675	-19.78891
372.892	-15.87364
373.11	51.12672
373.327	-4.64297
373.544	-6.59812
373.762	-1.22268
373.979	39.87494
374.196	-40.29799
374.414	19.31322
374.631	24.67486
374.848	-35.93216
375.066	-13.43658
375.283	-36.41828
375.5	-25.65916
375.717	-9.04301
375.935	-76.89105
376.152	-12.46333
376.369	-41.84151
376.586	-65.27554
376.803	1.22079
377.02	-31.50885
377.238	-38.83811
377.455	55.05558
377.672	36.90403
377.889	30.08208
378.106	-116.34946
378.323	-66.24345
378.54	-13.43434
378.757	-39.32369
378.974	6.10397
379.191	-65.1667
379.408	-2.19701
379.625	-72.02103
379.842	-16.8606
380.059	-11.49623
380.276	-77.41853
380.493	-41.76094
380.71	-61.26259
380.927	-23.21252
381.143	-61.76151
381.36	11.49072
381.577	-22.2255
381.794	45.24504
382.011	-39.83247
382.228	-9.5367
382.444	-36.87661
382.661	42.76528
382.878	20.76736
383.095	30.56326
383.311	-32.98071
383.528	3.17581
383.745	-13.43322
383.962	112.80504
384.178	41.31392
384.395	-104.18358
384.612	8.55162
384.828	-49.57421
385.045	12.45906
385.261	56.47479
385.478	27.12812
385.695	22.23273
385.911	-60.7992
386.128	-34.92463
386.344	-13.92414
386.561	64.40338
386.777	-35.89019
386.994	34.01295
387.21	3.66498
387.427	-34.93337
387.643	-20.74575
387.86	48.18553
388.076	100.59134
388.292	65.3376
388.509	-28.56209
388.725	-8.06323
388.942	-55.43614
389.158	-41.29283
389.374	-65.13969
389.591	-6.59923
389.807	46.67214
390.023	27.10774
390.239	-13.91949
390.456	51.55497
390.672	-46.61038
390.888	14.43715
391.104	17.34787
391.321	65.32659
391.537	11.00277
391.753	23.6921
391.969	-4.64219
392.185	-13.4694
392.401	19.28263
392.618	30.59157
392.834	44.20826
393.05	58.43848
393.266	38.38231
393.482	-4.1549
393.698	-91.06321
393.914	5.62133
394.13	-104.27883
394.346	-75.91339
394.562	-19.29692
394.778	58.4483
394.994	-9.52792
395.21	-84.70646
395.426	15.88358
395.642	-6.10983
395.858	22.73639
396.073	-50.59413
396.289	-34.37883
396.505	-31.02526
396.721	10.50681
396.937	-1.71077
397.153	8.06101
397.369	-18.82554
397.584	-20.26756
397.8	15.87298
398.016	-33.91613
398.232	-17.83833
398.447	10.00819
398.663	72.15061
398.879	16.37902
399.094	-24.18423
399.31	43.2176
399.526	-31.9843
399.741	-24.17617
399.957	15.39756
400.173	-30.03006
400.388	18.79774
400.604	-15.87496
400.82	80.93643
401.035	83.84538
401.251	65.7656
401.466	30.09728
401.682	47.61301
401.897	61.81144
402.113	31.53811
402.328	-2.20013
402.544	36.9164
402.759	79.91948
402.974	10.99816
403.19	24.66047
403.405	-92.96538
403.621	90.19877
403.836	42.75813
404.051	-10.00993
404.267	-3.66422
404.482	84.2842
404.697	6.1055
404.913	5.61617
405.128	-16.83676
405.343	113.16978
405.559	41.75364
405.774	-8.04916
405.989	5.62227
406.204	-49.52073
406.42	2.68523
406.635	56.8872
406.85	87.26985
407.065	-44.66404
407.28	61.25699
407.495	40.73704
407.71	21.21526
407.926	80.25387
408.141	78.75967
408.356	16.3234
408.571	25.61119
408.786	65.67776
409.001	82.74463
409.216	-4.14047
409.431	159.485
409.646	33.87723
409.861	11.94971
410.076	102.84441
410.291	93.93906
410.506	113.49667
410.721	91.02315
410.936	59.74963
411.15	57.32271
411.365	130.01446
411.58	195.9499
411.795	83.67102
412.01	154.95853
412.225	87.51768
412.439	69.45888
412.654	97.27703
412.869	113.55332
413.084	135.83291
413.299	131.47479
413.513	113.01884
413.728	120.77403
413.943	209.13269
414.157	160.35254
414.372	111.40939
414.587	105.58639
414.801	215.22321
415.016	183.17852
415.231	163.32932
415.445	171.79253
415.66	165.40654
415.874	164.3003
416.089	126.86374
416.304	191.61583
416.518	162.80397
416.733	170.15332
416.947	225.2369
417.162	239.36235
417.376	164.3003
417.59	335.93857
417.805	263.18572
418.019	229.2484
418.234	217.83377
418.448	235.36615
418.663	281.39433
418.877	241.43348
419.091	296.8125
419.306	234.76645
419.52	230.17987
419.734	344.00501
419.949	265.28549
420.163	270.52347
420.377	247.78941
420.591	308.79858
420.806	357.55801
421.02	382.68092
421.234	265.57623
421.448	344.20847
421.663	286.79165
421.877	208.36065
422.091	282.75712
422.305	342.21775
422.519	320.1571
422.733	398.14875
422.947	260.96915
423.161	318.65045
423.376	318.06577
423.59	357.82323
423.804	311.75768
424.018	392.73701
424.232	283.74808
424.446	416.18476
424.66	453.8636
424.874	395.77265
425.088	309.29016
425.302	475.91267
425.515	428.40571
425.729	374.70154
425.943	354.81856
426.157	422.59565
426.371	473.87715
426.585	407.7601
426.799	373.61822
427.013	532.48907
427.226	441.84525
427.44	414.22325
427.654	403.55142
427.868	415.95199
428.081	522.45559
428.295	506.68463
428.509	448.9844
428.723	484.98995
428.936	393.79215
429.15	374.09631
429.364	451.87392
429.577	385.45984
429.791	376.06253
430.005	512.3789
430.218	368.71006
430.432	354.56157
430.645	448.32402
430.859	432.57091
431.073	412.49334
431.286	521.56901
431.5	559.91622
431.713	431.98557
431.927	411.49565
432.14	503.43946
432.354	391.5708
432.567	472.62171
432.781	502.23858
432.994	511.85714
433.207	386.25624
433.421	562.75292
433.634	500.15283
433.848	608.62336
434.061	464.17042
434.274	399.53416
434.488	385.3983
434.701	398.221
434.914	469.02362
435.127	549.04411
435.341	543.98549
435.554	502.08506
435.767	626.73416
435.98	618.54886
436.194	427.31703
436.407	482.29621
436.62	646.79501
436.833	660.75274
437.046	667.98607
437.259	538.05541
437.473	640.01563
437.686	711.81016
437.899	585.94838
438.112	752.22451
438.325	628.78459
438.538	685.70413
438.751	834.44293
438.964	700.02585
439.177	674.92488
439.39	779.30015
439.603	865.03979
439.816	802.21102
440.029	906.77668
440.242	1085.27736
440.455	1168.50708
440.668	1075.49855
440.881	787.38141
441.094	929.19905
441.306	953.87188
441.519	1232.17394
441.732	1033.6464
441.945	1358.53288
442.158	1050.03901
442.37	1040.43846
442.583	1125.79779
442.796	1378.3917
443.009	1177.47154
443.222	1185.06792
443.434	1020.15517
443.647	1435.49103
443.86	1431.99007
444.072	1756.67615
444.285	1306.95937
444.498	1659.13197
444.71	1283.58746
444.923	1505.81314
445.136	1355.39569
445.348	1354.43764
445.561	1307.09551
445.773	1539.57153
445.986	1072.39794
446.198	1661.33391
446.411	1476.29437
446.623	1695.04153
446.836	1532.15155
447.048	1689.82366
447.261	1785.72871
447.473	1969.71298
447.686	1484.67064
447.898	1730.1366
448.11	1852.04976
448.323	2145.42882
448.535	1823.39824
448.748	1741.76679
448.96	1576.71801
449.172	1933.81354
449.385	1488.46046
449.597	1993.6205
449.809	1810.77784
450.021	2106.68088
450.234	1915.99518
450.446	1889.09964
450.658	1743.77429
450.87	1984.5482
451.083	1890.61633
451.295	2266.09268
451.507	1957.26909
451.719	1949.13224
451.931	2046.83297
452.143	2246.36274
452.356	1967.11243
452.568	2154.43669
452.78	2020.99526
452.992	2356.18353
453.204	2232.18889
453.416	2310.49221
453.628	1927.4688
453.84	2207.73359
454.052	1975.25569
454.264	2449.71816
454.476	2140.46046
454.688	2602.42482
454.9	2370.05907
455.112	2278.50905
455.324	2032.20042
455.536	2455.6825
455.747	2337.86283
455.959	2528.60358
456.171	2322.58902
456.383	2353.12071
456.595	2199.57825
456.807	2374.19748
457.018	2223.91237
457.23	2536.18907
457.442	2201.85095
457.654	2444.9827
457.865	2335.12552
458.077	2381.38474
458.289	2113.17172
458.501	2505.96046
458.712	2597.532
458.924	2973.03388
459.136	2392.0089
459.347	2474.3035
459.559	2289.26455
459.77	2766.1922
459.982	2651.54472
460.194	2810.50373
460.405	2330.97735
460.617	2649.96363
460.828	2566.98904
461.04	2837.98248
461.251	2501.55329
461.463	3148.47518
461.674	2814.51685
461.886	2906.91341
462.097	2538.26005
462.309	2959.55538
462.52	2426.00163
462.731	3189.09488
462.943	2586.09955
463.154	2816.82226
463.366	2615.1495
463.577	2978.56859
463.788	3032.36994
464	3176.28683
464.211	3036.31445
464.422	3619.48844
464.634	3329.82328
464.845	3371.84295
465.056	3337.81243
465.267	3478.36265
465.478	2903.46928
465.69	3502.09638
465.901	3164.49751
466.112	3568.40263
466.323	3379.07451
466.534	3696.76446
466.745	3533.15023
466.957	3797.93362
467.168	3533.68116
467.379	3632.83467
467.59	3232.32215
467.801	3361.3063
468.012	3380.78722
468.223	3728.02092
468.434	3358.52387
468.645	4065.79589
468.856	3965.29093
469.067	3874.3597
469.278	3619.61904
469.489	4019.99513
469.7	3540.65161
469.911	3765.06347
470.122	4098.05507
470.333	4522.85354
470.543	3665.69365
470.754	4209.69659
470.965	4054.69344
471.176	4282.25488
471.387	4317.16891
471.598	4373.70959
471.808	3928.13652
472.019	4399.73574
472.23	4139.79452
472.441	4226.45453
472.651	4252.70089
472.862	4458.06492
473.073	4517.71149
473.283	4461.82253
473.494	4267.85904
473.705	4390.44337
473.915	4439.71961
474.126	4912.94862
474.337	4577.44446
474.547	4911.07023
474.758	4858.90849
474.968	5100.87167
475.179	4804.98162
475.389	5001.60756
475.6	4937.81721
475.81	5199.3743
476.021	5241.10603
476.231	5585.21728
476.442	5265.78889
476.652	5311.39922
476.863	5104.86286
477.073	5407.78471
477.284	5271.36899
477.494	5586.09817
477.704	5588.74939
477.915	6114.24355
478.125	5440.41001
478.335	5897.94302
478.546	5966.92472
478.756	5967.86018
478.966	6055.24664
479.177	6213.21203
479.387	6126.60299
479.597	6399.40694
479.807	6188.92128
480.018	6323.43901
480.228	6262.30757
480.438	6491.41797
480.648	6569.6697
480.858	6912.36124
481.068	6313.6455
481.279	6811.97748
481.489	7063.53396
481.699	7156.78977
481.909	6783.61582
482.119	7739.85364
482.329	7474.29437
482.539	7588.64793
482.749	7114.29451
482.959	7677.33411
483.169	7632.91201
483.379	7986.21713
483.589	7905.1054
483.799	7902.61031
484.009	7756.49069
484.219	8012.09455
484.429	8057.09485
484.639	7993.30302
484.849	8057.70153
485.059	8543.0474
485.268	8406.50809
485.478	8646.23772
485.688	8120.27203
485.898	8541.77892
486.108	8417.82761
486.317	8879.47655
486.527	8683.68708
486.737	9224.52658
486.947	8933.06587
487.156	9214.27685
487.366	8826.57598
487.576	8935.97268
487.785	8779.29029
487.995	9095.40129
488.205	8976.57969
488.414	9331.89462
488.624	9061.20613
488.834	9185.13157
489.043	8905.61689
489.253	9045.66331
489.462	9079.14344
489.672	9450.76967
489.882	9453.60297
490.091	9786.59027
490.301	9288.60893
490.51	9744.75252
490.72	9537.57993
490.929	9831.41124
491.138	9730.39447
491.348	9786.55168
491.557	9630.81411
491.767	10008.08568
491.976	9796.77045
492.185	9965.56356
492.395	9835.89579
492.604	10149.0738
492.813	9778.45355
493.023	10344.7725
493.232	10008.21581
493.441	10057.69272
493.651	10158.3944
493.86	10142.67977
494.069	10162.60941
494.278	10393.68741
494.488	10329.51567
494.697	10651.60944
494.906	10216.00702
495.115	10774.74492
495.324	10304.64625
495.533	10939.4103
495.743	10713.43409
495.952	11112.27344
496.161	10960.50506
496.37	11125.92788
496.579	10982.42717
496.788	11408.4465
496.997	11255.34131
497.206	11264.74136
497.415	11029.67941
497.624	11553.3039
497.833	11400.06037
498.042	11636.90158
498.251	11516.63563
498.46	11888.49728
498.669	11673.0695
498.878	11617.91593
499.087	11448.71833
499.296	11999.61149
499.504	11850.78702
499.713	12005.79635
499.922	11808.70075
500.131	12158.35068
500.34	12012.27066
500.549	12211.40077
500.757	11830.83397
500.966	12219.07073
501.175	11918.31463
501.384	12377.32354
501.592	12030.05036
501.801	12312.25357
502.01	12246.05943
502.218	12387.65458
502.427	12257.99626
502.636	12393.36025
502.844	12066.76515
503.053	12296.7352
503.262	12314.54776
503.47	12408.49093
503.679	12229.49226
503.887	12431.38514
504.096	12245.07443
504.304	12524.56966
504.513	12438.56918
504.721	12451.8381
504.93	12027.83335
505.138	12555.61598
505.347	12277.93209
505.555	12463.77618
505.764	12234.82474
505.972	12567.67598
506.18	11973.24309
506.389	12282.7382
506.597	12182.8304
506.806	12445.43854
507.014	12207.87882
507.222	12524.55927
507.431	12255.84493
507.639	12322.98905
507.847	12207.01888
508.055	12672.81412
508.264	12415.1258
508.472	12493.52758
508.68	12302.33022
508.888	12691.25335
509.096	12525.1336
509.305	12706.09058
509.513	12408.73089
509.721	12644.84203
509.929	12550.56683
510.137	12673.17233
510.345	12452.16031
510.553	12628.10091
510.762	12523.90368
510.97	12610.52333
511.178	12691.71178
511.386	12741.28375
511.594	12564.1364
511.802	12840.09063
512.01	12672.20506
512.218	12953.54241
512.426	12895.42549
512.634	13054.14667
512.842	12901.89786
513.049	13018.39111
513.257	12800.9632
513.465	13200.57711
513.673	12983.40006
513.881	13162.11336
514.089	13046.48945
514.297	13199.83034
514.504	13067.99659
514.712	13422.62845
514.92	13160.38254
515.128	13605.98961
515.336	13258.36442
515.543	13387.56676
515.751	13284.32862
515.959	13250.74944
516.166	13041.17709
516.374	13482.24751
516.582	13414.84005
516.789	13533.12248
516.997	13372.78675
517.205	13395.51373
517.412	13320.11229
517.62	13601.15064
517.827	13394.23453
518.035	13412.58436
518.243	13376.30532
518.45	13307.56386
518.658	13201.39199
518.865	13338.03498
519.073	13383.38043
519.28	13347.52019
519.488	13115.14847
519.695	13274.5513
519.902	12915.95141
520.11	13280.30694
520.317	13143.29307
520.525	13196.26128
520.732	13025.35625
520.939	13262.23788
521.147	12880.98112
521.354	13186.15052
521.561	13142.65195
521.769	13188.83376
521.976	12748.40027
522.183	13227.08055
522.391	12895.8557
522.598	13286.69722
522.805	13042.34723
523.012	13106.01064
523.219	13128.7114
523.427	13210.31241
523.634	13212.85371
523.841	13382.78428
524.048	13062.40265
524.255	13485.05661
524.462	13227.36961
524.669	13241.14923
524.877	13186.35273
525.084	13329.16829
525.291	13097.83414
525.498	13434.60466
525.705	13247.15561
525.912	13640.1825
526.119	13348.02333
526.326	13458.09829
526.533	13423.77655
526.74	13762.52708
526.947	13544.83998
527.153	13902.77621
527.36	13657.03523
527.567	13796.92787
527.774	13626.84227
527.981	13973.16288
528.188	13771.80727
528.395	14016.02967
528.602	13786.59371
528.808	14065.29475
529.015	13859.66103
529.222	14094.2697
529.429	13774.41072
529.635	14149.99921
529.842	13994.80574
530.049	14101.06008
530.256	13889.98352
530.462	14220.64233
530.669	14095.99093
530.876	14305.24024
531.082	14149.42031
531.289	14305.70026
531.495	14179.44316
531.702	14334.30277
531.909	14083.9812
532.115	14645.59764
532.322	14189.50156
532.528	14411.55188
532.735	14296.61919
532.941	14531.34427
533.148	14284.16909
533.354	14391.60895
533.561	14449.88659
533.767	14384.95859
533.974	14276.27458
534.18	14564.70523
534.387	14285.00946
534.593	14580.27927
534.799	14363.01996
535.006	14580.67754
535.212	14400.90125
535.418	14545.3164
535.625	14373.32722
535.831	14528.75775
536.037	14399.76008
536.244	14580.77383
536.45	14218.38939
536.656	14505.49635
536.862	14608.38874
537.068	14743.32161
537.275	14543.12413
537.481	14607.52423
537.687	14659.51037
537.893	14991.36157
538.099	14639.00432
538.305	14859.11597
538.512	14628.20542
538.718	14863.92361
538.924	14573.59106
539.13	14556.6297
539.336	14662.81284
539.542	14738.25534
539.748	14768.58105
539.954	14887.14602
540.16	14710.27293
540.366	14903.67669
540.572	14812.43886
540.778	14830.80665
540.984	14531.2532
541.19	14796.17257
541.396	14613.38468
541.602	14821.89932
541.807	14511.0119
542.013	14884.42521
542.219	14415.26696
542.425	14752.6542
542.631	14412.44902
542.837	14503.94817
543.042	14410.52556
543.248	14725.35564
543.454	14346.20013
543.66	14726.2069
543.865	14347.6145
544.071	14721.01772
544.277	14411.113
544.483	14528.04177
544.688	14375.36796
544.894	14769.63162
545.1	14454.20206
545.305	14677.63589
545.511	14482.50972
545.716	14447.18202
545.922	14237.58979
546.128	14539.30216
546.333	14327.89049
546.539	14580.76737
546.744	14287.42837
546.95	14611.69724
547.155	14249.96848
547.361	14518.70612
547.566	14207.89762
547.772	14404.26981
547.977	14307.13291
548.182	14400.09127
548.388	14222.52592
548.593	14506.77651
548.799	14229.27851
549.004	14392.75255
549.209	14304.82836
549.415	14488.81895
549.62	14193.6627
549.825	14383.12104
550.031	14105.47367
550.236	14508.22702
550.441	14317.73609
550.646	14435.95186
550.852	14411.81936
551.057	14352.35653
551.262	14429.28788
551.467	14612.37655
551.672	14255.13866
551.878	14638.81465
552.083	14377.48751
552.288	14638.401
552.493	14319.21006
552.698	14441.26725
552.903	14320.19083
553.108	14741.45778
553.313	14487.09499
553.518	14615.98692
553.723	14558.0698
553.928	14639.53483
554.133	14390.43654
554.338	14705.34486
554.543	14563.67033
554.748	14664.83637
554.953	14531.35233
555.158	14765.12683
555.363	14590.07457
555.568	14592.88475
555.773	14756.94712
555.978	14874.21027
556.182	14461.52285
556.387	14682.7931
556.592	14435.38449
556.797	14796.75155
557.002	14588.41077
557.206	14780.71691
557.411	14400.08038
557.616	14666.97781
557.821	14659.95884
558.025	14789.60361
558.23	14581.78689
558.435	14857.1195
558.64	14619.34567
558.844	14716.41832
559.049	14525.35335
559.253	14833.82179
559.458	14540.11412
559.663	14717.84825
559.867	14616.71817
560.072	14657.97341
560.276	14575.59447
560.481	14707.0893
560.685	14638.82484
560.89	14551.45879
561.094	14473.46744
561.299	14606.49173
561.503	14186.20075
561.708	14623.34807
561.912	14231.8464
562.117	14357.2576
562.321	14255.7204
562.525	14448.06336
562.73	14364.28377
562.934	14438.68147
563.139	14260.1406
563.343	14390.86272
563.547	14183.31313
563.752	14393.03208
563.956	14288.23237
564.16	14422.49913
564.364	14174.40251
564.569	14358.72449
564.773	14186.89647
564.977	14326.21649
565.181	14209.01089
565.385	14188.18588
565.59	14122.98781
565.794	14256.76325
565.998	14073.01652
566.202	14247.3834
566.406	14083.50378
566.61	14188.91384
566.814	13993.04089
567.018	14232.92957
567.222	14116.7354
567.426	13983.56478
567.63	13930.03685
567.834	14029.76123
568.038	13810.57614
568.242	14074.81357
568.446	13806.81318
568.65	14001.69972
568.854	13781.44145
569.058	14089.59725
569.262	13849.62399
569.466	14057.17109
569.67	13857.82374
569.874	13885.07476
570.078	13944.48289
570.281	13959.55673
570.485	13778.14575
570.689	13759.60676
570.893	13385.34449
571.097	13788.29712
571.3	13450.90323
571.504	13713.3882
571.708	13434.8512
571.912	13681.90316
572.115	13535.16931
572.319	13465.7359
572.523	13358.97196
572.726	13533.9406
572.93	13240.03833
573.133	13336.12628
573.337	13344.01463
573.541	13382.1698
573.744	13250.98884
573.948	13257.26026
574.151	13082.97589
574.355	13257.513
574.558	12930.8712
574.762	13421.38473
574.965	12992.67895
575.169	13328.4846
575.372	12881.97231
575.576	13226.8238
575.779	13075.02976
575.983	13317.6679
576.186	12861.0751
576.389	13071.89581
576.593	12861.01082
576.796	12949.65559
577	12710.20885
577.203	12951.39114
577.406	12733.12357
577.609	12884.90682
577.813	12687.45734
578.016	13065.97307
578.219	12838.84189
578.423	12778.8603
578.626	12521.1984
578.829	12790.83131
579.032	12654.77914
579.235	12787.47001
579.438	12742.76266
579.642	12699.31608
579.845	12455.95547
580.048	12758.12251
580.251	12332.72726
580.454	12702.72645
580.657	12518.41525
580.86	12745.3892
581.063	12328.42469
581.266	12590.731
581.469	12670.04537
581.672	12473.63952
581.875	12332.43658
582.078	12514.28481
582.281	12395.14308
582.484	12603.1212
582.687	12551.56439
582.89	12643.1093
583.093	12309.10554
583.296	12495.97272
583.499	12500.75472
583.702	12566.16712
583.904	12241.9764
584.107	12560.92578
584.31	12386.21564
584.513	12431.17174
584.716	12475.84091
584.918	12541.31249
585.121	12416.72172
585.324	12574.15156
585.527	12394.32568
585.729	12668.34621
585.932	12293.57057
586.135	12555.55219
586.337	12410.48719
586.54	12692.09295
586.743	12433.91336
586.945	12553.54649
587.148	12236.40862
587.35	12494.20859
587.553	12319.2106
587.755	12470.35087
587.958	12365.6633
588.161	12434.00226
588.363	12349.92439
588.566	12310.77577
588.768	12344.17418
588.971	12370.39055
589.173	12318.23967
589.375	12426.81684
589.578	12131.47514
589.78	12346.34986
589.983	12125.24639
590.185	12126.70157
590.387	11955.19253
590.59	12070.72558
590.792	11672.01576
590.994	11665.36004
591.197	11621.82903
591.399	11648.964
591.601	11533.91775
591.803	11404.92515
592.006	11248.43241
592.208	11431.17855
592.41	11142.18354
592.612	11357.69373
592.815	11077.34861
593.017	11163.29247
593.219	10857.57665
593.421	10944.43205
593.623	10798.03291
593.825	10856.6157
594.027	10739.671
594.229	10924.88109
594.432	10462.59915
594.634	10685.93329
594.836	10317.06014
595.038	10651.30576
595.24	10344.12656
595.442	10484.11538
595.644	10241.98196
595.846	10290.9309
596.048	10192.34513
596.249	10107.73443
596.451	10099.79289
596.653	10243.07023
596.855	9989.65099
597.057	10124.19238
597.259	9944.24052
597.461	10032.38915
597.663	9838.94308
597.864	9885.84436
598.066	9818.42131
598.268	9896.40684
598.47	9625.72376
598.671	9968.77284
598.873	9835.68947
599.075	9970.73743
599.277	9822.85554
599.478	9947.72019
599.68	9842.27415
599.882	9815.00574
600.083	9895.88591
600.285	9958.60309
600.487	9757.44313
600.688	9954.3266
600.89	9864.52183
601.091	10049.50333
601.293	9878.67476
601.494	10036.6098
601.696	9801.889
601.898	10254.77228
602.099	10041.84393
602.301	10192.39801
602.502	10057.06045
602.703	10268.36406
602.905	10122.41736
603.106	10298.0711
603.308	10101.18878
603.509	10304.34852
603.711	10006.17096
603.912	10211.29151
604.113	9988.49252
604.315	10341.14988
604.516	10262.64034
604.717	10298.52777
604.919	10245.25697
605.12	10317.58963
605.321	10498.04012
605.522	10456.20035
605.724	10379.21351
605.925	10311.26656
606.126	10471.02782
606.327	10670.78454
606.528	10396.81321
606.729	10668.95978
606.931	10523.83702
607.132	10652.84633
607.333	10333.84442
607.534	10645.09087
607.735	10675.70482
607.936	10725.57815
608.137	10553.72009
608.338	10748.58794
608.539	10564.28272
608.74	10714.43798
608.941	10647.43891
609.142	10751.04613
609.343	10669.98815
609.544	10827.49756
609.745	10594.59296
609.946	10874.62685
610.147	10684.02943
610.348	10790.48555
610.549	10741.69988
610.75	10804.64234
610.95	10623.89731
611.151	10684.34555
611.352	10613.816
611.553	10704.28508
611.754	10551.78383
611.954	10824.6135
612.155	10657.25513
612.356	10707.66681
612.557	10543.8335
612.757	10888.32201
612.958	10657.9042
613.159	10894.98265
613.359	10523.09063
613.56	10684.07858
613.761	10588.48262
613.961	10642.12897
614.162	10548.1584
614.362	10712.84537
614.563	10700.85353
614.764	10718.56982
614.964	10569.55661
615.165	10708.54837
615.365	10411.99253
615.566	10564.73388
615.766	10382.42373
615.967	10613.04384
616.167	10218.72188
616.368	10321.33758
616.568	10364.52738
616.768	10443.34335
616.969	10466.79469
617.169	10417.82368
617.37	10206.58028
617.57	10308.85744
617.77	10254.09936
617.971	10303.20077
618.171	10246.46946
618.371	10129.03303
618.571	10066.69293
618.772	10421.07907
618.972	10206.84794
619.172	10235.48166
619.372	10023.28638
619.573	10198.00308
619.773	10081.2505
619.973	10107.75436
620.173	10069.86628
620.373	10112.86464
620.573	10005.99976
620.774	10236.21766
620.974	9944.14166
621.174	10047.37825
621.374	9898.25148
621.574	10143.46512
621.774	10007.56772
621.974	10068.4876
622.174	9754.01995
622.374	10120.76161
622.574	9885.90623
622.774	10014.796
622.974	9776.15954
623.174	10135.59667
623.374	9865.38152
623.574	10087.36286
623.774	9746.66022
623.973	10007.92848
624.173	9862.53656
624.373	9971.88698
624.573	9670.69348
624.773	9904.76341
624.973	9845.77322
625.172	10041.58182
625.372	9813.20618
625.572	9970.47005
625.772	9691.79814
625.971	9816.02756
626.171	9848.88418
626.371	9944.8425
626.57	9564.55781
626.77	9951.91579
626.97	9642.12902
627.169	9698.80461
627.369	9674.46353
627.569	9856.54206
627.768	9418.39528
627.968	9666.17054
628.167	9513.39405
628.367	9624.17843
628.566	9524.705
628.766	9681.99305
628.965	9566.76464
629.165	9498.34537
629.364	9494.9011
629.564	9563.82554
629.763	9423.70646
629.963	9457.30814
630.162	9367.04554
630.362	9379.66687
630.561	9244.49539
630.76	9232.00508
630.96	9143.00064
631.159	9283.86084
631.358	9204.31466
631.558	9293.31817
631.757	9091.11389
631.956	9162.03553
632.155	8998.98146
632.355	9194.6496
632.554	9031.68901
632.753	9139.45192
632.952	8824.56987
633.152	9041.58422
633.351	8879.0767
633.55	8967.43475
633.749	8794.20344
633.948	9065.2764
634.147	8846.12011
634.346	8842.09599
634.545	8822.40873
634.744	8789.60479
634.944	8830.82024
635.143	8760.00556
635.342	8541.89439
635.541	8759.90583
635.74	8699.92677
635.939	8700.47021
636.138	8658.92894
636.336	8610.781
636.535	8490.01939
636.734	8776.8463
636.933	8677.99617
637.132	8734.50724
637.331	8478.76707
637.53	8759.79592
637.729	8590.16766
637.928	8631.34709
638.126	8590.04627
638.325	8658.55869
638.524	8501.82646
638.723	8679.69149
638.921	8456.60552
639.12	8574.88366
639.319	8649.26152
639.518	8694.97861
639.716	8433.35112
639.915	8556.51083
640.114	8495.64984
640.312	8673.9259
640.511	8464.92324
640.71	8774.39023
640.908	8631.04501
641.107	8631.92584
641.305	8473.98387
641.504	8637.77603
641.702	8462.9818
641.901	8551.77988
642.099	8528.57993
642.298	8775.35103
642.496	8434.19542
642.695	8509.85936
642.893	8492.39835
643.092	8595.70624
643.29	8503.51035
643.489	8551.81167
643.687	8318.93396
643.885	8497.23274
644.084	8454.02807
644.282	8632.67979
644.48	8414.52357
644.679	8550.64958
644.877	8386.3858
645.075	8564.3806
645.274	8418.94377
645.472	8411.50811
645.67	8370.95041
645.868	8383.82453
646.067	8399.40737
646.265	8399.16884
646.463	8284.83674
646.661	8241.90826
646.859	8237.02938
647.057	8334.00154
647.256	8145.47654
647.454	8306.87823
647.652	8153.09451
647.85	8272.91731
648.048	8149.38105
648.246	8233.13498
648.444	7811.78288
648.642	8046.65279
648.84	7933.72129
649.038	7954.45311
649.236	7810.62482
649.434	7872.88313
649.632	7673.66964
649.83	7912.08323
650.028	7644.14339
650.226	7839.52445
650.423	7519.71334
650.621	7686.59248
650.819	7419.46317
651.017	7625.0776
651.215	7421.15187
651.413	7541.33476
651.61	7320.01041
651.808	7384.99657
652.006	7266.68732
652.204	7333.3789
652.401	7144.9185
652.599	7274.82676
652.797	7141.58929
652.995	7289.91601
653.192	7063.35604
653.39	7210.93218
653.588	7084.49635
653.785	7127.10467
653.983	6934.52103
654.18	7185.50793
654.378	6859.46984
654.576	6995.47224
654.773	6685.54515
654.971	7032.07883
655.168	6863.53441
655.366	6954.5839
655.563	6665.83062
655.761	7054.51703
655.958	6758.52765
656.156	6703.95534
656.353	6749.51863
656.55	6876.69187
656.748	6660.81629
656.945	6718.00589
657.143	6485.51448
657.34	6664.1684
657.537	6532.06651
657.735	6619.14456
657.932	6312.75093
658.129	6513.55978
658.326	6375.42877
658.524	6568.21583
658.721	6256.84271
658.918	6534.87349
659.115	6187.84149
659.313	6384.61732
659.51	6119.95321
659.707	6294.67954
659.904	6298.33453
660.101	6454.34968
660.298	6180.257
660.496	6287.59042
660.693	6144.45137
660.89	6259.52407
661.087	6122.65596
661.284	6230.04721
661.481	6185.36358
661.678	6340.84909
661.875	6392.74237
662.072	6336.55134
662.269	6206.25042
662.466	6250.58517
662.663	6117.90196
662.86	6285.33243
663.057	6193.30053
663.254	6334.34024
663.45	6226.70909
663.647	6243.86361
663.844	6135.81658
664.041	6255.34581
664.238	6245.23852
664.435	6294.55131
664.631	6081.82866
664.828	6364.81606
665.025	6223.08925
665.222	6206.65429
665.419	6180.34161
665.615	6412.95311
665.812	6186.16655
666.009	6328.48875
666.205	6064.46018
666.402	6436.39842
666.599	6185.89272
666.795	6384.34896
666.992	6306.57021
667.188	6548.8407
667.385	6308.02363
667.582	6582.96284
667.778	6344.00429
667.975	6522.57786
668.171	6382.64278
668.368	6532.244
668.564	6443.79624
668.761	6640.81221
668.957	6372.32473
669.154	6567.25393
669.35	6223.56805
669.547	6456.94123
669.743	6428.91399
669.939	6527.07547
670.136	6413.37999
670.332	6438.47523
670.528	6351.7131
670.725	6532.93763
670.921	6377.66488
671.117	6436.50701
671.314	6279.6661
671.51	6612.44407
671.706	6350.45336
671.902	6400.69072
672.099	6399.65896
672.295	6431.31275
672.491	6251.49493
672.687	6381.11226
672.883	6275.60557
673.08	6465.4374
673.276	6368.13024
673.472	6467.93365
673.668	6357.80706
673.864	6228.86133
674.06	6171.14281
674.256	6382.74253
674.452	6218.87487
674.648	6338.29072
674.844	6193.76773
675.04	6461.93278
675.236	6081.92412
675.432	6333.94222
675.628	6018.64821
675.824	6221.10848
676.02	6005.40784
676.216	6270.26231
676.412	6076.41237
676.608	6182.63956
676.804	6056.03958
676.999	6306.85365
677.195	5975.88831
677.391	6078.23397
677.587	5944.84957
677.783	6182.55422
677.978	5958.38995
678.174	6087.45648
678.37	5946.35377
678.566	6067.86315
678.761	5860.4303
678.957	5976.21715
679.153	5789.22437
679.348	5973.18133
679.544	5842.97919
679.74	5998.75768
679.935	5722.80799
680.131	6074.57087
680.327	5795.58788
680.522	5893.92609
680.718	5657.07418
680.913	5881.02129
681.109	5808.26889
681.304	5931.68152
681.5	5613.29676
681.695	5913.90327
681.891	5603.41107
682.086	5921.24923
682.282	5751.66951
682.477	5776.65112
682.672	5668.40122
682.868	5754.77388
683.063	5579.08236
683.259	5855.11044
683.454	5604.25256
683.649	5731.5908
683.845	5464.96974
684.04	5771.84596
684.235	5523.94694
684.43	5676.75936
684.626	5453.1632
684.821	5730.87803
685.016	5354.69729
685.211	5790.44114
685.407	5457.80909
685.602	5627.40685
685.797	5318.51029
685.992	5604.85083
686.187	5492.60962
686.382	5560.83608
686.577	5257.04928
686.773	5391.06319
686.968	5360.36106
687.163	5551.65303
687.358	5346.6628
687.553	5496.83463
687.748	5430.41288
687.943	5413.17574
688.138	5135.01264
688.333	5381.46467
688.528	5145.91234
688.723	5243.56072
688.918	5177.92944
689.112	5137.73443
689.307	4898.81879
689.502	5002.24049
689.697	4895.30546
689.892	4970.08388
690.087	4756.11738
690.282	4986.68663
690.476	4582.98067
690.671	4911.51037
690.866	4439.66622
691.061	4685.0646
691.255	4441.5462
691.45	4585.07605
691.645	4382.73119
691.84	4535.83164
692.034	4355.71464
692.229	4355.69287
692.424	4222.1363
692.618	4379.95194
692.813	4222.12565
693.007	4244.48796
693.202	4119.35769
693.397	4203.76281
693.591	3999.74667
693.786	4158.22901
693.98	3883.24684
694.175	4111.16554
694.369	3829.04145
694.564	4051.35572
694.758	3792.48376
694.953	3987.04874
695.147	3713.49686
695.342	3911.85549
695.536	3787.04575
695.73	3939.31248
695.925	3603.80569
696.119	3755.2659
696.313	3453.50489
696.508	3718.65175
696.702	3440.69834
696.896	3599.32854
697.091	3349.32069
697.285	3646.37062
697.479	3354.26904
697.673	3644.8012
697.868	3398.55147
698.062	3554.85389
698.256	3385.6709
698.45	3544.51159
698.644	3483.3974
698.839	3644.7405
699.033	3409.20337
699.227	3709.50296
699.421	3530.55709
699.615	3781.2769
699.809	3610.45551
700.003	3650.77074
700.197	3466.10545
700.391	3853.1645
700.585	3449.2927
700.779	3801.9461
700.973	3660.12756
701.167	3755.44964
701.361	3646.46503
701.555	3801.97368
701.749	3522.82967
701.943	3615.02634
702.137	3542.15575
702.331	3733.12094
702.525	3544.07268
702.718	3751.98654
702.912	3465.16332
703.106	3623.79894
703.3	3509.92139
703.494	3710.89597
703.687	3543.37897
703.881	3763.04134
704.075	3566.40727
704.269	3759.29517
704.462	3567.45559
704.656	3798.96723
704.85	3531.81669
705.043	3786.89219
705.237	3540.52961
705.431	3774.41573
705.624	3554.93659
705.818	3849.86775
706.012	3646.23083
706.205	3983.19236
706.399	3738.79835
706.592	3913.27938
706.786	3599.15256
706.979	3894.37705
707.173	3690.0097
707.366	3972.3071
707.56	3632.42388
707.753	3905.01594
707.947	3674.53475
708.14	3891.32634
708.333	3656.09246
708.527	3815.61588
708.72	3630.95186
708.914	3965.42281
709.107	3767.50664
709.3	3996.33284
709.494	3755.55568
709.687	3884.60731
709.88	3751.84286
710.073	3993.6699
710.267	3821.77098
710.46	3999.45096
710.653	3950.97181
710.846	3892.12657
711.04	3906.46144
711.233	4077.35361
711.426	3828.17524
711.619	4045.34946
711.812	3919.19737
712.005	4122.47897
712.198	3883.24684
712.391	4196.63905
712.585	4046.2389
712.778	4159.32866
712.971	4036.31494
713.164	4215.28853
713.357	4034.49628
713.55	4395.33288
713.743	4170.81691
713.936	4425.613
714.129	4185.77079
714.322	4288.15603
714.514	4121.60839
714.707	4357.35416
714.9	4151.12264
715.093	4403.07253
715.286	4290.871
715.479	4421.12358
715.672	4334.10963
715.864	4391.96195
716.057	4265.97933
716.25	4395.59609
716.443	4350.50646
716.636	4420.91197
716.828	4257.12939
717.021	4427.67045
717.214	4403.64845
717.406	4512.43225
717.599	4226.54519
717.792	4379.96717
717.984	4199.08365
718.177	4386.92921
718.37	4205.32924
718.562	4302.75115
718.755	4189.31145
718.947	4303.22844
719.14	3966.23559
719.333	4112.47769
719.525	3851.1483
719.718	3984.32121
719.91	3801.9461
720.103	3956.22535
720.295	3556.29188
720.487	3738.08564
720.68	3454.64377
720.872	3559.3453
721.065	3268.27821
721.257	3456.15149
721.449	3109.93218
721.642	3312.61071
721.834	3085.43296
722.026	3076.77026
722.219	2816.85822
722.411	2924.43445
722.603	2743.6627
722.796	2834.95731
722.988	2692.51181
723.18	2789.51033
723.372	2481.83265
723.565	2688.18512
723.757	2461.95411
723.949	2570.16696
724.141	2349.00205
724.333	2589.84531
724.525	2294.50622
724.717	2632.37039
724.91	2248.238
725.102	2457.59137
725.294	2183.66077
725.486	2279.35657
725.678	2177.01048
725.87	2276.2421
726.062	2012.55092
726.254	2161.27449
726.446	1873.23979
726.638	2253.52603
726.83	1795.91801
727.022	1990.71595
727.213	1883.52309
727.405	2029.38949
727.597	1877.27645
727.789	2031.45633
727.981	1852.78762
728.173	2037.6693
728.365	1851.87424
728.556	1961.20444
728.748	1744.17067
728.94	2019.82201
729.132	1840.84046
729.324	2116.36255
729.515	1902.65876
729.707	2110.5088
729.899	1914.97744
730.09	2050.62498
730.282	1871.26102
730.474	2025.70849
730.665	1984.82963
730.857	2173.15924
731.049	1858.69635
731.24	2132.4665
731.432	1920.26687
731.623	2120.57304
731.815	1969.34858
732.006	2078.31421
732.198	1861.83284
732.389	2046.79036
732.581	1844.79118
732.772	2002.1386
732.964	1879.3835
733.155	2021.61346
733.347	1945.17224
733.538	2074.3067
733.729	1882.4685
733.921	2240.84883
734.112	1947.15844
734.304	2112.54863
734.495	1908.35962
734.686	2189.32157
734.877	2186.95399
735.069	2215.4559
735.26	1975.66825
735.451	2310.1954
735.643	2194.22733
735.834	2486.04166
736.025	2273.00389
736.216	2566.15302
736.407	2262.50832
736.599	2519.15217
736.79	2329.45673
736.981	2777.62744
737.172	2466.61444
737.363	2797.7207
737.554	2608.24159
737.745	2888.50762
737.936	2681.23729
738.127	2982.90951
738.318	2753.83703
738.509	2930.28698
738.7	2830.60571
738.891	3154.99333
739.082	2897.73774
739.273	3295.64428
739.464	3092.828
739.655	3318.2992
739.846	2995.74008
740.037	3456.3528
740.228	3209.9895
740.419	3566.50538
740.609	3318.22201
740.8	3590.07057
740.991	3303.23544
741.182	3649.77378
741.373	3514.91944
741.563	3913.43713
741.754	3485.63373
741.945	3941.52578
742.136	3745.68254
742.326	3899.43486
742.517	3676.97468
742.708	4004.0628
742.898	3870.70591
743.089	4058.71341
743.28	3959.02159
743.47	4158.01226
743.661	3859.48377
743.851	4280.18848
744.042	3911.49816
744.233	4261.55758
744.423	4027.64106
744.614	4276.61591
744.804	4067.36207
744.995	4185.96424
745.185	3814.1687
745.376	4355.13517
745.566	4301.43155
745.756	4511.51958
745.947	4245.89743
746.137	4658.58419
746.328	4297.65376
746.518	4518.75876
746.708	4342.08903
746.899	4544.64431
747.089	4295.16304
747.279	4656.41803
747.47	4400.25127
747.66	4669.2936
747.85	4499.44873
748.04	4641.67531
748.231	4489.16496
748.421	4763.86756
748.611	4505.82607
748.801	4815.9756
748.991	4585.4906
749.182	4804.69478
749.372	4498.48677
749.562	4840.79665
749.752	4658.0116
749.942	4920.94863
750.132	4615.0813
750.322	4928.29088
750.512	4641.05618
750.702	4889.78389
750.892	4616.74397
751.082	4906.85775
751.272	4651.61684
751.462	5001.06229
751.652	4716.71661
751.842	4880.70539
752.032	4668.56957
752.222	5072.35118
752.412	4716.37957
752.602	4895.82449
752.792	4658.94084
752.981	4972.76296
753.171	4706.50928
753.361	4975.0215
753.551	4631.2386
753.741	4943.04962
753.93	4708.78142
754.12	4953.13129
754.31	4569.66897
754.5	4874.68351
754.689	4600.24228
754.879	4908.7287
755.069	4556.99779
755.258	4979.6699
755.448	4720.04565
755.638	4804.45288
755.827	4698.54455
756.017	4862.62172
756.206	4594.73211
756.396	4920.73682
756.586	4609.54452
756.775	4909.40644
756.965	4498.00682
757.154	4873.16515
757.344	4513.6227
757.533	4764.43304
757.723	4518.1545
757.912	4710.20567
758.101	4541.21192
758.291	4670.75396
758.48	4396.90873
758.67	4655.03407
758.859	4429.05622
759.048	4780.78807
759.238	4491.60732
759.427	4675.90091
759.616	4509.77853
759.806	4727.40331
759.995	4319.36129
760.184	4657.82287
760.373	4413.44679
760.563	4717.76336
760.752	4340.25048
760.941	4538.06629
761.13	4192.83356
761.319	4306.74932
761.509	4099.58214
761.698	4253.36374
761.887	3904.0911
762.076	4018.21634
762.265	3642.60531
762.454	3741.58025
762.643	3373.71677
762.832	3489.65131
763.021	3177.23263
763.21	3345.44275
763.399	2955.50169
763.588	3104.77385
763.777	2666.60396
763.966	2789.03628
764.155	2491.15822
764.344	2584.35738
764.533	2347.47485
764.722	2467.59351
764.911	2070.85416
765.1	2156.91003
765.288	1859.78266
765.477	2040.97383
765.666	1735.36623
765.855	1866.745
766.044	1510.76542
766.232	1578.69328
766.421	1286.31196
766.61	1370.66949
766.799	1145.06023
766.987	1288.18529
767.176	1128.51055
767.365	1164.02882
767.553	963.45763
767.742	1073.84862
767.931	831.61828
768.119	939.60848
768.308	728.79665
768.497	925.31212
768.685	682.3626
768.874	787.50234
769.062	706.53572
769.251	745.55647
769.439	687.56014
769.628	791.73687
769.816	729.83976
770.005	849.08812
770.193	775.37248
770.382	877.57242
770.57	822.41415
770.758	1058.00523
770.947	921.09393
771.135	1222.61091
771.323	1036.32166
771.512	1271.35757
771.7	1093.05164
771.888	1312.31786
772.077	1309.52271
772.265	1478.83325
772.453	1352.89825
772.642	1689.28477
772.83	1488.32278
773.018	1759.07078
773.206	1519.74716
773.394	1831.18659
773.583	1741.10088
773.771	2051.36009
773.959	1862.35363
774.147	2183.85761
774.335	2149.81213
774.523	2294.43405
774.711	2291.21661
774.899	2471.38722
775.087	2384.77733
775.275	2527.49811
775.463	2533.91883
775.651	2737.92798
775.839	2459.44047
776.027	2848.0906
776.215	2658.51901
776.403	2840.03014
776.591	2688.15944
776.779	3062.38585
776.967	2719.70465
777.155	3112.54023
777.343	2909.35125
777.531	3162.75073
777.718	2904.90458
777.906	3182.36802
778.094	2920.63433
778.282	3245.30411
778.47	2981.63292
778.657	3278.8316
778.845	2926.72812
779.033	3261.33214
779.22	3039.46036
779.408	3290.5359
779.596	3016.79061
779.783	3217.2146
779.971	3093.83961
780.159	3170.15457
780.346	2983.52943
780.534	3275.86562
780.722	3040.03839
780.909	3217.75964
781.097	3012.00279
781.284	3305.54812
781.472	2994.02044
781.659	3225.70247
781.847	3009.0859
782.034	3217.94686
782.222	3015.403
782.409	3165.09565
782.597	2968.98227
782.784	3185.3219
782.971	2998.628
783.159	3173.16956
783.346	2887.08196
783.533	3175.88035
783.721	2876.85742
783.908	3140.00031
784.095	2806.5911
784.283	3167.16057
784.47	2879.60365
784.657	3100.60728
784.844	2942.63925
785.032	3049.83117
785.219	2813.47212
785.406	3078.48275
785.593	2811.90375
785.78	2978.28163
785.968	2816.54713
786.155	3057.24717
786.342	2677.00634
786.529	3009.66914
786.716	2767.46835
786.903	2997.11078
787.09	2604.82964
787.277	2908.70325
787.464	2582.78106
787.651	2811.23918
787.838	2559.24833
788.025	2792.85628
788.212	2476.01063
788.399	2863.53335
788.586	2460.02382
788.773	2800.34009
788.96	2618.8805
789.147	2886.66263
789.334	2472.42474
789.521	2762.30398
789.707	2445.9514
789.894	2761.74347
790.081	2486.01623
790.268	2739.43226
790.455	2384.09188
790.641	2546.27132
790.828	2401.19909
791.015	2553.02082
791.202	2379.10316
791.388	2543.58323
791.575	2373.33062
791.762	2338.02277
791.948	2229.58746
792.135	2413.96151
792.322	2149.68883
792.508	2288.54882
792.695	2093.4583
792.881	2282.22542
793.068	2022.91714
793.254	2250.03831
793.441	2012.46835
793.627	2172.2528
793.814	1993.12182
794	2201.85408
794.187	1843.5789
794.373	2171.13199
794.56	1948.88324
794.746	2151.38194
794.933	1938.3839
795.119	2092.71961
795.305	1811.33284
795.492	2076.33254
795.678	1855.27874
795.864	2048.53946
796.051	1872.50353
796.237	2010.17083
796.423	1762.25006
796.61	1922.45574
796.796	1769.40697
796.982	1932.82613
797.168	1761.90742
797.355	1923.36973
797.541	1800.10424
797.727	1988.81196
797.913	1714.43644
798.099	1845.17126
798.285	1681.71707
798.471	1904.44491
798.658	1687.6404
798.844	1892.76151
799.03	1600.12664
799.216	1832.95995
799.402	1776.71926
799.588	1825.70587
799.774	1654.23554
799.96	1828.32762
800.146	1652.83857
800.332	1861.81108
800.518	1561.34801
800.704	1824.40002
800.89	1552.36591
801.075	1809.42054
801.261	1537.30025
801.447	1671.10335
801.633	1493.71526
801.819	1790.69689
802.005	1509.69098
802.19	1779.24667
802.376	1440.2
802.562	1708.8259
802.748	1542.37314
802.934	1661.91588
803.119	1463.36766
803.305	1739.94616
803.491	1594.27768
803.676	1578.37307
803.862	1475.57026
804.048	1600.90815
804.233	1539.73495
804.419	1618.27785
804.605	1459.20956
804.79	1695.8597
804.976	1356.91994
805.161	1637.34652
805.347	1390.31791
805.532	1592.97558
805.718	1333.95333
805.903	1621.48693
806.089	1474.71367
806.274	1547.36203
806.46	1484.86078
806.645	1591.11067
806.831	1427.57742
807.016	1631.53171
807.201	1340.17775
807.387	1669.03273
807.572	1337.23272
807.757	1569.17019
807.943	1427.68065
808.128	1533.64397
808.313	1382.31481
808.499	1462.57697
808.684	1371.80475
808.869	1548.88044
809.054	1345.06063
809.24	1581.35755
809.425	1437.83675
809.61	1570.08321
809.795	1387.73821
809.98	1473.36862
810.165	1400.79006
810.35	1468.13651
810.536	1463.84311
810.721	1476.35468
810.906	1385.59362
811.091	1523.1574
811.276	1305.50282
811.461	1412.84853
811.646	1279.74478
811.831	1489.61874
812.016	1281.33267
812.201	1373.77763
812.386	1322.41329
812.571	1392.55941
812.756	1217.41507
812.941	1415.63656
813.125	1204.65524
813.31	1441.5262
813.495	1175.39532
813.68	1296.35673
813.865	1197.97349
814.05	1264.51586
814.234	1136.83862
814.419	1359.17351
814.604	1083.11913
814.789	1272.76795
814.973	1034.65278
815.158	1276.24131
815.343	1113.49264
815.528	1119.4442
815.712	949.60558
815.897	1113.466
816.081	900.94504
816.266	1020.78166
816.451	859.59681
816.635	940.29349
816.82	738.29902
817.004	804.3194
817.189	759.82915
817.374	879.5574
817.558	645.63979
817.743	786.07797
817.927	651.12423
818.111	711.35118
818.296	543.75268
818.48	740.44575
818.665	586.89076
818.849	591.7349
819.034	532.9831
819.218	582.82097
819.402	522.98282
819.587	510.93593
819.771	419.19089
819.955	406.2146
820.14	431.4018
820.324	475.09411
820.508	458.16532
820.692	449.59684
820.877	407.42872
821.061	351.69257
821.245	393.99144
821.429	447.32984
821.613	269.07158
821.798	345.43544
821.982	252.87141
822.166	332.32624
822.35	311.98483
822.534	335.44509
822.718	317.18393
822.902	302.30655
823.086	275.4159
823.27	270.45789
823.454	184.51883
823.638	258.96939
823.822	295.55248
824.006	380.63599
824.19	224.17492
824.374	351.24279
824.558	206.10703
824.742	255.11586
824.926	304.63951
825.11	210.43755
825.294	208.23403
825.477	267.15128
825.661	160.94117
825.845	265.18992
826.029	206.64257
826.213	265.1032
826.396	142.28317
826.58	309.71331
826.764	164.71863
826.948	204.97034
827.131	162.31858
827.315	232.49462
827.499	211.42446
827.682	268.05526
827.866	241.80736
828.05	197.79627
828.233	206.02319
828.417	277.26437
828.6	233.89235
828.784	275.49642
828.967	195.29185
829.151	282.75712
829.335	180.30234
829.518	261.22139
829.701	232.60117
829.885	229.99422
830.068	279.92116
830.252	255.49661
830.435	185.98806
830.619	260.37989
830.802	163.58864
830.985	234.28178
831.169	252.39445
831.352	261.91724
831.535	143.11462
831.719	234.14863
831.902	289.54295
832.085	285.38545
832.269	254.0853
832.452	241.08613
832.635	237.84877
832.818	267.43949
833.002	198.92845
833.185	255.30275
833.368	247.22491
833.551	253.28134
833.734	230.55448
833.917	289.25957
834.1	238.54668
834.284	222.43041
834.467	195.276
834.65	246.31635
834.833	247.66811
835.016	225.20929
835.199	280.35535
835.382	240.81272
835.565	126.13136
835.748	255.95472
835.931	205.63877
836.114	246.33633
836.297	171.02664
836.479	308.84893
836.662	212.46344
836.845	245.64746
837.028	225.64829
837.211	204.48569
837.394	205.08689
837.577	229.11803
837.759	219.45283
837.942	256.14696
838.125	187.60984
838.308	252.03324
838.49	194.40117
838.673	207.24257
838.856	159.69681
839.039	144.51076
839.221	351.15611
839.404	326.54947
839.587	281.97225
839.769	186.61157
839.952	313.13274
840.134	290.32256
840.317	159.80042
840.499	266.73802
840.682	305.28474
840.865	310.81131
841.047	184.54874
841.23	246.51668
841.412	272.6359
841.595	371.55849
841.777	289.07176
841.959	354.50975
842.142	333.89099
842.324	316.66899
842.507	270.52321
842.689	230.21713
842.871	217.9823
843.054	281.93155
843.236	327.19251
843.418	270.24012
843.601	308.26417
843.783	368.8402
843.965	315.90654
844.147	360.47643
844.33	304.308
844.512	321.47799
844.694	404.30936
844.876	235.7815
845.059	276.85898
845.241	253.71653
845.423	287.57336
845.605	298.41172
845.787	313.6916
845.969	271.7123
846.151	276.74714
846.333	337.32548
846.515	270.5016
846.697	466.1563
846.879	311.78285
847.061	320.83933
847.243	291.60954
847.425	285.93682
847.607	313.94558
847.789	392.93386
847.971	300.44378
848.153	325.29264
848.335	318.99098
848.517	325.29264
848.699	337.79344
848.881	345.63161
849.062	292.58868
849.244	358.34059
849.426	310.99191
849.608	355.41356
849.789	264.39557
849.971	339.84258
850.153	324.55352
850.335	378.35994
850.516	267.15725
850.698	276.24111
850.88	372.55616
851.061	285.45322
851.243	331.95031
851.425	327.173
851.606	290.40602
851.788	193.68038
851.969	273.05366
852.151	305.11137
852.333	312.74991
852.514	295.70257
852.696	267.9022
852.877	315.55089
853.059	343.26154
853.24	333.26636
853.422	298.91843
853.603	261.76874
853.784	221.03089
853.966	254.28185
854.147	254.56954
854.329	341.08427
854.51	187.47266
854.691	203.38469
854.873	319.04296
855.054	257.95803
855.235	210.45467
855.416	181.96267
855.598	293.92894
855.779	304.56477
855.96	221.24676
856.141	326.6555
856.323	250.0319
856.504	244.98268
856.685	136.98909
856.866	268.51807
857.047	124.73677
857.228	296.13476
857.409	192.17987
857.591	217.54445
857.772	227.02922
857.953	247.30471
858.134	143.52316
858.315	134.53943
858.496	142.34104
858.677	184.2136
858.858	213.2276
859.039	225.72207
859.22	158.461
859.401	162.14724
859.582	133.26798
859.762	156.97873
859.943	207.39937
860.124	147.17154
860.305	185.03209
860.486	52.26001
860.667	258.97066
860.848	192.64967
861.028	172.40624
861.209	218.42584
861.39	137.6772
861.571	267.70196
861.751	174.69375
861.932	177.9925
862.113	172.70769
862.293	142.29473
862.474	157.51563
862.655	105.79568
862.835	161.96549
863.016	246.09201
863.197	169.66784
863.377	223.57145
863.558	171.70796
863.738	222.45335
863.919	79.05868
864.099	258.40075
864.28	170.83465
864.46	218.17334
864.641	152.70891
864.821	222.45335
865.002	141.11541
865.182	163.27605
865.363	130.75123
865.543	146.46413
865.723	138.0728
865.904	166.48767
866.084	93.28258
866.264	183.19842
866.445	156.28953
866.625	142.52738
866.805	164.98842
866.986	159.86543
867.166	152.64645
867.346	159.98293
867.526	183.34794
867.707	149.3199
867.887	176.88495
868.067	155.61123
868.247	151.41302
868.427	109.84103
868.607	164.98842
868.788	155.59849
868.968	92.72041
869.148	100.04985
869.328	98.17792
869.508	105.05624
869.688	144.17569
869.868	271.93959
870.048	142.15824
870.228	215.29416
870.408	118.72788
870.588	107.96705
870.768	209.49761
870.948	174.40901
871.128	147.07153
871.307	53.77822
871.487	68.44578
871.667	104.5352
871.847	66.99694
872.027	146.56072
872.207	49.94109
872.387	144.74638
872.566	72.91476
872.746	161.75929
872.926	84.61042
873.106	127.60154
873.285	90.94789
873.465	134.36194
873.645	228.65567
873.824	163.13819
874.004	60.70409
874.184	150.98896
874.363	110.80435
874.543	95.39278
874.723	174.9969
874.902	33.36813
875.082	153.87032
875.261	90.00378
875.441	46.50266
875.62	101.24646
875.8	57.73394
875.979	79.66812
876.159	46.05005
876.338	173.5512
876.518	95.87994
876.697	42.1302
876.876	166.06998
877.056	181.23317
877.235	2.67772
877.415	129.55984
877.594	37.25051
877.773	104.70803
877.953	66.02352
878.132	110.86798
878.311	108.08297
878.49	128.20552
878.67	100.77605
878.849	141.71855
879.028	9.50747
879.207	164.32871
879.387	89.45762
879.566	141.76548
879.745	82.08762
879.924	120.2373
880.103	66.03979
880.282	89.65064
880.461	40.69005
880.64	164.34239
880.819	140.67545
880.998	153.60024
881.178	148.19204
881.357	78.24683
881.536	87.21147
881.715	79.14904
881.893	53.90194
882.072	121.35165
882.251	97.71555
882.43	58.75085
882.609	127.69691
882.788	136.81743
882.967	112.48489
883.146	149.29053
883.325	-2.19483
883.503	121.74798
883.682	26.09234
883.861	120.94497
884.04	137.89341
884.219	38.7421
884.397	7.56811
884.576	17.29623
884.755	140.31657
884.933	18.28389
885.112	14.38784
885.291	66.10518
885.469	123.76762
885.648	77.89529
885.827	19.26826
886.005	12.92606
886.184	64.63785
886.363	82.26397
886.541	-1.21983
886.72	7.07696
886.898	64.61116
887.077	12.92712
887.255	48.04515
887.434	149.31549
887.612	125.75824
887.791	53.91085
887.969	88.13575
888.147	85.61971
888.326	28.04224
888.504	84.22804
888.682	73.48098
888.861	78.7857
889.039	0.73157
889.218	8.04896
889.396	23.15578
889.574	68.10516
889.752	121.38197
889.931	90.64896
890.109	65.18457
890.287	60.75931
890.465	109.99478
890.643	63.69488
890.822	45.10215
891	83.77532
891.178	96.91046
891.356	51.95674
891.534	90.14598
891.712	101.26323
891.89	90.52833
892.068	104.29013
892.247	67.6119
892.425	76.88147
892.603	65.62872
892.781	59.81404
892.959	21.71896
893.137	56.43228
893.314	27.56845
893.492	45.15442
893.67	4.14193
893.848	69.04607
894.026	184.03189
894.204	71.04269
894.382	45.09101
894.56	34.42413
894.738	35.86428
894.915	111.56627
895.093	69.04035
895.271	-15.85651
895.449	69.59121
895.626	-18.76312
895.804	15.36557
895.982	61.72412
896.16	40.76068
896.337	41.24164
896.515	121.83898
896.693	40.74378
896.87	-11.94666
897.048	85.69787
897.225	91.97488
897.403	36.3339
897.581	5.12444
897.758	-1.21933
897.936	-12.92958
898.113	24.65842
898.291	53.97806
898.468	119.05404
898.646	-43.6401
898.823	-5.12067
899.001	-17.32349
899.178	107.28731
899.356	-8.53847
899.533	98.02422
899.71	37.34888
899.888	50.08602
900.065	-11.95555
900.242	-47.07155
900.42	-6.1022
900.597	55.93949
900.774	32.96284
900.952	-7.57385
901.129	82.27081
901.306	16.8355
901.483	-20.73201
901.661	29.54373
901.838	-23.16437
902.015	49.65186
902.192	40.78102
902.369	-4.14867
902.546	91.25931
902.723	16.35851
902.901	36.39121
903.078	55.9957
903.255	-46.62199
903.432	-29.08696
903.609	16.8678
903.786	49.17965
903.963	-13.91949
904.14	-72.48582
904.317	-10.50531
904.494	17.34207
904.671	-17.81605
904.848	7.56874
905.024	17.35367
905.201	54.04133
905.378	10.9899
905.555	14.40454
905.732	-25.13668
905.909	55.46529
906.086	-17.33644
906.262	-16.35811
906.439	103.40128
906.616	-30.50088
906.793	22.71928
906.969	55.51178
907.146	67.73055
907.323	15.39241
907.5	-17.81162
907.676	-13.92996
907.853	-38.31101
908.03	12.45906
908.206	4.15604
908.383	37.39251
908.559	44.23412
908.736	20.78127
908.912	-75.88819
909.089	-57.82779
909.266	1.70967
909.442	-126.52209
909.619	68.71323
909.795	1.22079
909.972	18.80713
910.148	-95.5525
910.324	53.54373
910.501	-10.01996
910.677	-27.59663
910.854	97.03178
911.03	-27.60353
911.206	78.01265
911.383	9.03795
911.559	-62.7286
911.735	29.0799
911.912	-1.22156
912.088	35.39423
912.264	19.80532
912.44	40.2896
912.617	-36.81857
912.793	80.97727
912.969	69.597
913.145	1.70881
913.321	43.73108
913.498	-28.08764
913.674	68.23047
913.85	34.42986
914.026	-28.55972
914.202	75.03142
914.378	82.82046
914.554	-13.92646
914.73	-4.64413
914.906	-9.0332
915.082	-16.37312
915.258	48.62537
915.434	-38.35246
915.61	28.58184
915.786	86.30071
915.962	-2.19866
916.138	14.42017
916.314	6.10601
916.49	-49.58248
916.665	-9.03621
916.841	-16.35403
917.017	-42.71364
917.193	25.19492
917.369	4.64612
917.545	-6.11291
917.72	-50.05888
917.896	3.17608
918.072	11.97157
918.247	4.64534
918.423	-16.36219
918.599	87.32115
918.775	-55.91572
918.95	-9.52951
919.126	50.60812
919.301	-71.06102
919.477	43.25005
919.653	-32.00296
919.828	-19.78726
920.004	-47.61896
920.179	61.34897
920.355	-40.76982
920.53	35.89108
920.706	-1.22095
920.881	-62.71299
921.057	8.05698
921.232	-20.27939
921.408	10.50505
921.583	32.0027
921.759	32.97383
921.934	-75.51264
922.109	25.16957
922.285	-0.24414
922.46	-19.78231
922.635	-121.67653
922.811	-10.01077
922.986	38.35983
923.161	-83.28822
923.336	-68.55924
923.512	-115.97604
923.687	47.14864
923.862	-4.63794
924.037	70.20225
924.212	27.12585
924.388	8.55305
924.563	-111.58205
924.738	29.10184
924.913	0.24429
925.088	-56.94085
925.263	31.03641
925.438	-50.50571
925.613	-14.40802
925.788	-55.89248
925.963	-4.63987
926.138	-5.62147
926.313	-21.23936
926.488	9.0387
926.663	24.66869
926.838	-24.18423
927.013	10.99356
927.188	105.75293
927.363	40.81166
927.538	-22.23664
927.713	48.65796
927.888	21.26472
928.062	20.78651
928.237	33.0014
928.412	38.87093
928.587	-7.57512
928.761	-22.71985
928.936	50.09858
929.111	-0.73397
929.286	60.78453
929.46	-31.51411
929.635	11.48016
929.81	28.60098
929.984	9.03719
930.159	-28.12056
930.334	-3.17483
930.508	113.4374
930.683	29.06775
930.857	-11.477
931.032	30.08208
931.206	32.03487
931.381	59.39064
931.556	-20.27431
931.73	-14.41403
931.904	47.18416
932.079	38.87746
932.253	-9.03697
932.428	-42.22864
932.602	-6.11393
932.777	22.22346
932.951	-2.20068
933.125	-44.66404
933.3	-57.37742
933.474	-10.02668
933.648	55.01853
933.823	-32.93413
933.997	61.84765
934.171	10.01318
934.345	40.85966
934.52	-1.22115
934.694	-18.82397
934.868	-16.36083
935.042	34.93833
935.217	60.38243
935.391	12.47473
935.565	-7.09228
935.739	-24.20245
935.913	16.38865
936.087	-51.01103
936.261	-29.06994
936.435	13.45292
936.609	18.32184
936.783	-44.23819
936.957	-10.01828
937.131	-5.62524
937.305	-13.45122
937.479	15.89156
937.653	112.26931
937.827	51.58952
938.001	-19.28888
938.175	-10.9977
938.349	-15.39022
938.523	-44.73863
938.697	19.31484
938.87	-10.51059
939.044	-43.24174
939.218	5.12956
939.392	7.57759
939.566	59.90405
939.739	-86.15896
939.913	-48.63309
940.087	28.11938
940.261	-128.03019
940.434	36.45532
940.608	-21.23936
940.782	-30.511
940.955	-9.03772
941.129	-5.12917
941.302	-71.56194
941.476	28.1241
941.65	-65.63361
941.823	-39.3434
941.997	75.06917
942.17	16.37902
942.344	-7.57575
942.517	-51.06203
942.691	-23.68165
942.864	-99.75953
943.038	-38.84784
943.211	-101.72261
943.385	-58.33563
943.558	-21.74592
943.731	-29.04816
943.905	-5.13389
944.078	-25.64203
944.251	-30.55685
944.425	-36.39394
944.598	-19.30336
944.771	3.66744
944.945	123.49693
945.118	-2.68772
945.291	-0.2441
945.464	-44.72738
945.638	16.86498
945.811	-7.08871
945.984	-47.14195
946.157	-5.13175
946.33	33.50691
946.503	-99.41111
946.677	3.66682
946.85	-96.00195
947.023	-37.86042
947.196	60.39763
947.369	-21.74956
947.542	29.10919
947.715	8.55234
947.888	25.178
948.061	-16.84095
948.234	-107.56118
948.407	-38.85109
948.58	-21.27488
948.753	45.25265
948.926	-12.94571
949.099	22.74212
949.271	-5.13346
949.444	-62.30215
949.617	-19.81548
949.79	10.02155
949.963	-33.97268
950.136	-83.71471
950.308	11.48783
950.481	-18.81609
950.654	-27.09894
950.827	8.06302
950.999	-86.15181
951.172	-32.96421
951.345	-53.50296
951.517	-70.09475
951.69	-10.01577
951.863	50.60812
952.035	-100.33966
952.208	16.39279
952.381	-6.11496
952.553	29.60565
952.726	22.2551
952.898	7.57759
953.071	-26.59941
953.243	-5.62147
953.416	-87.68396
953.588	3.17794
953.761	-23.23784
953.933	22.72878
954.106	-23.21252
954.278	-24.71027
954.45	-57.40132
954.623	3.17449
954.795	-1.71005
954.967	-88.1072
955.14	-10.02837
955.312	24.68932
955.484	-3.66975
955.657	21.24873
955.829	-10.51059
956.001	29.59319
956.173	13.94552
956.346	-42.26735
956.518	-103.75499
956.69	34.50496
956.862	-12.47694
957.034	54.0595
957.207	-8.05651
957.379	-8.55484
957.551	68.72477
957.723	-28.10407
957.895	9.04475
958.067	-47.16558
958.239	-6.11188
958.411	-38.85109
958.583	29.10674
958.755	49.55648
958.927	-6.11445
959.099	0.73279
959.271	-7.0905
959.443	44.24523
959.615	-14.42005
959.787	-15.39279
959.959	2.20015
960.13	-55.36259
960.302	-61.81816
960.474	95.04785
960.646	30.57353
960.818	48.67432
960.99	-145.60811
961.161	-99.98402
961.333	-11.48851
961.505	-54.95183
961.677	1.71138
961.848	-9.5319
962.02	7.5795
962.192	35.4415
962.363	-22.72554
962.535	21.27542
962.707	-52.06193
962.878	-26.63933
963.05	15.88756
963.221	-60.80426
963.393	-83.31603
963.564	-56.90284
963.736	72.19316
963.907	-41.78185
964.079	83.00167
964.25	26.16852
964.422	-105.15258
964.593	-4.15351
964.765	-44.73113
964.936	35.93005
965.108	-20.29128
965.279	-55.91106
965.45	35.93005
965.622	11.00369
965.793	28.59618
965.964	-37.34671
966.136	-29.54152
966.307	8.55807
966.478	-12.4696
966.65	-45.69433
966.821	-67.59339
966.992	-17.35237
967.163	-107.15235
967.334	-22.72554
967.506	-9.52236
967.677	-9.04225
967.848	37.41761
968.019	-50.58143
968.19	-25.68717
968.361	-51.01951
968.532	-24.69159
968.703	11.49555
968.874	-20.77692
969.045	14.42017
969.216	20.76562
969.387	8.05966
969.558	39.8783
969.729	5.61804
969.9	5.62227
970.071	-22.74269
970.242	-42.74921
970.413	17.8349
970.584	-45.23175
970.755	-82.75769
970.926	-23.20283
971.097	-63.71127
971.267	-33.42785
971.438	-45.66384
971.609	-85.21665
971.78	-31.50885
971.951	-59.3971
972.121	-71.07286
972.292	-45.19768
972.463	-0.73317
972.633	50.57847
972.804	70.72065
972.975	-78.33159
973.145	22.25136
973.316	-34.4445
973.487	-101.25904
973.657	-54.43121
973.828	-29.55875
973.998	-35.94723
974.169	25.67529
974.339	-53.53879
974.51	-31.00459
974.68	-23.22418
974.851	-44.15724
975.021	-35.40454
975.192	-19.78561
975.362	-5.61959
975.533	23.21349
975.703	24.70591
975.874	-94.93631
976.044	38.89052
976.214	-16.36765
976.385	-13.44558
976.555	-105.69399
976.725	44.28988
976.896	-2.19995
977.066	2.68995
977.236	79.93956
977.406	-1.71192
977.577	3.17954
977.747	-71.12633
977.917	-3.17722
978.087	-33.97837
978.257	3.66376
978.427	40.82534
978.598	26.64625
978.768	5.14034
978.938	-41.79934
979.108	-74.46552
979.278	32.0134
979.448	-39.82581
979.618	-33.96984
979.788	-29.56122
979.958	-11.48466
980.128	-4.64219
980.298	8.05832
980.468	37.89686
980.638	71.58403
980.808	-61.33409
980.978	-35.90214
981.148	-84.69942
981.317	-83.21898
981.487	-25.66991
981.657	8.54948
981.827	-28.12529
981.997	33.99006
982.167	-18.3472
982.336	-10.01494
982.506	-64.20001
982.676	25.16116
982.846	-58.37934
983.015	18.82128
983.185	-14.41523
983.355	63.8548
983.524	-64.71568
983.694	-24.66478
983.864	-16.87049
984.033	-47.12232
984.203	-61.81299
984.372	72.65138
984.542	60.42811
984.712	14.91762
984.881	-16.37039
985.051	-12.45294
985.22	-46.66083
985.39	-62.79657
985.559	-40.81747
985.728	-1.71062
985.898	29.57829
986.067	-56.8981
986.237	41.785
986.406	14.42743
986.576	-52.06629
986.745	72.66362
986.914	-56.47053
987.084	-41.28593
987.253	-6.59812
987.422	-41.80985
987.591	-52.51171
987.761	-37.84465
987.93	-66.70498
988.099	-44.6826
988.268	27.15547
988.438	-51.54249
988.607	32.51822
988.776	63.32343
988.945	-13.4321
989.114	-20.28618
989.283	-38.37813
989.452	-3.66513
989.621	-89.09233
989.791	-0.7333
989.96	58.47781
990.129	-52.05322
990.298	-38.85759
990.467	-40.35199
990.636	36.40945
990.805	-0.24435
990.974	-55.85083
991.142	13.92332
991.311	-79.34853
991.48	-2.6893
991.649	-54.48565
991.818	-82.77834
991.987	-112.48582
992.156	-11.97548
992.325	-93.97414
992.493	-40.77321
992.662	69.69604
992.831	5.13385
993	-31.02526
993.168	6.59995
993.337	-62.28655
993.506	-65.64449
993.675	8.05966
993.843	37.42705
994.012	-26.14375
994.181	-3.17483
994.349	-68.60478
994.518	-40.3283
994.686	22.26446
994.855	-27.60584
995.024	61.41084
995.192	-20.28109
995.361	18.83234
995.529	-42.75635
995.698	-102.30467
995.866	-74.95445
996.035	-14.41042
996.203	-1.22299
996.371	75.57028
996.54	-15.38125
996.708	44.27124
996.877	-23.69151
997.045	7.08818
997.213	-28.10407
997.382	19.80034
997.55	-37.40913
997.718	22.74785
997.887	-116.43629
998.055	-48.13586
998.223	24.19252
998.391	-91.60566
998.56	6.10958
998.728	-77.90762
998.896	5.1317
999.064	54.04133
999.232	-42.74208
999.401	11.00462
999.569	-76.37053
999.737	17.85284
999.905	51.56359
1000.073	32.55658
1000.241	-28.08062
1000.409	-16.37724
1000.577	-38.83811
1000.745	21.27721
1000.913	4.15361
1001.081	-19.30659
1001.249	-25.63137
1001.417	-60.80932
1001.585	77.51117
1001.753	-41.80284
1001.921	3.17555
1002.089	13.93497
1002.256	-32.9752
1002.424	9.53278
1002.592	13.92798
1002.76	-5.13691
1002.928	17.35367
1003.096	7.08285
1003.263	18.83234
1003.431	29.08476
1003.599	38.86116
1003.767	22.25884
1003.934	-27.12381
1004.102	-12.46125
1004.27	10.01235
1004.437	21.27363
1004.605	-10.02164
1004.773	10.51738
1004.94	16.38865
1005.108	-56.91707
1005.275	-20.2625
1005.443	-22.20703
1005.61	-7.08812
1005.778	-14.42852
1005.945	-47.58336
1006.113	-5.13648
1006.28	-129.65778
1006.448	-28.60026
1006.615	-30.55942
1006.783	-72.01504
1006.95	-0.73404
1007.118	53.57524
1007.285	-92.01072
1007.452	-92.09499
1007.62	61.85284
1007.787	33.49565
1007.954	17.85284
1008.122	-67.6948
1008.289	-18.32108
1008.456	-76.47864
1008.623	-64.29115
1008.791	2.19923
1008.958	-7.09407
1009.125	41.307
1009.292	-38.38135
1009.459	74.19861
1009.627	-35.46083
1009.794	-3.66513
1009.961	-15.87628
1010.128	-17.35237
1010.295	-12.46855
1010.462	71.17349
1010.629	-56.87444
1010.796	-27.11928
1010.963	-10.99311
1011.13	-36.42439
1011.297	75.55124
1011.464	9.53438
1011.631	-18.82554
1011.798	68.7769
1011.965	65.76008
1012.132	7.09533
1012.299	-35.87528
1012.466	56.51277
1012.633	-17.83684
1012.799	44.72626
1012.966	-48.60467
1013.133	84.93601
1013.3	-93.55524
1013.467	13.92216
1013.633	-16.88184
1013.8	11.4792
1013.967	32.01876
1014.134	-39.34998
1014.3	-83.26741
1014.467	-59.33267
1014.634	-83.84046
1014.8	-1.71062
1014.967	-19.78231
1015.134	-16.85216
1015.3	31.03641
1015.467	-35.41929
1015.633	89.79359
1015.8	-9.5327
1015.966	-43.2707
1016.133	-16.85779
1016.3	48.14513
1016.466	-51.0663
1016.632	-20.27601
1016.799	-13.92996
1016.965	-21.2624
1017.132	-33.95281
1017.298	-28.58113
1017.465	40.36387
1017.631	16.8678
1017.797	-38.8446
1017.964	28.60337
1018.13	54.09598
1018.296	40.81508
1018.463	-7.08931
1018.629	-33.96415
1018.795	-41.25842
1018.961	-56.43275
1019.128	-20.29639
1019.294	-35.87231
1019.46	-30.0526
1019.626	50.60812
1019.792	-10.52385
1019.959	-95.85059
1020.125	-53.92469
1020.291	0.24418
1020.457	2.68927
1020.623	-31.99229
1020.789	-22.72935
1020.955	-0.24433
1021.121	-54.52673
1021.287	37.89051
1021.453	-21.74956
1021.619	-41.26872
1021.785	32.98484
1021.951	-66.15507
1022.117	7.09056
1022.283	28.1312
1022.449	-50.10068
1022.615	17.83788
1022.781	-71.9971
1022.946	9.53517
1023.112	22.76128
1023.278	-52.93903
1023.444	21.75885
1023.61	-57.39653
1023.775	25.14649
1023.941	2.6886
1024.107	-72.06304
1024.273	53.61594
1024.438	-11.00416
1024.604	-44.65663
1024.77	16.36806
1024.935	-48.62903
1025.101	-57.40132
1025.267	-12.95871
1025.432	45.22606
1025.598	-97.42136
1025.763	61.84765
1025.929	-8.06525
1026.095	-48.62903
1026.26	56.94896
1026.426	-34.44738
1026.591	-29.55382
1026.757	1.22315
1026.922	-57.87103
1027.087	-0.24421
1027.253	-44.23819
1027.418	-73.0292
1027.584	-7.07984
1027.749	-1.7102
1027.914	-50.50153
1028.08	40.34013
1028.245	-60.37079
1028.41	39.37607
1028.576	-21.74774
1028.741	-48.11979
1028.906	-49.11817
1029.072	-33.95565
1029.237	-19.80383
1029.402	-1.22197
1029.567	0.73279
1029.732	6.10907
1029.898	-25.65273
1030.063	27.13949
1030.228	-51.55971
1030.393	18.33718
1030.558	-10.51235
1030.723	-123.28553
1030.888	-9.5311
1031.053	-16.36492
1031.218	-72.01504
1031.383	-15.9056
1031.548	5.61664
1031.713	-16.86342
1031.878	0.73352
1032.043	45.79559
1032.208	-22.71795
1032.373	14.42501
1032.538	26.66416
1032.703	2.6895
1032.868	9.53918
1033.033	-54.00556
1033.198	-9.0415
1033.362	-31.03044
1033.527	-67.64396
1033.692	-57.89516
1033.857	-7.08871
1034.021	-30.06014
1034.186	46.26932
1034.351	-68.15566
1034.516	-61.27786
1034.68	-37.87307
1034.845	-43.21293
1035.01	-33.46959
1035.174	-43.2925
1035.339	-56.4469
1035.504	-38.37813
1035.668	-45.18637
1035.833	-78.85957
1035.997	60.8964
1036.162	-30.03756
1036.326	-52.52486
1036.491	-50.5561
1036.655	20.77953
1036.82	16.87063
1036.984	-130.06076
1037.149	23.22126
1037.313	-48.12782
1037.478	20.78476
1037.642	-16.84795
1037.807	58.45812
1037.971	-18.33334
1038.135	32.51549
1038.3	-93.04265
1038.464	20.27888
1038.628	14.41535
1038.792	70.69087
1038.957	-47.62689
1039.121	-15.87893
1039.285	3.17741
1039.449	-29.56122
1039.614	-3.17616
1039.778	-14.90525
1039.942	-5.13003
1040.106	-32.48912
1040.27	-57.45898
1040.434	-9.52236
1040.599	-37.40285
1040.763	18.83234
1040.927	34.00722
1041.091	-3.66575
1041.255	-76.94869
1041.419	-86.15896
1041.583	1.22141
1041.747	-58.37934
1041.911	-7.57892
1042.075	-58.88311
1042.239	36.43386
1042.403	-38.82517
1042.567	-28.5859
1042.731	-32.02171
1042.894	-19.30983
1043.058	-20.28109
1043.222	-116.56252
1043.386	12.95621
1043.55	-27.13972
1043.714	20.80226
1043.877	-38.38135
1044.041	-63.20155
1044.205	-37.81953
1044.369	-58.86836
1044.532	21.74428
1044.696	-43.2562
1044.86	16.85652
1045.023	3.17767
1045.187	-85.77726
1045.351	-54.46746
1045.514	-53.96053
1045.678	32.51549
1045.841	26.64401
