Data from Subt1__1__18-43-28-564.txt Node

Date: Tue Oct 07 18:43:28 EDT 2025
User: brett
Spectrometer: USB4F03499
Trigger mode: 4
Integration Time (sec): 1.230000E-3
Scans to average: 1
Electric dark correction enabled: true
Nonlinearity correction enabled: true
Boxcar width: 0
XAxis mode: Wavelengths
Number of Pixels in Spectrum: 3648
>>>>>Begin Spectral Data<<<<<
345.386	-20.38929
345.605	-20.38929
345.824	-20.38929
346.044	-2.35118
346.263	16.82173
346.482	-2.35172
346.701	-1.22245
346.92	57.43278
347.139	-24.9186
347.358	-1.22235
347.577	17.95672
347.796	23.60169
348.015	3.29031
348.234	-17.03541
348.453	-72.31947
348.672	21.33917
348.891	-4.6067
349.11	-7.99508
349.329	5.54502
349.548	-38.45928
349.767	36.01444
349.986	19.07201
350.205	-1.22282
350.424	-14.76338
350.643	-38.48465
350.862	6.67012
351.08	-13.6347
351.299	16.82433
351.518	-3.47765
351.737	-17.0064
351.956	-18.14054
352.174	22.459
352.393	-4.60138
352.612	-7.98828
352.831	3.29018
353.049	-13.63259
353.268	-14.77312
353.487	-0.09392
353.705	-44.07994
353.924	6.67398
354.143	10.06244
354.361	25.84145
354.58	31.48262
354.798	4.41509
355.017	-14.76224
355.236	14.57531
355.454	-28.29884
355.673	13.45133
355.891	8.92515
356.11	30.3719
356.328	12.31563
356.547	-11.37353
356.765	-6.86384
356.984	15.69613
357.202	-6.85854
357.42	-93.74881
357.639	-20.39007
357.857	12.31468
358.076	13.44092
358.294	32.59591
358.512	14.57136
358.731	67.53382
358.949	42.76164
359.167	4.41492
359.386	-39.56092
359.604	-9.1134
359.822	1.03426
360.04	22.47289
360.259	30.3719
360.477	12.31182
360.695	45.01026
360.913	1.03302
361.131	10.05312
361.35	60.82965
361.568	16.81849
361.786	4.41441
362.004	14.55901
362.222	31.48262
362.44	-33.92213
362.658	-36.18711
362.876	29.22715
363.094	41.61541
363.312	-24.91378
363.53	-30.55996
363.749	1.03462
363.967	38.23725
364.184	39.37298
364.402	-1.22145
364.62	47.26547
364.838	47.22732
365.056	43.85986
365.274	13.43833
365.492	10.0481
365.71	-36.1523
365.928	60.80615
366.146	12.30992
366.364	-26.03139
366.581	38.22842
366.799	14.56125
367.017	31.47413
367.235	79.92461
367.453	39.38362
367.67	46.10328
367.888	-29.41284
368.106	52.86385
368.323	-5.72879
368.541	55.13219
368.759	12.30377
368.977	20.18971
369.194	24.72002
369.412	47.25091
369.629	76.50683
369.847	26.93337
370.065	38.21081
370.282	47.27276
370.5	55.12161
370.717	76.52737
370.935	-5.72857
371.152	35.94658
371.37	100.18036
371.588	70.96031
371.805	41.56439
372.022	48.36237
372.24	86.67346
372.457	50.60838
372.675	95.626
372.892	69.76397
373.11	56.26467
373.327	72.0479
373.544	66.36974
373.762	59.56515
373.979	73.11757
374.196	35.94795
374.414	91.26869
374.631	109.18966
374.848	43.84975
375.066	73.17934
375.283	61.88508
375.5	38.21668
375.717	113.54005
375.935	119.45116
376.152	123.90981
376.369	81.0719
376.586	46.0399
376.803	111.35346
377.02	70.83511
377.238	57.3687
377.455	88.88287
377.672	58.46071
377.889	77.67056
378.106	91.14942
378.323	141.84343
378.54	83.19895
378.757	61.84714
378.974	52.85169
379.191	154.29711
379.408	51.74205
379.625	79.78119
379.842	129.32096
380.059	104.59903
380.276	102.36709
380.493	134.99664
380.71	79.8481
380.927	119.24958
381.143	146.31022
381.36	105.69857
381.577	114.77232
381.794	103.38865
382.011	94.48363
382.228	107.97418
382.444	148.49455
382.661	149.60597
382.878	130.40911
383.095	153.02065
383.311	140.56921
383.528	167.70492
383.745	107.9536
383.962	123.65419
384.178	143.97533
384.395	106.8505
384.612	130.43391
384.828	123.70124
385.045	132.7806
385.261	191.10366
385.478	182.14049
385.695	158.5623
385.911	141.76749
386.128	142.80898
386.344	98.91946
386.561	210.12442
386.777	121.42267
386.994	167.48785
387.21	124.79578
387.427	116.94427
387.643	124.76733
387.86	149.66308
388.076	133.8224
388.292	162.0523
388.509	115.86084
388.725	156.38928
388.942	197.92714
389.158	113.62229
389.374	172.05866
389.591	125.87072
389.807	128.20781
390.023	132.58873
390.239	128.17365
390.456	159.61172
390.672	164.22289
390.888	146.19303
391.104	197.64261
391.321	167.36742
391.537	210.0292
391.753	170.70374
391.969	237.00675
392.185	253.94446
392.401	322.23099
392.618	226.8546
392.834	206.63088
393.05	252.549
393.266	270.36349
393.482	233.52553
393.698	258.18778
393.914	350.27738
394.13	252.51109
394.346	257.25362
394.562	182.96442
394.778	214.62121
394.994	252.41648
395.21	308.44083
395.426	279.44646
395.642	293.88215
395.858	376.7939
396.073	300.4802
396.289	299.75665
396.505	318.56876
396.721	297.13198
396.937	377.45954
397.153	320.84901
397.369	312.7539
397.584	413.66726
397.8	364.40664
398.016	331.95994
398.232	348.72977
398.447	321.88103
398.663	424.53474
398.879	299.55433
399.094	369.73291
399.31	377.75383
399.526	366.62259
399.741	424.15868
399.957	436.46558
400.173	417.58
400.388	499.49245
400.604	409.67274
400.82	445.14368
401.035	535.21537
401.251	591.04092
401.466	442.05508
401.682	631.07308
401.897	630.6614
402.113	616.33444
402.328	639.80335
402.544	755.59081
402.759	660.03026
402.974	710.27201
403.19	685.23925
403.405	896.75198
403.621	931.04277
403.836	929.71935
404.051	1059.99058
404.267	1056.32397
404.482	1046.93192
404.697	1070.25934
404.913	1079.32629
405.128	1313.4175
405.343	1108.9465
405.559	1225.79298
405.774	1231.80994
405.989	1413.45028
406.204	1362.40762
406.42	1413.06733
406.635	1385.07458
406.85	1313.94798
407.065	1403.57089
407.28	1515.92795
407.495	1490.33092
407.71	1467.17784
407.926	1436.5088
408.141	1789.17315
408.356	1565.2966
408.571	1639.91095
408.786	1489.64488
409.001	1550.12551
409.216	1717.95383
409.431	1715.29866
409.646	1708.3703
409.861	1722.37344
410.076	1636.74056
410.291	1674.75782
410.506	1699.76147
410.721	1697.22428
410.936	1705.12682
411.15	1669.60558
411.365	1713.78776
411.58	1725.24323
411.795	1702.0711
412.01	1844.77755
412.225	1780.86571
412.439	1814.61668
412.654	1862.12644
412.869	1860.28416
413.084	1849.43324
413.299	1857.32478
413.513	1608.61497
413.728	1823.26149
413.943	1883.97492
414.157	1929.84432
414.372	1888.9627
414.587	1936.21497
414.801	2018.70912
415.016	1996.27768
415.231	1975.60245
415.445	2017.64713
415.66	1994.97652
415.874	2232.22468
416.089	1991.3985
416.304	2263.54664
416.518	2149.22444
416.733	2213.9897
416.947	2023.18179
417.162	1999.68024
417.376	2137.69338
417.59	2352.12738
417.805	2328.9954
418.019	2197.89111
418.234	2233.18304
418.448	2094.63879
418.663	2250.037
418.877	2262.92538
419.091	2305.27579
419.306	2229.54461
419.52	2353.52225
419.734	2246.14109
419.949	2361.40591
420.163	2486.05331
420.377	2269.26043
420.591	2416.33522
420.806	2382.17512
421.02	2371.2201
421.234	2431.22477
421.448	2348.65671
421.663	2400.17878
421.877	2363.03631
422.091	2249.04602
422.305	2426.96266
422.519	2476.83552
422.733	2599.66558
422.947	2323.91685
423.161	2412.57409
423.376	2421.42597
423.59	2531.77952
423.804	2413.1234
424.018	2509.88309
424.232	2465.70408
424.446	2680.50011
424.66	2556.00306
424.874	2442.93677
425.088	2340.56624
425.302	2487.67393
425.515	2637.31354
425.729	2636.22948
425.943	2604.39051
426.157	2709.96851
426.371	2537.72499
426.585	2685.43816
426.799	2673.38297
427.013	2784.89373
427.226	2923.70354
427.44	2630.95124
427.654	2533.59909
427.868	2686.29538
428.081	2682.64152
428.295	2673.22761
428.509	2654.09023
428.723	2618.93905
428.936	2667.40276
429.15	2590.49326
429.364	2654.4765
429.577	2539.75966
429.791	2570.2926
430.005	2776.68523
430.218	2718.50218
430.432	2700.96356
430.645	2492.64917
430.859	2558.25799
431.073	2600.55296
431.286	2798.76642
431.5	2902.78032
431.713	2519.37749
431.927	2555.40111
432.14	2761.50732
432.354	2577.94777
432.567	2668.36475
432.781	2723.71447
432.994	2804.40952
433.207	2829.86183
433.421	2832.92934
433.634	2802.47123
433.848	2908.47181
434.061	2744.76517
434.274	2581.40574
434.488	2622.91333
434.701	2595.38275
434.914	2674.35541
435.127	2777.80278
435.341	2755.94528
435.554	2866.67689
435.767	3130.40188
435.98	3021.94825
436.194	2813.50965
436.407	2863.29114
436.62	3151.73902
436.833	3169.5981
437.046	3032.77471
437.259	2871.63066
437.473	3164.31371
437.686	3125.80628
437.899	3008.21309
438.112	3279.85826
438.325	2970.98792
438.538	3173.59924
438.751	3456.8848
438.964	3378.44858
439.177	3260.55819
439.39	3301.04167
439.603	3541.29407
439.816	3361.36004
440.029	3773.94004
440.242	3840.50947
440.455	3908.13823
440.668	3751.67741
440.881	3467.79031
441.094	3493.89282
441.306	3723.55926
441.519	4023.3012
441.732	4025.51647
441.945	3937.65038
442.158	3804.79945
442.37	3764.4309
442.583	4094.807
442.796	4300.31009
443.009	4217.99182
443.222	4091.62729
443.434	3731.90786
443.647	4234.80893
443.86	4448.15023
444.072	4578.94926
444.285	4293.4951
444.498	4582.59276
444.71	4287.74942
444.923	4384.20486
445.136	4256.63836
445.348	4240.21489
445.561	4219.34385
445.773	4416.09884
445.986	4019.91924
446.198	4606.03161
446.411	4475.98314
446.623	4633.3629
446.836	4532.01734
447.048	4583.53012
447.261	4821.89404
447.473	4774.45092
447.686	4515.84286
447.898	4651.87684
448.11	4897.44408
448.323	5094.64348
448.535	4893.49338
448.748	4746.14812
448.96	4647.69366
449.172	4822.32981
449.385	4434.87636
449.597	5043.00897
449.809	4928.69202
450.021	5036.41189
450.234	5112.38285
450.446	4825.89789
450.658	4900.59045
450.87	4993.4359
451.083	5043.94141
451.295	5095.61385
451.507	4901.51577
451.719	5063.9968
451.931	5100.12322
452.143	5080.76321
452.356	4952.50546
452.568	5133.04451
452.78	5149.25717
452.992	5275.41509
453.204	5399.09795
453.416	5180.98219
453.628	5005.49601
453.84	5199.73442
454.052	5098.86361
454.264	5374.09123
454.476	5279.31737
454.688	5690.01759
454.9	5702.08748
455.112	5383.73008
455.324	5147.4386
455.536	5445.58351
455.747	5551.44041
455.959	5586.81871
456.171	5624.34079
456.383	5423.18794
456.595	5195.80287
456.807	5331.97681
457.018	5189.11143
457.23	5626.81139
457.442	5356.98891
457.654	5662.6609
457.865	5518.06704
458.077	5445.60279
458.289	5282.96048
458.501	5553.40184
458.712	5698.63399
458.924	5989.95612
459.136	5571.86924
459.347	5580.11678
459.559	5497.46323
459.77	5872.08311
459.982	5766.36386
460.194	5987.98766
460.405	5607.12183
460.617	5614.76985
460.828	5847.0747
461.04	5967.25532
461.251	5618.80142
461.463	6410.69862
461.674	6030.82685
461.886	6014.08982
462.097	5778.14253
462.309	6128.1055
462.52	5767.08221
462.731	6391.5157
462.943	5872.65659
463.154	5718.0229
463.366	5762.95929
463.577	6100.53376
463.788	6206.26671
464	6417.46521
464.211	6336.8462
464.422	6841.60178
464.634	6632.01737
464.845	6527.47327
465.056	6707.58685
465.267	6621.24655
465.478	6133.6262
465.69	6561.53695
465.901	6529.22893
466.112	6573.05277
466.323	6607.54506
466.534	6874.95609
466.745	6949.87293
466.957	6859.97768
467.168	6874.4858
467.379	6885.29711
467.59	6466.46636
467.801	6500.69099
468.012	6778.30795
468.223	6822.07349
468.434	6715.24518
468.645	7304.73189
468.856	7161.46756
469.067	7100.90304
469.278	7053.91363
469.489	7267.22033
469.7	6879.98016
469.911	7020.1107
470.122	7400.60225
470.333	7755.83069
470.543	7118.52514
470.754	7516.45976
470.965	7396.82939
471.176	7510.39557
471.387	7700.7578
471.598	7643.91908
471.808	7386.7696
472.019	7745.40022
472.23	7579.92102
472.441	7428.27501
472.651	7749.85352
472.862	7645.15683
473.073	7842.16118
473.283	7832.54009
473.494	7679.56762
473.705	7719.23307
473.915	7885.63955
474.126	8319.01831
474.337	7982.42172
474.547	8358.38066
474.758	8499.85657
474.968	8403.02209
475.179	8405.33398
475.389	8236.26676
475.6	8316.24452
475.81	8605.90412
476.021	8791.66806
476.231	8805.84227
476.442	8664.37418
476.652	8615.41983
476.863	8635.08651
477.073	8668.48892
477.284	8798.35337
477.494	8872.44337
477.704	9353.04913
477.915	9542.25321
478.125	8991.87695
478.335	9286.52944
478.546	9602.23276
478.756	9429.80518
478.966	9657.69624
479.177	9510.94086
479.387	9762.27106
479.597	9885.99479
479.807	9751.80158
480.018	9637.1284
480.228	9906.20505
480.438	10107.72234
480.648	10203.61449
480.858	10322.11008
481.068	9997.79555
481.279	10232.37478
481.489	10759.96898
481.699	10786.20364
481.909	10343.32835
482.119	11165.03145
482.329	10857.57804
482.539	11113.01381
482.749	10896.77722
482.959	11206.79279
483.169	11569.5533
483.379	11432.9297
483.589	11588.82326
483.799	11491.53409
484.009	11410.35901
484.219	11636.43154
484.429	11800.86792
484.639	11562.81956
484.849	11795.49516
485.059	12132.26736
485.268	12171.66607
485.478	12308.55398
485.688	11823.95732
485.898	12082.73346
486.108	12357.26802
486.317	12565.45651
486.527	12458.16923
486.737	12874.3369
486.947	12625.62932
487.156	12978.58167
487.366	12878.21484
487.576	12665.74053
487.785	12699.21662
487.995	12707.87845
488.205	12725.83467
488.414	13085.77313
488.624	12884.17151
488.834	13136.46652
489.043	12633.65793
489.253	12820.75089
489.462	13052.41734
489.672	13144.8149
489.882	13206.9665
490.091	13437.62414
490.301	13135.36861
490.51	13287.42144
490.72	13528.11329
490.929	13676.43734
491.138	13591.43232
491.348	13506.11797
491.557	13391.28945
491.767	13746.5572
491.976	13712.12312
492.185	13745.40208
492.395	13611.962
492.604	13809.48292
492.813	13693.37591
493.023	14045.43893
493.232	13876.28409
493.441	13851.27662
493.651	14118.24426
493.86	13950.38242
494.069	14148.60108
494.278	14366.62053
494.488	14245.9131
494.697	14372.88382
494.906	14288.53463
495.115	14539.33964
495.324	14288.79227
495.533	14670.45474
495.743	14808.6671
495.952	15028.71355
496.161	14829.56789
496.37	15012.39003
496.579	15071.31687
496.788	15372.59648
496.997	15360.58084
497.206	15043.57625
497.415	15234.89921
497.624	15347.31366
497.833	15328.45676
498.042	15523.34462
498.251	15724.2029
498.46	15569.45455
498.669	15564.84797
498.878	15423.10702
499.087	15491.41331
499.296	15944.17842
499.504	15788.16136
499.713	15735.74024
499.922	15784.43935
500.131	16029.78829
500.34	16087.92503
500.549	15869.32536
500.757	15671.09497
500.966	16048.89086
501.175	15886.99628
501.384	16087.34819
501.592	16078.09089
501.801	16188.79765
502.01	15986.38325
502.218	16244.80209
502.427	16199.16017
502.636	16219.10671
502.844	16258.69338
503.053	15933.87397
503.262	15989.85495
503.47	16072.92866
503.679	16024.57412
503.887	16115.19981
504.096	15882.52555
504.304	16030.1054
504.513	16046.78165
504.721	16038.65696
504.93	15826.09483
505.138	16058.40039
505.347	15792.25914
505.555	16099.25572
505.764	15710.58032
505.972	16001.73657
506.18	15750.29801
506.389	15800.95112
506.597	15585.1797
506.806	15770.74065
507.014	15797.23981
507.222	15627.78148
507.431	15611.77669
507.639	15460.67799
507.847	15840.07485
508.055	15664.44121
508.264	15781.26688
508.472	15871.4142
508.68	15769.18224
508.888	15761.84813
509.096	15761.55531
509.305	15778.1099
509.513	15710.0716
509.721	15654.87655
509.929	15697.15188
510.137	15620.2075
510.345	15673.85122
510.553	15851.31479
510.762	15583.30124
510.97	15837.39559
511.178	15803.48062
511.386	15907.2616
511.594	15848.19485
511.802	15919.17353
512.01	15866.38952
512.218	15715.18312
512.426	15918.17683
512.634	15968.53701
512.842	16064.32363
513.049	16071.34141
513.257	15976.56392
513.465	16277.33196
513.673	16209.74249
513.881	16150.83803
514.089	16033.15226
514.297	16309.26069
514.504	16196.99504
514.712	16436.32403
514.92	16306.53237
515.128	16327.98646
515.336	16431.47133
515.543	16258.81924
515.751	16405.26465
515.959	16290.21046
516.166	16103.25493
516.374	16257.31922
516.582	16327.09003
516.789	16406.54992
516.997	16409.30147
517.205	16218.0956
517.412	16379.86922
517.62	16562.46607
517.827	16343.22437
518.035	16378.9024
518.243	16273.11841
518.45	16305.13323
518.658	15908.91462
518.865	16223.16998
519.073	16189.49425
519.28	16172.45616
519.488	15908.81474
519.695	15994.02927
519.902	15899.92296
520.11	15939.55636
520.317	15873.9492
520.525	15945.09593
520.732	15669.94814
520.939	15994.88377
521.147	15640.03579
521.354	16025.30508
521.561	15880.70959
521.769	15790.8104
521.976	15779.37057
522.183	15897.0406
522.391	15673.03489
522.598	15944.65145
522.805	15746.76455
523.012	15725.77989
523.219	15863.77951
523.427	15977.50424
523.634	15728.96891
523.841	15796.84418
524.048	15682.75392
524.255	15972.91676
524.462	15864.71631
524.669	15618.57053
524.877	15933.85369
525.084	15750.99021
525.291	15765.1642
525.498	15781.0051
525.705	15816.94905
525.912	15912.1276
526.119	15641.85681
526.326	15809.94574
526.533	15774.53405
526.74	16040.225
526.947	15977.69202
527.153	16168.95893
527.36	15802.89569
527.567	15856.89846
527.774	15989.27668
527.981	15951.97464
528.188	15842.19914
528.395	16070.80519
528.602	15975.17258
528.808	16012.69681
529.015	15791.65295
529.222	16205.88747
529.429	15968.04831
529.635	15970.26705
529.842	15842.48018
530.049	15712.6664
530.256	15836.42736
530.462	15910.38429
530.669	15928.42107
530.876	15970.05924
531.082	15870.82545
531.289	15978.08755
531.495	15879.71902
531.702	16045.56669
531.909	15900.20972
532.115	16108.43184
532.322	15741.98635
532.528	15795.55524
532.735	15998.86917
532.941	15780.30564
533.148	15773.16679
533.354	15839.60124
533.561	15892.0126
533.767	15756.05223
533.974	15758.18483
534.18	15714.55811
534.387	15627.64347
534.593	15641.6865
534.799	15579.37873
535.006	15579.44588
535.212	15476.48393
535.418	15585.354
535.625	15602.00892
535.831	15691.22529
536.037	15587.11919
536.244	15684.3613
536.45	15459.8202
536.656	15501.58335
536.862	15606.73498
537.068	15796.70111
537.275	15476.0793
537.481	15645.96156
537.687	15680.42874
537.893	15819.94745
538.099	15729.52199
538.305	15431.93995
538.512	15617.55163
538.718	15614.92648
538.924	15439.31933
539.13	15597.63375
539.336	15625.25363
539.542	15748.2985
539.748	15590.81587
539.954	15530.25689
540.16	15688.26399
540.366	15566.25756
540.572	15529.05749
540.778	15509.36247
540.984	15575.52757
541.19	15428.2348
541.396	15294.68749
541.602	15613.37141
541.807	15355.67094
542.013	15477.49675
542.219	15144.31389
542.425	15507.71091
542.631	15212.19198
542.837	15198.97779
543.042	15322.55858
543.248	15198.04739
543.454	15040.8752
543.66	15148.8217
543.865	15029.70703
544.071	15284.99537
544.277	14987.31324
544.483	15190.08414
544.688	14917.2555
544.894	15207.14503
545.1	15176.15271
545.305	14993.2218
545.511	15065.99948
545.716	15125.98758
545.922	14788.23618
546.128	14862.52718
546.333	14813.04648
546.539	14974.04256
546.744	14765.82421
546.95	14879.64141
547.155	14810.3908
547.361	14888.53256
547.566	14557.11045
547.772	14690.27739
547.977	14597.89958
548.182	14597.76338
548.388	14744.39819
548.593	14686.95719
548.799	14544.17998
549.004	14709.99755
549.209	14593.38292
549.415	14738.90387
549.62	14578.79608
549.825	14649.75835
550.031	14503.75286
550.236	14659.6461
550.441	14692.32994
550.646	14710.76889
550.852	14713.42471
551.057	14694.19584
551.262	14573.6888
551.467	14760.25568
551.672	14504.59335
551.878	14721.45663
552.083	14758.58659
552.288	14541.14537
552.493	14499.75873
552.698	14616.26151
552.903	14449.69425
553.108	14709.78634
553.313	14604.65717
553.518	14572.22917
553.723	14715.68113
553.928	14583.72347
554.133	14495.11431
554.338	14660.03103
554.543	14521.70169
554.748	14562.9528
554.953	14590.68607
555.158	14817.75967
555.363	14560.09443
555.568	14363.83528
555.773	14687.55785
555.978	14818.68809
556.182	14514.71887
556.387	14590.46644
556.592	14650.36789
556.797	14639.54415
557.002	14683.78795
557.206	14606.05206
557.411	14465.20831
557.616	14426.04664
557.821	14716.10056
558.025	14849.14664
558.23	14459.80395
558.435	14690.07599
558.64	14546.36776
558.844	14806.87412
559.049	14666.6307
559.253	14529.46329
559.458	14520.24538
559.663	14493.05626
559.867	14493.7206
560.072	14516.01288
560.276	14332.5463
560.481	14337.65854
560.685	14391.18625
560.89	14212.18422
561.094	14286.02801
561.299	14234.62155
561.503	14119.24846
561.708	14230.7931
561.912	14055.76667
562.117	14155.89866
562.321	14089.58006
562.525	14141.84683
562.73	13963.9872
562.934	14213.25719
563.139	13974.86577
563.343	14135.68924
563.547	13982.49549
563.752	13994.45653
563.956	13947.62678
564.16	13962.38233
564.364	13773.68467
564.569	13972.05082
564.773	13792.96727
564.977	13811.65886
565.181	13893.47641
565.385	13752.14814
565.59	13645.44608
565.794	13823.74765
565.998	13603.31387
566.202	13598.34616
566.406	13664.91576
566.61	13722.52436
566.814	13491.29602
567.018	13484.23064
567.222	13531.24513
567.426	13601.12518
567.63	13333.43173
567.834	13358.39767
568.038	13216.90664
568.242	13365.33367
568.446	13352.33457
568.65	13320.19771
568.854	13134.70062
569.058	13286.73386
569.262	13174.51087
569.466	13262.03989
569.67	13173.66513
569.874	13088.07784
570.078	12996.91124
570.281	13051.52282
570.485	12967.47963
570.689	13010.80422
570.893	12886.70417
571.097	13034.82917
571.3	12719.2918
571.504	12730.57306
571.708	12788.74079
571.912	12643.63047
572.115	12507.204
572.319	12504.68331
572.523	12524.79792
572.726	12448.92146
572.93	12421.4505
573.133	12516.3668
573.337	12433.08891
573.541	12373.4172
573.744	12179.06211
573.948	12244.09756
574.151	12294.93131
574.355	12201.38978
574.558	12197.64997
574.762	12114.97722
574.965	11993.82075
575.169	12141.74318
575.372	11893.86613
575.576	12036.95838
575.779	11853.30513
575.983	11916.61686
576.186	11811.36637
576.389	11729.45387
576.593	11555.59542
576.796	11795.15117
577	11496.94382
577.203	11754.15197
577.406	11707.49257
577.609	11589.81509
577.813	11610.25309
578.016	11637.23796
578.219	11411.79716
578.423	11372.61509
578.626	11378.75989
578.829	11309.95707
579.032	11379.5456
579.235	11528.10656
579.438	11422.70799
579.642	11332.44756
579.845	11274.25226
580.048	11456.19404
580.251	11158.17999
580.454	11404.25855
580.657	11141.16386
580.86	11407.19075
581.063	11104.7234
581.266	11301.03179
581.469	11258.31774
581.672	11302.53426
581.875	11250.40637
582.078	11196.66283
582.281	11129.94778
582.484	11234.8639
582.687	11382.65781
582.89	11317.43649
583.093	11195.72821
583.296	11266.56858
583.499	11361.47831
583.702	11333.17829
583.904	11031.92607
584.107	11243.4786
584.31	11154.79894
584.513	11221.74022
584.716	11308.31262
584.918	11318.98393
585.121	11175.2184
585.324	11345.96423
585.527	11290.22451
585.729	11431.4961
585.932	11235.036
586.135	11388.21195
586.337	11440.14967
586.54	11593.74115
586.743	11409.4054
586.945	11423.42596
587.148	11367.75247
587.35	11557.45203
587.553	11377.90462
587.755	11504.79109
587.958	11408.22555
588.161	11495.05116
588.363	11422.47235
588.566	11521.51579
588.768	11450.4383
588.971	11432.97632
589.173	11314.67335
589.375	11361.08266
589.578	11285.98504
589.78	11444.04238
589.983	11251.53348
590.185	11265.82371
590.387	11142.088
590.59	11116.48751
590.792	10911.66756
590.994	10959.38622
591.197	10906.90122
591.399	10703.44692
591.601	10701.90043
591.803	10524.20175
592.006	10467.71233
592.208	10489.05985
592.41	10437.56238
592.612	10430.00977
592.815	10176.57756
593.017	10287.02302
593.219	10174.27243
593.421	10081.08044
593.623	9844.95822
593.825	9770.92697
594.027	9818.99038
594.229	9807.80691
594.432	9537.35701
594.634	9704.85996
594.836	9600.0384
595.038	9629.8273
595.24	9346.80048
595.442	9560.29464
595.644	9438.0082
595.846	9310.88932
596.048	9224.99107
596.249	9217.18505
596.451	9076.75523
596.653	9059.06301
596.855	9015.42109
597.057	8926.90754
597.259	8826.14707
597.461	8996.19972
597.663	8839.37355
597.864	8713.72575
598.066	8817.65615
598.268	8792.71807
598.47	8797.64581
598.671	8737.37992
598.873	8661.39347
599.075	8810.92239
599.277	8973.4674
599.478	8736.55276
599.68	8850.02996
599.882	8866.0942
600.083	8720.68004
600.285	8799.27312
600.487	8889.57321
600.688	8733.08439
600.89	8964.87939
601.091	8974.43913
601.293	8924.29919
601.494	9022.00953
601.696	8875.31506
601.898	9061.9525
602.099	9094.9413
602.301	9064.52673
602.502	9030.97833
602.703	9200.81094
602.905	9068.97351
603.106	9097.5134
603.308	9130.86219
603.509	9272.13499
603.711	8992.49716
603.912	9198.1452
604.113	9039.75355
604.315	9124.09449
604.516	9118.02103
604.717	9188.03381
604.919	9253.23179
605.12	9352.53529
605.321	9359.13158
605.522	9503.05077
605.724	9372.55621
605.925	9365.16862
606.126	9553.47112
606.327	9559.28911
606.528	9493.71308
606.729	9655.66211
606.931	9576.51783
607.132	9716.59902
607.333	9544.85396
607.534	9689.29845
607.735	9681.63725
607.936	9582.92102
608.137	9789.95124
608.338	9851.5495
608.539	9651.89061
608.74	9916.82538
608.941	9702.34026
609.142	9852.12988
609.343	9779.09745
609.544	9983.12734
609.745	9817.724
609.946	9941.03749
610.147	9871.83562
610.348	10006.1873
610.549	9805.32322
610.75	9929.17783
610.95	9921.25666
611.151	9993.25711
611.352	9861.46894
611.553	10011.1076
611.754	9787.51318
611.954	10127.11242
612.155	9966.0657
612.356	10141.68109
612.557	9861.41417
612.757	9999.28546
612.958	10105.72072
613.159	9880.66766
613.359	9912.85783
613.56	9883.68623
613.761	10015.82567
613.961	9863.04431
614.162	9912.58675
614.362	9983.06346
614.563	9912.40861
614.764	10103.6566
614.964	9820.83839
615.165	9942.70855
615.365	9883.19476
615.566	9994.91127
615.766	9909.62661
615.967	10055.12135
616.167	9809.69741
616.368	9859.60948
616.568	9786.34955
616.768	9814.84737
616.969	9875.1823
617.169	9918.72777
617.37	9768.80157
617.57	9735.58456
617.77	9655.93278
617.971	9851.06662
618.171	9664.95395
618.371	9767.35731
618.571	9592.75868
618.772	9683.21638
618.972	9701.7527
619.172	9846.75821
619.372	9553.65515
619.573	9745.08251
619.773	9739.38031
619.973	9603.30641
620.173	9701.30894
620.373	9671.04227
620.573	9791.13802
620.774	9738.43044
620.974	9612.82123
621.174	9555.90728
621.374	9604.8414
621.574	9680.3389
621.774	9490.87326
621.974	9587.7919
622.174	9631.62934
622.374	9690.88395
622.574	9507.4403
622.774	9627.30934
622.974	9450.50905
623.174	9656.0813
623.374	9537.14465
623.574	9690.16354
623.774	9619.72258
623.973	9735.52642
624.173	9548.95722
624.373	9660.40079
624.573	9377.24792
624.773	9499.10283
624.973	9531.69033
625.172	9491.16437
625.372	9436.89502
625.572	9688.00052
625.772	9492.23119
625.971	9400.97658
626.171	9447.93154
626.371	9435.30239
626.57	9305.30795
626.77	9505.72412
626.97	9433.64509
627.169	9304.48248
627.369	9493.03524
627.569	9449.28457
627.768	9321.42556
627.968	9355.59673
628.167	9431.6992
628.367	9366.15999
628.566	9315.17687
628.766	9359.83814
628.965	9191.78126
629.165	9212.44437
629.364	9199.09655
629.564	9173.37412
629.763	9094.04108
629.963	9217.10255
630.162	9145.86158
630.362	9072.08079
630.561	8860.47034
630.76	8967.53785
630.96	8715.28481
631.159	8909.30128
631.358	8903.16323
631.558	8768.16478
631.757	8704.2213
631.956	8773.00825
632.155	8561.29849
632.355	8551.49184
632.554	8491.01785
632.753	8516.32513
632.952	8413.34433
633.152	8580.41574
633.351	8453.62772
633.55	8531.94401
633.749	8545.39429
633.948	8535.80161
634.147	8378.01156
634.346	8425.70169
634.545	8281.8809
634.744	8320.93404
634.944	8298.32849
635.143	8382.84933
635.342	8322.46191
635.541	8320.62448
635.74	8223.66657
635.939	8215.32951
636.138	8135.73713
636.336	8125.31487
636.535	8167.1673
636.734	8246.47911
636.933	8295.34506
637.132	8329.02254
637.331	8205.16606
637.53	8275.38478
637.729	8204.38698
637.928	8287.92255
638.126	8344.01209
638.325	8216.24062
638.524	8318.21743
638.723	8218.63976
638.921	8148.19759
639.12	8415.25772
639.319	8368.85721
639.518	8384.0527
639.716	8441.89307
639.915	8415.71828
640.114	8404.58631
640.312	8397.40683
640.511	8387.68706
640.71	8519.95629
640.908	8442.95983
641.107	8455.88284
641.305	8316.48815
641.504	8442.84473
641.702	8468.02115
641.901	8449.64247
642.099	8496.68892
642.298	8434.92973
642.496	8418.82636
642.695	8456.40444
642.893	8394.39728
643.092	8394.37973
643.29	8502.16596
643.489	8446.53581
643.687	8475.04023
643.885	8435.92378
644.084	8623.17703
644.282	8629.56549
644.48	8705.11725
644.679	8607.11337
644.877	8541.4972
645.075	8589.09097
645.274	8560.99523
645.472	8604.45366
645.67	8448.80948
645.868	8574.77457
646.067	8459.99264
646.265	8547.19283
646.463	8552.31918
646.661	8520.54532
646.859	8528.06274
647.057	8501.79995
647.256	8403.64913
647.454	8477.50373
647.652	8500.82374
647.85	8446.28521
648.048	8370.9181
648.246	8275.71519
648.444	8231.03664
648.642	8279.37224
648.84	8050.81885
649.038	8086.37792
649.236	8148.26483
649.434	8098.58306
649.632	7900.92576
649.83	7970.73366
650.028	7791.05045
650.226	7868.64012
650.423	7854.83257
650.621	7889.15563
650.819	7679.35984
651.017	7747.40913
651.215	7624.45028
651.413	7790.7563
651.61	7573.84166
651.808	7621.83871
652.006	7430.40071
652.204	7669.72698
652.401	7545.81626
652.599	7512.04763
652.797	7431.87273
652.995	7422.71919
653.192	7245.84671
653.39	7306.8587
653.588	7396.92646
653.785	7346.86161
653.983	7245.18848
654.18	7233.42745
654.378	7096.42266
654.576	7199.76308
654.773	7142.69147
654.971	7139.2534
655.168	7101.31881
655.366	7216.63965
655.563	7003.14871
655.761	7083.44151
655.958	7012.17093
656.156	7102.15873
656.353	7042.79343
656.55	7126.48901
656.748	6985.47463
656.945	6900.72404
657.143	7021.39297
657.34	7044.73194
657.537	6898.68185
657.735	6912.27371
657.932	6772.89268
658.129	6931.95031
658.326	6675.82646
658.524	6927.23448
658.721	6742.14045
658.918	6772.00696
659.115	6667.31228
659.313	6841.77275
659.51	6646.18033
659.707	6805.36656
659.904	6614.98858
660.101	6773.55973
660.298	6907.97515
660.496	6749.00552
660.693	6697.83127
660.89	6821.80001
661.087	6696.27395
661.284	6821.32835
661.481	6850.10363
661.678	6894.39327
661.875	6861.57194
662.072	6843.02632
662.269	6791.82539
662.466	6869.61995
662.663	6871.85134
662.86	6849.40733
663.057	6851.51981
663.254	6829.29344
663.45	6878.10816
663.647	6800.55564
663.844	6871.93477
664.041	6961.22578
664.238	6847.80547
664.435	7005.20568
664.631	6924.56788
664.828	7009.4788
665.025	7008.76005
665.222	7025.91131
665.419	6989.47179
665.615	7078.95638
665.812	6959.78804
666.009	7144.13713
666.205	7133.89243
666.402	7155.88414
666.599	7069.91152
666.795	7169.03872
666.992	7115.33605
667.188	7307.89772
667.385	7178.64301
667.582	7405.50193
667.778	7332.88987
667.975	7457.75523
668.171	7425.38429
668.368	7291.15072
668.564	7275.22248
668.761	7428.24558
668.957	7278.60692
669.154	7479.87581
669.35	7390.28566
669.547	7358.48906
669.743	7336.4051
669.939	7459.23033
670.136	7485.59746
670.332	7476.61609
670.528	7411.57431
670.725	7499.02966
670.921	7296.84099
671.117	7413.57399
671.314	7423.99285
671.51	7349.89536
671.706	7410.23802
671.902	7416.78024
672.099	7320.69945
672.295	7571.00225
672.491	7472.32483
672.687	7387.65876
672.883	7299.87217
673.08	7543.29789
673.276	7342.04885
673.472	7453.81534
673.668	7242.68817
673.864	7372.85051
674.06	7294.83662
674.256	7480.03634
674.452	7324.25501
674.648	7257.38926
674.844	7292.1898
675.04	7442.23913
675.236	7232.68884
675.432	7215.83288
675.628	7137.11468
675.824	7166.75258
676.02	7259.73096
676.216	7168.08718
676.412	7152.71696
676.608	7228.36066
676.804	7098.77832
676.999	7231.82041
677.195	7067.86906
677.391	7134.9245
677.587	7105.21816
677.783	7227.6088
677.978	7091.52859
678.174	7241.12159
678.37	6968.48068
678.566	7280.52252
678.761	7105.64032
678.957	7055.85033
679.153	6991.38706
679.348	7046.47342
679.544	7065.16252
679.74	7100.44876
679.935	6985.18663
680.131	7172.43053
680.327	7144.20826
680.522	7062.35889
680.718	7051.6909
680.913	7065.42094
681.109	6932.71969
681.304	7018.75286
681.5	6898.55056
681.695	7023.83991
681.891	6866.28957
682.086	7083.08085
682.282	6906.44332
682.477	7050.89589
682.672	7097.55811
682.868	6967.01723
683.063	6810.34548
683.259	6924.85719
683.454	6873.90523
683.649	6865.21093
683.845	6757.71788
684.04	6791.91619
684.235	6760.55104
684.43	6868.51925
684.626	6769.30238
684.821	6839.05863
685.016	6713.49693
685.211	6894.82811
685.407	6686.62634
685.602	6792.59183
685.797	6738.63112
685.992	6633.5709
686.187	6788.77332
686.382	6712.25658
686.577	6663.69692
686.773	6580.4391
686.968	6570.3061
687.163	6669.70413
687.358	6486.38848
687.553	6573.68949
687.748	6681.49311
687.943	6543.56266
688.138	6427.14165
688.333	6555.41162
688.528	6276.78121
688.723	6331.83573
688.918	6408.44055
689.112	6280.78437
689.307	6157.04038
689.502	6086.07414
689.697	5988.8707
689.892	6001.23476
690.087	5824.68263
690.282	5894.77308
690.476	5712.33537
690.671	5739.66504
690.866	5565.5114
691.061	5607.58873
691.255	5335.43933
691.45	5579.84122
691.645	5447.3682
691.84	5337.93559
692.034	5260.84771
692.229	5245.73341
692.424	5099.1232
692.618	5130.99745
692.813	5043.35336
693.007	5021.19241
693.202	4885.83684
693.397	5078.19278
693.591	4875.8723
693.786	4834.12079
693.98	4747.61048
694.175	4719.53774
694.369	4695.02807
694.564	4706.11761
694.758	4589.6471
694.953	4572.24712
695.147	4464.28421
695.342	4554.28446
695.536	4283.1838
695.73	4297.74174
695.925	4219.11962
696.119	4335.19666
696.313	4005.46897
696.508	4125.26582
696.702	4075.83841
696.896	4077.36274
697.091	4064.35063
697.285	4100.143
697.479	4015.93459
697.673	4099.02067
697.868	3969.90193
698.062	4200.49138
698.256	4052.31243
698.45	4043.30862
698.644	3991.67269
698.839	4133.1598
699.033	4026.29884
699.227	4320.13971
699.421	4111.11636
699.615	4266.1875
699.809	4235.85475
700.003	4289.45198
700.197	4170.46215
700.391	4263.32624
700.585	4202.26072
700.779	4253.38846
700.973	4168.52331
701.167	4241.76728
701.361	4208.19918
701.555	4275.62639
701.749	4171.19348
701.943	4263.01373
702.137	4054.42426
702.331	4047.10991
702.525	4075.20623
702.718	4078.90346
702.912	4156.64738
703.106	4106.29605
703.3	4108.14696
703.494	4194.7939
703.687	4088.34539
703.881	4133.57086
704.075	4013.52223
704.269	4076.74904
704.462	3996.83043
704.656	4105.27075
704.85	4044.61907
705.043	4054.69874
705.237	3984.40799
705.431	4222.39931
705.624	3998.13627
705.818	4210.38534
706.012	4087.11172
706.205	4113.16773
706.399	3922.8295
706.592	4240.32586
706.786	4058.83021
706.979	4149.14708
707.173	3999.96935
707.366	4055.82641
707.56	3961.15584
707.753	4077.26446
707.947	3995.03548
708.14	4045.46256
708.333	3953.41043
708.527	4060.63553
708.72	3961.85725
708.914	4012.15323
709.107	4000.31215
709.3	4141.87185
709.494	3952.13641
709.687	4119.93554
709.88	3983.58119
710.073	3992.96352
710.267	3859.74453
710.46	3983.45612
710.653	3903.0604
710.846	4068.4665
711.04	3933.47813
711.233	4088.76566
711.426	4018.28894
711.619	4126.50026
711.812	4057.55127
712.005	4167.89535
712.198	4025.12134
712.391	4119.1157
712.585	3992.66033
712.778	4177.53054
712.971	3988.54261
713.164	4221.62065
713.357	4116.66743
713.55	4155.60314
713.743	4092.24421
713.936	4161.544
714.129	4041.84478
714.322	4087.12152
714.514	4163.70199
714.707	4218.94532
714.9	4196.65518
715.093	4138.50279
715.286	4123.93905
715.479	4168.00116
715.672	4014.40645
715.864	4063.64126
716.057	4060.65249
716.25	4046.62037
716.443	4051.80542
716.636	4103.32134
716.828	4065.96834
717.021	4136.02928
717.214	4019.31539
717.406	4141.05592
717.599	3963.01061
717.792	3959.30101
717.984	3870.22755
718.177	3908.20239
718.37	3911.55486
718.562	3950.65282
718.755	3773.66594
718.947	3725.19912
719.14	3638.61735
719.333	3648.94227
719.525	3440.32936
719.718	3549.66132
719.91	3406.05083
720.103	3514.68151
720.295	3239.98102
720.487	3229.54687
720.68	3132.56787
720.872	3061.20721
721.065	2898.59311
721.257	2850.53895
721.449	2813.67114
721.642	2701.52922
721.834	2689.13296
722.026	2584.55521
722.219	2469.94529
722.411	2483.36309
722.603	2340.20794
722.796	2482.67876
722.988	2192.86739
723.18	2301.91229
723.372	2124.62804
723.565	2183.95122
723.757	1980.12811
723.949	2090.64495
724.141	2018.02059
724.333	2080.30502
724.525	1964.80154
724.717	2021.3545
724.91	1846.74036
725.102	1831.84212
725.294	1718.13773
725.486	1751.05103
725.678	1683.68206
725.87	1722.87415
726.062	1568.47382
726.254	1628.47898
726.446	1436.12816
726.638	1589.23851
726.83	1342.69544
727.022	1487.78853
727.213	1351.84969
727.405	1450.72075
727.597	1406.7682
727.789	1383.01873
727.981	1371.34308
728.173	1457.31557
728.365	1268.67381
728.556	1340.29969
728.748	1189.1875
728.94	1294.48505
729.132	1262.43861
729.324	1389.03193
729.515	1285.07396
729.707	1307.62256
729.899	1277.82662
730.09	1396.89507
730.282	1221.15527
730.474	1315.5422
730.665	1261.0786
730.857	1380.64623
731.049	1293.74926
731.24	1389.37008
731.432	1316.33552
731.623	1307.88633
731.815	1244.34484
732.006	1309.61409
732.198	1178.56202
732.389	1301.51379
732.581	1234.44253
732.772	1268.631
732.964	1082.60757
733.155	1183.43539
733.347	1165.94027
733.538	1235.02606
733.729	1186.0471
733.921	1230.43181
734.112	1200.71018
734.304	1329.61772
734.495	1238.78756
734.686	1255.01731
734.877	1262.86539
735.069	1363.4902
735.26	1327.98519
735.451	1382.60185
735.643	1178.84159
735.834	1532.3016
736.025	1402.91126
736.216	1601.49595
736.407	1403.75808
736.599	1516.24165
736.79	1480.71901
736.981	1577.03519
737.172	1515.80943
737.363	1640.32785
737.554	1554.83775
737.745	1677.87846
737.936	1576.62281
738.127	1752.29038
738.318	1693.09402
738.509	1803.15373
738.7	1678.62661
738.891	1841.09897
739.082	1686.50694
739.273	1909.15262
739.464	1808.99964
739.655	2000.0398
739.846	1890.73562
740.037	2121.73435
740.228	1911.79452
740.419	2086.62116
740.609	2044.46912
740.8	2168.99638
740.991	2037.01511
741.182	2170.05992
741.373	2043.78754
741.563	2151.7485
741.754	2099.33402
741.945	2328.49415
742.136	2200.47939
742.326	2324.20569
742.517	2282.28816
742.708	2376.63264
742.898	2254.89051
743.089	2402.61017
743.28	2354.01007
743.47	2438.06296
743.661	2363.80178
743.851	2512.66147
744.042	2332.7327
744.233	2477.47834
744.423	2480.97934
744.614	2598.23369
744.804	2407.91513
744.995	2535.84691
745.185	2365.50634
745.376	2560.13961
745.566	2504.15447
745.756	2631.56597
745.947	2612.15037
746.137	2612.40668
746.328	2556.38051
746.518	2694.87136
746.708	2610.1719
746.899	2684.16095
747.089	2572.7895
747.279	2685.47956
747.47	2657.87722
747.66	2805.54401
747.85	2532.54628
748.04	2729.17549
748.231	2726.62533
748.421	2717.52382
748.611	2719.22851
748.801	2775.37303
748.991	2663.7915
749.182	2802.30811
749.372	2753.13295
749.562	2802.88239
749.752	2657.08698
749.942	2868.49283
750.132	2850.10789
750.322	2800.53617
750.512	2734.85687
750.702	2868.52417
750.892	2809.64224
751.082	2948.47514
751.272	2743.28032
751.462	2906.54572
751.652	2745.71356
751.842	2792.97988
752.032	2769.98635
752.222	2942.69422
752.412	2757.29343
752.602	2959.37099
752.792	2840.89152
752.981	2950.47146
753.171	2678.40018
753.361	2829.61636
753.551	2669.22495
753.741	2800.05444
753.93	2765.3825
754.12	2801.7446
754.31	2647.43087
754.5	2822.69271
754.689	2766.33478
754.879	2798.68074
755.069	2690.0269
755.258	2750.30455
755.448	2729.92834
755.638	2764.91894
755.827	2649.76437
756.017	2866.02169
756.206	2680.26685
756.396	2770.23846
756.586	2652.9626
756.775	2659.34219
756.965	2569.45654
757.154	2739.9416
757.344	2588.68562
757.533	2704.94623
757.723	2596.00788
757.912	2542.02957
758.101	2511.04155
758.291	2647.30825
758.48	2577.34458
758.67	2712.21012
758.859	2459.66925
759.048	2610.71596
759.238	2503.4479
759.427	2629.79484
759.616	2595.54953
759.806	2658.24775
759.995	2538.47714
760.184	2658.79112
760.373	2449.37519
760.563	2659.84193
760.752	2431.18412
760.941	2580.88361
761.13	2358.1697
761.319	2434.34997
761.509	2259.15854
761.698	2417.74378
761.887	2189.61031
762.076	2167.47176
762.265	1997.22219
762.454	2074.59825
762.643	1862.84492
762.832	1949.37995
763.021	1816.40886
763.21	1782.33365
763.399	1656.23887
763.588	1694.39758
763.777	1591.3762
763.966	1570.72849
764.155	1358.62428
764.344	1390.17345
764.533	1160.06166
764.722	1312.06654
764.911	1063.40735
765.1	1086.29005
765.288	1031.82232
765.477	930.68439
765.666	809.31836
765.855	946.47748
766.044	677.61813
766.232	734.86536
766.421	619.44993
766.61	666.56474
766.799	477.89759
766.987	528.85617
767.176	361.98818
767.365	470.34674
767.553	373.22692
767.742	386.42312
767.931	289.42618
768.119	372.37622
768.308	265.02555
768.497	282.85174
768.685	231.28781
768.874	301.90082
769.062	208.97257
769.251	271.61298
769.439	201.11567
769.628	194.18065
769.816	177.4995
770.005	208.88582
770.193	207.69575
770.382	259.16979
770.57	239.24521
770.758	281.79769
770.947	319.76864
771.135	370.84682
771.323	402.36318
771.512	423.42205
771.7	396.38259
771.888	466.41029
772.077	510.46962
772.265	599.96086
772.453	602.24009
772.642	612.55134
772.83	622.92362
773.018	694.40541
773.206	673.69003
773.394	834.44878
773.583	736.386
773.771	981.15786
773.959	784.64729
774.147	954.67504
774.335	1003.16306
774.523	1053.73757
774.711	1025.08285
774.899	1254.58743
775.087	1157.3513
775.275	1211.41654
775.463	1170.66237
775.651	1371.69102
775.839	1311.3814
776.027	1437.73198
776.215	1338.08897
776.403	1473.41098
776.591	1356.44591
776.779	1528.41318
776.967	1352.11922
777.155	1605.1982
777.343	1455.96874
777.531	1609.47384
777.718	1558.83237
777.906	1643.82394
778.094	1552.7274
778.282	1652.31721
778.47	1525.23006
778.657	1675.09131
778.845	1531.74687
779.033	1674.82001
779.22	1630.62764
779.408	1592.80266
779.596	1558.01675
779.783	1742.02234
779.971	1588.96622
780.159	1687.70373
780.346	1580.87109
780.534	1775.87398
780.722	1568.5251
780.909	1749.41235
781.097	1592.60743
781.284	1756.51723
781.472	1607.61234
781.659	1754.66395
781.847	1575.39112
782.034	1654.25139
782.222	1551.75988
782.409	1752.9068
782.597	1619.75453
782.784	1698.74341
782.971	1643.45388
783.159	1627.49144
783.346	1511.26549
783.533	1587.5294
783.721	1591.59441
783.908	1635.242
784.095	1509.83925
784.283	1575.69827
784.47	1570.84036
784.657	1629.00651
784.844	1583.75261
785.032	1639.7952
785.219	1538.18099
785.406	1669.56938
785.593	1515.9586
785.78	1588.66707
785.968	1477.18621
786.155	1586.16518
786.342	1484.69323
786.529	1553.49854
786.716	1487.04803
786.903	1538.63383
787.09	1427.11811
787.277	1532.50374
787.464	1374.29553
787.651	1582.2549
787.838	1411.93927
788.025	1520.74299
788.212	1364.75573
788.399	1559.29717
788.586	1351.89781
788.773	1368.07952
788.96	1349.68349
789.147	1431.53556
789.334	1236.82525
789.521	1369.86816
789.707	1414.66706
789.894	1411.23448
790.081	1245.67293
790.268	1357.40426
790.455	1179.15948
790.641	1288.97796
790.828	1185.08083
791.015	1311.97787
791.202	1163.52469
791.388	1180.32915
791.575	1054.28539
791.762	1219.90304
791.948	1103.01653
792.135	1177.42683
792.322	1060.7929
792.508	1118.61111
792.695	1027.52365
792.881	1039.80524
793.068	974.76528
793.254	1039.57679
793.441	954.20654
793.627	1064.80158
793.814	944.91741
794	1021.46504
794.187	941.19727
794.373	993.2548
794.56	886.3256
794.746	941.79787
794.933	873.57093
795.119	942.26824
795.305	847.26894
795.492	950.3901
795.678	813.36976
795.864	883.49545
796.051	879.76008
796.237	957.72583
796.423	810.24522
796.61	939.17118
796.796	839.31815
796.982	915.44617
797.168	824.70732
797.355	912.15903
797.541	791.91985
797.727	896.12822
797.913	749.97559
798.099	856.19954
798.285	740.56538
798.471	814.931
798.658	796.15058
798.844	802.92091
799.03	711.96724
799.216	865.13091
799.402	794.06375
799.588	737.4611
799.774	625.3384
799.96	771.72344
800.146	686.84556
800.332	799.36492
800.518	718.88695
800.704	767.95778
800.89	733.31747
801.075	760.98891
801.261	702.57684
801.447	783.63106
801.633	690.36616
801.819	750.16358
802.005	682.37168
802.19	738.74714
802.376	616.02227
802.562	746.80459
802.748	667.11496
802.934	754.05818
803.119	606.56623
803.305	790.99237
803.491	667.16306
803.676	744.0952
803.862	612.50715
804.048	763.50361
804.233	595.42513
804.419	750.83558
804.605	646.31839
804.79	714.01678
804.976	597.39982
805.161	592.18251
805.347	650.64417
805.532	680.50782
805.718	542.99034
805.903	701.12128
806.089	539.64714
806.274	661.83318
806.46	526.79278
806.645	728.51405
806.831	596.07757
807.016	639.34071
807.201	655.27605
807.387	642.95655
807.572	572.82454
807.757	630.52463
807.943	588.91275
808.128	664.76313
808.313	532.10466
808.499	672.58627
808.684	582.97316
808.869	570.16846
809.054	564.58678
809.24	631.7438
809.425	558.8212
809.61	619.20393
809.795	579.69514
809.98	585.25015
810.165	585.52699
810.35	662.09671
810.536	609.25769
810.721	579.40082
810.906	542.11968
811.091	612.66191
811.276	498.28437
811.461	539.33346
811.646	522.41316
811.831	678.32456
812.016	508.85386
812.201	582.97316
812.386	467.77829
812.571	588.67699
812.756	504.15742
812.941	508.66766
813.125	522.60517
813.31	599.13536
813.495	496.64773
813.68	529.81006
813.865	408.74159
814.05	498.75767
814.234	400.7299
814.419	523.85
814.604	473.48901
814.789	496.24806
814.973	402.31833
815.158	512.46399
815.343	345.40974
815.528	391.87322
815.712	355.5131
815.897	360.1352
816.081	270.16171
816.266	314.99668
816.451	312.9289
816.635	296.04896
816.82	298.4264
817.004	342.96157
817.189	258.21689
817.374	223.58099
817.558	243.59323
817.743	270.4851
817.927	194.37104
818.111	270.73972
818.296	115.78585
818.48	204.46094
818.665	137.06055
818.849	191.13267
819.034	147.28751
819.218	158.55024
819.402	125.92332
819.587	125.99531
819.771	34.80369
819.955	157.34441
820.14	83.23071
820.324	156.41914
820.508	88.92717
820.692	88.89308
820.877	69.71591
821.061	53.94414
821.245	88.80149
821.429	114.7811
821.613	55.14917
821.798	84.37124
821.982	51.70243
822.166	123.85268
822.35	57.38633
822.534	61.88984
822.718	94.5669
822.902	50.62199
823.086	61.84951
823.27	60.70817
823.454	68.64381
823.638	65.24199
823.822	88.93742
824.006	40.46559
824.19	20.19981
824.374	70.90296
824.558	64.15613
824.742	57.34892
824.926	51.75199
825.11	6.67038
825.294	20.18197
825.477	75.43972
825.661	23.57893
825.845	44.98601
826.029	96.86543
826.213	14.56686
826.396	37.10201
826.58	79.85725
826.764	37.09203
826.948	72.03682
827.131	96.80959
827.315	40.47335
827.499	91.19139
827.682	58.52577
827.866	68.63328
828.05	86.64687
828.233	72.01469
828.417	28.07941
828.6	84.47172
828.784	57.3665
828.967	111.35771
829.151	58.51677
829.335	47.21827
829.518	82.18815
829.701	5.53841
829.885	97.91197
830.068	1.03286
830.252	43.87166
830.435	24.69245
830.619	90.01088
830.802	84.40032
830.985	85.50235
831.169	40.45783
831.352	63.00835
831.535	80.99727
831.719	46.10681
831.902	12.30329
832.085	88.934
832.269	82.12511
832.452	4.41289
832.635	82.11882
832.818	105.79148
833.002	-2.34755
833.185	99.06698
833.368	61.90411
833.551	40.45473
833.734	55.09204
833.917	85.49908
834.1	57.37531
834.284	74.25386
834.467	64.14133
834.65	57.38853
834.833	84.44571
835.016	68.70461
835.199	110.2593
835.382	13.43781
835.565	11.16536
835.748	32.61476
835.931	93.44177
836.114	44.9722
836.297	50.63172
836.479	110.28883
836.662	50.62393
836.845	65.26952
837.028	91.18088
837.211	61.85188
837.394	58.46518
837.577	87.84252
837.759	90.10079
837.942	70.93569
838.125	7.78627
838.308	60.75469
838.49	31.45961
838.673	65.227
838.856	55.13219
839.039	51.75597
839.221	65.22451
839.404	64.13641
839.587	60.70586
839.769	57.40841
839.952	93.41667
840.134	101.344
840.317	58.47637
840.499	48.33087
840.682	86.61703
840.865	69.78809
841.047	72.01469
841.23	108.09412
841.412	100.11136
841.595	69.68931
841.777	86.54767
841.959	137.22723
842.142	52.84562
842.324	137.2377
842.507	74.20844
842.689	82.09059
842.871	91.14592
843.054	70.88392
843.236	99.09743
843.418	103.47526
843.601	65.24949
843.783	109.08118
843.965	72.02022
844.147	56.20002
844.33	105.7591
844.512	133.90922
844.694	87.68124
844.876	141.88151
845.059	103.47921
845.241	120.28607
845.423	77.60806
845.605	79.7994
845.787	151.9209
845.969	103.41616
846.151	80.98178
846.333	108.01957
846.515	120.43764
846.697	128.24204
846.879	111.33223
847.061	102.37883
847.243	121.38115
847.425	96.66179
847.607	31.45116
847.789	124.81003
847.971	85.56468
848.153	187.83298
848.335	91.11454
848.517	42.66995
848.699	112.54586
848.881	101.25468
849.062	104.62299
849.244	139.5637
849.426	110.22141
849.608	168.85372
849.789	124.87189
849.971	122.64834
850.153	91.10062
850.335	83.19578
850.516	73.07567
850.698	109.19803
850.88	68.56508
851.061	119.12255
851.243	76.47171
851.425	166.43582
851.606	87.75489
851.788	120.38237
851.969	101.16592
852.151	62.91452
852.333	58.52577
852.514	92.20713
852.696	111.32799
852.877	136.17182
853.059	134.95547
853.24	102.38666
853.422	100.03891
853.603	122.69999
853.784	43.83631
853.966	116.99333
854.147	104.59105
854.329	147.32674
854.51	107.98655
854.691	51.68664
854.873	66.33674
855.054	77.61697
855.235	53.95032
855.416	87.77843
855.598	85.522
855.779	107.99479
855.96	76.46879
856.141	64.09955
856.323	68.55724
856.504	78.75075
856.685	83.27213
856.866	95.65895
857.047	96.71702
857.228	100.11901
857.409	7.78954
857.591	77.62886
857.772	29.20466
857.953	93.38447
858.134	73.07567
858.315	87.68791
858.496	86.68345
858.677	129.43457
858.858	46.10328
859.039	119.38676
859.22	14.55565
859.401	40.45938
859.582	66.35957
859.762	93.38447
859.943	53.99165
860.124	99.06698
860.305	37.08207
860.486	75.34719
860.667	7.79222
860.848	68.63328
861.028	64.14133
861.209	86.64687
861.39	39.3745
861.571	-4.60368
861.751	40.47491
861.932	97.96837
862.113	21.30229
862.293	50.59481
862.474	21.30963
862.655	69.73991
862.835	51.74801
863.016	97.92323
863.197	43.84975
863.377	47.21827
863.558	84.38092
863.738	86.59386
863.919	77.65863
864.099	35.98524
864.28	48.37352
864.46	83.25618
864.641	101.41038
864.821	53.99579
865.002	104.75955
865.182	157.62657
865.363	61.89697
865.543	89.98679
865.723	59.62443
865.904	75.36447
866.084	48.33642
866.264	40.45473
866.445	94.53063
866.625	24.70954
866.805	46.11922
866.986	55.09836
867.166	77.65565
867.346	28.11516
867.526	38.20203
867.707	31.46323
867.887	60.76169
868.067	46.153
868.247	44.9791
868.427	38.22402
868.607	6.66935
868.788	25.82852
868.968	76.53912
869.148	67.52604
869.328	37.10915
869.508	43.85817
869.688	40.45783
869.868	51.74801
870.048	-1.22136
870.228	56.21721
870.408	69.85
870.588	47.26912
870.768	43.85817
870.948	11.17649
871.128	55.16405
871.307	41.59144
871.487	42.76659
871.667	75.41941
871.847	61.88033
872.027	54.00824
872.207	40.44545
872.387	24.70383
872.566	68.63591
872.746	81.05943
872.926	20.20137
873.106	25.83448
873.285	70.93569
873.465	10.04964
873.645	24.70383
873.824	45.01894
874.004	-30.52696
874.184	63.06659
874.363	52.87806
874.543	42.71398
874.723	32.57964
874.902	68.6702
875.082	75.48337
875.261	37.09345
875.441	6.66756
875.62	48.37538
875.8	37.0693
875.979	70.89479
876.159	-3.47404
876.338	-7.98459
876.518	19.06761
876.697	3.28866
876.876	2.15958
877.056	40.50295
877.235	13.43367
877.415	45.03285
877.594	-30.5399
877.773	50.6747
877.953	74.31664
878.132	56.26683
878.311	14.5708
878.49	78.82032
878.67	33.73419
878.849	64.18331
879.028	6.66704
879.207	90.14249
879.387	19.07275
879.566	51.77191
879.745	16.81525
879.924	85.64719
880.103	3.28676
880.282	58.52802
880.461	39.3745
880.64	14.5523
880.819	45.00505
880.998	53.97302
881.178	31.47049
881.357	54.02487
881.536	-49.70096
881.715	19.05663
881.893	17.93873
882.072	13.443
882.251	50.64342
882.43	24.71239
882.609	35.9894
882.788	-13.6247
882.967	69.82842
883.146	74.36541
883.325	30.36485
883.503	21.31863
883.682	50.65709
883.861	-54.20027
884.04	-31.65229
884.219	-40.7019
884.397	49.51115
884.576	-17.00837
884.755	4.41509
884.933	-21.52635
885.112	-10.23434
885.291	3.28777
885.469	45.02937
885.648	-23.78239
885.827	22.46247
886.005	5.54502
886.184	-20.37127
886.363	14.55509
886.541	-9.12291
886.72	42.7881
886.898	8.92447
887.077	38.25052
887.255	2.16041
887.434	-7.98828
887.612	12.30187
887.791	16.83605
887.969	78.85375
888.147	7.80122
888.326	-17.01034
888.504	22.4469
888.682	37.14786
888.861	41.62182
889.039	21.34082
889.218	34.88132
889.396	4.4185
889.574	22.45727
889.752	-0.09401
889.931	83.3137
890.109	56.24522
890.287	15.69613
890.465	25.86644
890.643	30.36602
890.822	3.29031
891	24.71334
891.178	-28.28791
891.356	1.03374
891.534	7.79942
891.712	15.69613
891.89	63.0447
892.068	68.66228
892.247	12.3085
892.425	14.57305
892.603	15.70281
892.781	5.53905
892.959	11.17049
893.137	-0.09397
893.314	78.80516
893.492	39.36388
893.67	56.26034
893.848	41.61381
894.026	16.82043
894.204	-15.88534
894.382	38.24609
894.56	19.06468
894.738	-21.52635
894.915	31.48384
895.093	2.16258
895.271	-26.01936
895.449	22.45467
895.626	42.73201
895.804	-11.36564
895.982	6.67398
896.16	17.94495
896.337	-33.92474
896.515	4.4197
896.693	29.21814
896.87	20.20137
897.048	-9.11797
897.225	59.67261
897.403	12.30566
897.581	26.99045
897.758	-19.26734
897.936	21.34
898.113	15.69492
898.291	-13.63418
898.468	4.41594
898.646	-10.23906
898.823	10.0508
899.001	-11.3687
899.178	15.68164
899.356	-27.17538
899.533	2.16108
899.71	-9.11621
899.888	-31.66569
900.065	24.71144
900.242	23.58074
900.42	-13.6347
900.597	-50.82937
900.774	15.69977
900.952	-17.00968
901.129	-28.29994
901.306	-18.14826
901.483	6.67269
901.661	30.36955
901.838	-1.22131
902.015	1.03446
902.192	-20.38458
902.369	37.13493
902.546	10.05312
902.723	11.18899
902.901	-35.07615
903.078	13.44248
903.255	31.5082
903.432	-37.31718
903.609	7.80454
903.786	21.32929
903.963	46.153
904.14	-12.50172
904.317	2.16074
904.494	-27.15544
904.671	54.04989
904.848	-24.91571
905.024	36.02421
905.201	4.41611
905.378	-24.89744
905.555	12.31325
905.732	21.33588
905.909	-23.77505
906.086	-2.34818
906.262	13.443
906.439	-20.40031
906.616	25.83647
906.793	20.2076
906.969	-28.28791
907.146	-42.97451
907.323	4.42004
907.5	3.29031
907.676	-19.27702
907.853	3.28626
908.03	-46.34637
908.206	-13.63207
908.383	8.92653
908.559	-10.24577
908.736	-12.50076
908.912	26.98836
909.089	50.67862
909.266	-19.26883
909.442	-2.34981
909.619	-29.42192
909.795	-21.53468
909.972	20.20916
910.148	-22.65218
910.324	-28.29556
910.501	-24.93019
910.677	25.83846
910.854	4.41901
911.03	1.03378
911.206	-17.01625
911.383	-12.49834
911.559	6.67527
911.735	-9.11235
911.912	-12.50172
912.088	14.5787
912.264	34.87458
912.44	46.17085
912.617	-31.66081
912.793	-41.84041
912.969	-20.40031
913.145	-11.36739
913.321	-20.39322
913.498	49.55705
913.674	-11.37221
913.85	-64.40608
914.026	30.35664
914.202	-30.55878
914.378	-76.83358
914.554	-32.80908
914.73	-36.22357
914.906	-20.40978
915.082	-14.73894
915.258	-0.09399
915.434	-0.09403
915.61	-17.01954
915.786	-24.9186
915.962	-6.86596
916.138	-9.11762
916.314	-1.22094
916.49	3.29043
916.665	-32.80654
916.841	-18.15953
917.017	28.11625
917.193	2.16158
917.369	39.37602
917.545	28.10646
917.72	-5.73254
917.896	-55.38409
918.072	-63.23993
918.247	-0.09403
918.423	-11.37792
918.599	-1.2223
918.775	17.94287
918.95	12.31182
919.126	-1.22145
919.301	-39.5655
919.477	-33.92736
919.653	6.67424
919.828	5.54673
920.004	4.41884
920.179	-21.51308
920.355	-7.98982
920.53	-29.42078
920.706	-54.24418
920.881	-15.88411
921.057	16.81396
921.232	3.29005
921.408	-21.52635
921.583	-28.25314
921.759	-9.11235
921.934	-12.49209
922.109	-31.70492
922.285	-39.57466
922.46	-21.53552
922.635	1.03458
922.811	12.3123
922.986	-28.29337
923.161	-47.45341
923.336	-17.01231
923.512	-26.05254
923.687	6.67527
923.862	34.87728
924.037	-29.45043
924.212	-56.47863
924.388	-28.28573
924.563	-29.42305
924.738	-13.62891
924.913	-76.76829
925.088	26.97584
925.263	-7.99322
925.438	19.07789
925.613	-39.57466
925.788	-22.64432
925.963	-28.29337
926.138	6.67192
926.313	-18.13285
926.488	-5.72725
926.663	-11.38101
926.838	-27.18802
927.013	15.68525
927.188	22.4755
927.363	-22.66621
927.538	-29.41624
927.713	3.2884
927.888	28.09021
928.062	-18.13425
928.237	-10.24775
928.412	-7.99446
928.587	10.0539
928.761	55.18535
928.936	7.80152
929.111	-18.12936
929.286	55.14917
929.46	-17.00706
929.635	2.16024
929.81	-7.99663
929.984	4.42227
930.159	22.45987
930.334	36.027
930.508	-41.84203
930.683	-53.09452
930.857	-1.2216
931.032	-28.28028
931.206	11.18726
931.381	5.54395
931.556	-33.92343
931.73	7.79942
931.904	-5.73078
932.079	-13.62208
932.253	-30.54815
932.428	-24.90704
932.602	-14.75255
932.777	-33.94704
932.951	-11.37045
933.125	11.18726
933.3	31.49844
933.474	-33.94309
933.648	3.29196
933.823	-15.89394
933.997	-1.22249
934.171	-33.93916
934.345	-22.65306
934.52	-35.05717
934.694	-33.93653
934.868	1.03366
935.042	-80.12786
935.217	52.87806
935.391	-31.68526
935.565	-11.36914
935.739	-2.35036
935.913	-37.32439
936.087	20.22795
936.261	-12.49065
936.435	-32.79768
936.609	-9.11656
936.783	8.93377
936.957	-38.44145
937.131	-17.01362
937.305	-56.51574
937.479	-32.79895
937.653	-0.09409
937.827	-9.11305
938.001	-17.01428
938.175	-11.37792
938.349	-36.1983
938.523	-54.26728
938.697	-2.34782
938.87	1.03438
939.044	-39.54873
939.218	-4.60492
939.392	-6.8681
939.566	7.80273
939.739	20.21385
939.913	-23.77964
940.087	-3.47913
940.261	14.56574
940.434	25.83946
940.608	3.29209
940.782	-24.908
940.955	8.93135
941.129	-13.62418
941.302	-17.01823
941.476	-75.64802
941.65	-42.97618
941.823	-17.01362
941.997	7.80273
942.17	-20.4082
942.344	-6.86039
942.517	-4.60279
942.691	-12.5114
942.864	-74.48734
943.038	36.01862
943.211	-58.7567
943.385	1.0337
943.558	19.08084
943.731	-33.91298
943.905	38.26086
944.078	-15.87982
944.251	-22.64258
944.425	-40.6862
944.598	-15.88473
944.771	14.57475
944.945	-11.37309
945.118	3.2898
945.291	-29.42533
945.464	-20.39007
945.638	24.72193
945.811	-18.15107
945.984	5.54288
946.157	-27.17433
946.33	-40.70504
946.503	-5.73409
946.677	-6.86277
946.85	17.95742
947.023	-6.86171
947.196	-26.0334
947.369	-47.46806
947.542	11.18813
947.715	39.36843
947.888	-26.02939
948.061	-26.04346
948.234	-0.09403
948.407	-36.17873
948.58	-65.51031
948.753	-44.10551
948.926	7.80454
949.099	-29.439
949.271	-18.14054
949.444	31.48505
949.617	2.16141
949.79	-12.49545
949.963	-0.09401
950.136	-1.22254
950.308	1.03362
950.481	28.10972
950.654	-24.91667
950.827	-21.53218
950.999	-29.42874
951.172	-20.41929
951.345	-29.43672
951.517	-9.12504
951.69	-40.70819
951.863	-10.24735
952.035	-41.83555
952.208	-2.35081
952.381	11.1864
952.553	-38.44887
952.726	-45.23489
952.898	-26.04649
953.071	-20.40741
953.243	2.16325
953.416	-6.86384
953.588	-31.6596
953.761	-1.22226
953.933	-36.2011
954.106	-33.96152
954.278	19.08822
954.45	-45.25595
954.623	-26.01836
954.795	-82.48741
954.967	-29.4276
955.14	-46.36431
955.312	35.98663
955.484	-56.50481
955.657	-0.09404
955.829	-38.45631
956.001	-11.3687
956.173	-14.75881
956.346	-29.41851
956.518	-9.12504
956.69	-11.36739
956.862	19.06834
957.034	5.54931
957.207	-13.63049
957.379	-2.35027
957.551	37.12202
957.723	23.59986
957.895	16.82692
958.067	-62.18806
958.239	-37.34899
958.411	-36.1997
958.583	-11.38366
958.755	-9.11797
958.927	-23.77964
959.099	-10.24577
959.271	-43.00621
959.443	8.92584
959.615	36.02141
959.787	13.4404
959.959	-1.22207
960.13	-12.5051
960.302	33.76681
960.474	8.9279
960.646	21.34082
960.818	-20.39086
960.99	-24.93601
961.161	-19.2845
961.333	-30.53754
961.505	30.37778
961.677	-38.46524
961.848	-18.13774
962.02	-30.53519
962.192	1.03426
962.363	3.29337
962.535	-3.47698
962.707	-38.43403
962.878	-26.03742
963.05	-19.28001
963.221	-48.61198
963.393	-33.94967
963.564	-36.18851
963.736	-70.01368
963.907	-13.62785
964.079	-23.78791
964.25	-48.60822
964.422	-17.01296
964.593	15.70099
964.765	-9.12645
964.936	-12.51383
965.108	21.3433
965.279	13.43885
965.45	-18.14896
965.622	-24.9032
965.793	-0.09397
965.964	5.54459
966.136	4.41526
966.307	-14.75881
966.478	-10.24854
966.65	-11.38676
966.821	-3.47604
966.992	-12.49786
967.163	-21.5222
967.334	47.28737
967.506	-20.40978
967.677	20.21385
967.848	29.24863
968.019	39.39275
968.19	-30.56351
968.361	-11.37484
968.532	-20.40504
968.703	-38.48914
968.874	-50.8923
969.045	-9.11973
969.216	-24.89648
969.387	40.52016
969.558	-66.66265
969.729	-30.56469
969.9	-38.44145
970.071	-29.43672
970.242	-29.43672
970.413	-5.73431
970.584	51.79989
970.755	-27.16487
970.926	-10.2553
971.097	10.05351
971.267	-44.07143
971.438	-14.76509
971.609	-31.69262
971.78	-28.29119
971.951	12.31563
972.121	25.83349
972.292	-23.78055
972.463	-40.70662
972.633	47.27094
972.804	-24.89457
972.975	15.69735
973.145	8.93239
973.316	-4.60581
973.487	-32.80908
973.657	-41.84527
973.828	-0.09401
973.998	-3.48008
974.169	-33.92998
974.339	2.16342
974.51	6.67218
974.68	-10.24854
974.851	-47.45707
975.021	-33.92736
975.192	31.45116
975.362	-45.19819
975.533	4.41594
975.703	-28.29447
975.874	-6.86543
976.044	-6.86437
976.214	-23.76315
976.385	-55.34346
976.555	-26.03843
976.725	-59.8698
976.896	-7.98428
977.066	40.52016
977.236	22.46333
977.406	-1.22141
977.577	22.47115
977.747	-0.09404
977.917	-26.04246
978.087	-30.5399
978.257	-26.03843
978.427	5.54523
978.598	-48.5932
978.768	-14.77197
978.938	-29.42305
979.108	-45.19471
979.278	22.46247
979.448	-67.78176
979.618	7.80062
979.788	16.82692
979.958	-15.89518
980.128	23.59621
980.298	-7.98551
980.468	-14.76166
980.638	40.47024
980.808	17.95464
980.978	-41.81457
981.148	34.89754
981.317	33.76289
981.487	-22.66445
981.657	80.00475
981.827	-10.2434
981.997	6.67837
982.167	-57.66765
982.336	-14.76109
982.506	-15.88964
982.676	-13.6247
982.846	-42.96454
983.015	-53.07611
983.185	-19.28151
983.355	-57.64083
983.524	4.41492
983.694	-1.2224
983.864	-13.63365
984.033	22.46767
984.203	-29.4276
984.372	-26.03843
984.542	33.74591
984.712	49.49972
984.881	17.9595
985.051	33.74461
985.22	11.18467
985.39	-17.01099
985.559	11.20422
985.728	-12.50172
985.898	-13.62523
986.067	-23.79897
986.237	-19.26362
986.406	-12.50027
986.576	-44.08504
986.745	14.56518
986.914	-24.91282
987.084	-9.11938
987.253	-15.88964
987.422	-1.22122
987.591	-33.93522
987.761	23.58438
987.93	-38.4459
988.099	-27.16278
988.268	-0.09402
988.438	11.18553
988.607	6.67038
988.776	-21.52469
988.945	-19.26883
989.114	-20.41929
989.283	-19.26734
989.452	-5.73188
989.621	-77.89136
989.791	-39.57161
989.96	-38.43996
990.129	4.41867
990.298	-30.55169
990.467	-14.75027
990.636	33.71343
990.805	-12.5114
990.974	-63.24724
991.142	-30.54107
991.311	-58.73855
991.48	30.36133
991.649	19.07421
991.818	17.9602
991.987	-51.99596
992.156	-21.52386
992.325	47.25091
992.493	-29.43672
992.662	-33.95888
992.831	-1.22164
993	-11.37792
993.168	4.42107
993.337	-1.22297
993.506	-2.34918
993.675	-2.35054
993.843	-5.73387
994.012	15.69795
994.181	6.67734
994.349	21.33341
994.518	-27.16592
994.686	31.49235
994.855	-14.76738
995.024	21.33094
995.192	-12.50317
995.361	-30.5399
995.529	-4.60705
995.698	37.15074
995.866	-19.27926
996.035	4.41799
996.203	-73.45796
996.371	13.43885
996.54	-11.36826
996.708	-21.51971
996.877	13.4482
997.045	-41.79847
997.213	-21.53301
997.382	19.08231
997.55	-37.32873
997.718	-46.3715
997.887	-18.13635
998.055	-6.8596
998.223	19.086
998.391	-23.78515
998.56	3.29247
998.728	31.47534
998.896	-40.7019
999.064	28.09562
999.232	-39.6084
999.401	-7.98859
999.569	-0.09409
999.737	8.92653
999.905	8.93066
1000.073	-22.64869
1000.241	-1.2223
1000.409	39.39427
1000.577	7.80757
1000.745	-15.88595
1000.913	-11.37616
1001.081	-15.88044
1001.249	-5.74144
1001.417	-20.39873
1001.585	15.69613
1001.753	-23.80359
1001.921	-7.99167
1002.089	-58.69785
1002.256	-2.34918
1002.424	-30.53519
1002.592	54.08337
1002.76	-27.18381
1002.928	20.21541
1003.096	-49.73358
1003.263	-13.62996
1003.431	47.28737
1003.599	5.54566
1003.767	-31.69262
1003.934	-18.14054
1004.102	-45.27003
1004.27	-18.13425
1004.437	-37.32151
1004.605	-2.34945
1004.773	28.09129
1004.94	3.29018
1005.108	-28.30103
1005.275	-18.14475
1005.443	-32.8167
1005.61	6.67372
1005.778	-28.29447
1005.945	-18.14054
1006.113	-17.00247
1006.28	-27.17117
1006.448	-29.42647
1006.615	-3.47927
1006.783	-18.15459
1006.95	5.54523
1007.118	-35.06394
1007.285	48.43331
1007.452	-10.23945
1007.62	3.29043
1007.787	-19.286
1007.954	-40.71922
1008.122	-24.90128
1008.289	-23.80267
1008.456	33.76681
1008.623	8.92515
1008.791	22.48159
1008.958	6.67346
1009.125	11.19376
1009.292	-21.53468
1009.459	15.69735
1009.627	-36.17873
1009.794	19.08379
1009.961	14.56574
1010.128	-57.60743
1010.295	-53.13146
1010.462	-3.48048
1010.629	-45.23664
1010.796	-5.73409
1010.963	-10.24538
1011.13	-3.47819
1011.297	-23.77413
1011.464	-15.89888
1011.631	-20.38614
1011.798	5.54588
1011.965	8.92997
1012.132	-27.15649
1012.299	-20.41295
1012.466	-46.34279
1012.633	3.28929
1012.799	-1.22145
1012.966	10.05855
1013.133	-14.76281
1013.3	-37.30279
1013.467	15.69553
1013.633	-23.79343
1013.8	-4.60884
1013.967	14.57531
1014.134	-14.75938
1014.3	-14.75767
1014.467	20.21072
1014.634	-32.79389
1014.8	-27.17328
1014.967	-56.53546
1015.134	-70.03802
1015.3	-37.31862
1015.467	-9.11692
1015.633	-54.23789
1015.8	-3.48305
1015.966	-0.09396
1016.133	41.67012
1016.3	-1.22316
1016.466	-0.0941
1016.632	-29.439
1016.799	-31.66936
1016.965	1.03366
1017.132	22.47724
1017.298	16.81396
1017.465	1.03458
1017.631	14.58153
1017.797	-35.07072
1017.964	7.79972
1018.13	-35.07479
1018.296	1.03374
1018.463	12.31563
1018.629	8.93274
1018.795	-6.8596
1018.961	2.16199
1019.128	-15.89579
1019.294	-1.22325
1019.46	12.32422
1019.626	-14.76166
1019.792	8.93066
1019.959	-0.09401
1020.125	-11.37133
1020.291	-15.89456
1020.457	-10.24735
1020.623	-79.03257
1020.789	-1.22202
1020.955	-40.6862
1021.121	-54.21696
1021.287	-24.91474
1021.453	-27.17328
1021.619	38.25052
1021.785	-33.94178
1021.951	32.63116
1022.117	3.28891
1022.283	-7.99013
1022.449	13.43988
1022.615	-27.17854
1022.781	7.80122
1022.946	-4.60492
1023.112	-39.58691
1023.278	40.52643
1023.444	-5.73431
1023.61	11.1864
1023.775	-3.47698
1023.941	-21.51473
1024.107	-37.33885
1024.273	-11.37881
1024.438	-13.63893
1024.604	2.16183
1024.77	-2.3509
1024.935	-4.60616
1025.101	-4.60848
1025.267	-65.5407
1025.432	-14.76567
1025.598	-13.6247
1025.763	11.1942
1025.929	-7.99106
1026.095	-5.73787
1026.26	5.54781
1026.426	26.98001
1026.591	34.87862
1026.757	-28.31749
1026.922	-26.04749
1027.087	-9.12221
1027.253	-4.60705
1027.418	-24.93019
1027.584	-30.56351
1027.749	23.59804
1027.914	-5.73056
1028.08	13.443
1028.245	14.56405
1028.41	19.08084
1028.576	-11.37572
1028.741	-38.47569
1028.906	10.057
1029.072	-32.7901
1029.237	-28.3087
1029.402	-39.58078
1029.567	-17.00509
1029.732	-57.63414
1029.898	-4.60688
1030.063	45.05204
1030.228	-24.89648
1030.393	-9.11938
1030.558	3.28866
1030.723	41.65397
1030.888	-30.55405
1031.053	16.83931
1031.218	24.73245
1031.383	-5.73387
1031.548	11.1795
1031.713	-35.07751
1031.878	-20.38614
1032.043	3.28916
1032.208	-63.23018
1032.373	7.80696
1032.538	-19.26734
1032.703	-2.34963
1032.868	-35.08023
1033.033	-14.75084
1033.198	19.08748
1033.362	-6.8649
1033.527	10.0605
1033.692	-48.61387
1033.857	-6.86357
1034.021	-46.31599
1034.186	-51.97587
1034.351	33.76027
1034.516	1.0343
1034.68	-18.14615
1034.845	-18.14335
1035.01	31.50454
1035.174	-5.73587
1035.339	3.2879
1035.504	-18.14265
1035.668	-31.68159
1035.833	-29.41284
1035.997	30.37072
1036.162	7.80062
1036.326	11.18036
1036.491	-28.31639
1036.655	-46.3053
1036.82	24.7507
1036.984	64.23793
1037.149	-12.50124
1037.313	-4.60795
1037.478	-50.81959
1037.642	-21.53802
1037.807	8.93585
1037.971	21.34247
1038.135	2.16074
1038.3	-3.4794
1038.464	34.88807
1038.628	14.57418
1038.792	-33.94047
1038.957	-36.1955
1039.121	-20.37987
1039.285	58.58908
1039.449	-15.88227
1039.614	17.94564
1039.778	-17.03011
1039.942	-3.48062
1040.106	12.32183
1040.27	-55.40556
1040.434	24.70668
1040.599	2.16199
1040.763	-27.18697
1040.927	51.81593
1041.091	-3.47792
1041.255	-28.3263
1041.419	-14.74573
1041.583	-62.16395
1041.747	-40.69247
1041.911	-24.91282
1042.075	2.163
1042.239	31.48991
1042.403	-39.54873
1042.567	28.08589
1042.731	-10.25053
1042.894	-38.42367
1043.058	69.8554
1043.222	32.6198
1043.386	4.41799
1043.55	-9.11762
1043.714	42.78147
1043.877	-15.88166
1044.041	-4.6083
1044.205	23.5953
1044.369	-18.14967
1044.532	-36.17873
1044.696	-24.9032
1044.86	-27.15963
1045.023	-49.74898
1045.187	-21.53301
1045.351	-42.97618
1045.514	-23.78975
1045.678	-35.07751
1045.841	4.41816
