Data from mildly cloudy_Subt2__3__14-15-27-186.txt Node

Date: Mon Oct 13 14:15:27 EDT 2025
User: brett
Spectrometer: USB4F03499
Trigger mode: 4
Integration Time (sec): 8.500000E-4
Scans to average: 1
Electric dark correction enabled: true
Nonlinearity correction enabled: true
Boxcar width: 0
XAxis mode: Wavelengths
Number of Pixels in Spectrum: 3648
>>>>>Begin Spectral Data<<<<<
345.386	32.4667
345.605	32.4667
345.824	32.4667
346.044	78.78712
346.263	44.86697
346.482	-54.43378
346.701	21.14851
346.92	4.23027
347.139	48.22236
347.358	5.35762
347.577	-19.45738
347.796	24.54508
348.015	9.88386
348.234	-14.95072
348.453	-31.8804
348.672	-0.28215
348.891	7.62173
349.11	-0.28213
349.329	371.94999
349.548	1139.08637
349.767	1005.71536
349.986	1023.1011
350.205	1058.99725
350.424	1132.11065
350.643	1206.55662
350.862	1178.12301
351.08	1116.96711
351.299	1089.89558
351.518	1096.06147
351.737	1272.37274
351.956	1134.20849
352.174	1204.65911
352.393	1224.55218
352.612	1261.30997
352.831	1335.36191
353.049	1348.72485
353.268	1294.86648
353.487	1377.87291
353.705	1316.67122
353.924	1391.44605
354.143	1458.97389
354.361	1490.88074
354.58	1414.28233
354.798	1447.89761
355.017	1478.76337
355.236	1513.32324
355.454	1506.42359
355.673	1636.36641
355.891	1661.84296
356.11	1579.55174
356.328	1656.04299
356.547	1645.9941
356.765	1588.59031
356.984	1627.87779
357.202	1663.04455
357.42	1737.52214
357.639	1759.70924
357.857	1715.57315
358.076	1689.12668
358.294	1685.25067
358.512	1700.0023
358.731	1626.23885
358.949	1631.0648
359.167	1759.59142
359.386	1620.13808
359.604	1775.20874
359.822	1831.25656
360.04	1842.49897
360.259	1742.89689
360.477	1884.21006
360.695	1749.4394
360.913	1797.35069
361.131	1831.70267
361.35	1894.94558
361.568	1877.49468
361.786	1867.63169
362.004	1873.2732
362.222	1918.65566
362.44	1815.54186
362.658	1946.67395
362.876	1853.80342
363.094	1899.92639
363.312	1891.09194
363.53	1990.68472
363.749	1951.83083
363.967	1948.35993
364.184	1919.81723
364.402	2072.20359
364.62	2011.81811
364.838	2029.96597
365.056	2059.9461
365.274	2193.20495
365.492	2102.53236
365.71	2217.65213
365.928	2140.6678
366.146	2348.69454
366.364	2314.49028
366.581	2409.82733
366.799	2448.59577
367.017	2456.15887
367.235	2437.93514
367.453	2635.82395
367.67	2679.02064
367.888	2730.62913
368.106	2701.54952
368.323	2700.4006
368.541	2806.54296
368.759	2823.2205
368.977	2932.87347
369.194	2973.62552
369.412	2951.02559
369.629	3080.59783
369.847	2957.87452
370.065	3068.87412
370.282	3185.12068
370.5	3302.23736
370.717	3247.82595
370.935	3206.26344
371.152	3342.47073
371.37	3435.40731
371.588	3368.82668
371.805	3386.0588
372.022	3428.54613
372.24	3605.98208
372.457	3500.37489
372.675	3592.13023
372.892	3579.28831
373.11	3577.11023
373.327	3484.16644
373.544	3640.63987
373.762	3654.07254
373.979	3556.97898
374.196	3536.6731
374.414	3568.19622
374.631	3558.85901
374.848	3656.61846
375.066	3487.95714
375.283	3517.57668
375.5	3464.61189
375.717	3543.62806
375.935	3665.23737
376.152	3606.02747
376.369	3644.57964
376.586	3664.70204
376.803	3482.79885
377.02	3645.1313
377.238	3572.95587
377.455	3597.71108
377.672	3683.83071
377.889	3558.32658
378.106	3613.92654
378.323	3739.59685
378.54	3757.97133
378.757	3703.04741
378.974	3620.69887
379.191	3679.5111
379.408	3846.95923
379.625	3905.72393
379.842	3669.33826
380.059	3901.43374
380.276	3849.5016
380.493	3738.53338
380.71	3881.28351
380.927	3936.79033
381.143	3935.20266
381.36	4170.6143
381.577	3943.05324
381.794	3929.76103
382.011	3918.12117
382.228	4083.52683
382.444	4023.03746
382.661	4054.16072
382.878	3995.82598
383.095	4182.06578
383.311	4147.44659
383.528	4053.44938
383.745	4045.95068
383.962	4193.84207
384.178	4061.99253
384.395	4103.32176
384.612	4144.48976
384.828	4084.36742
385.045	4063.61162
385.261	4030.77265
385.478	4125.50287
385.695	4138.18725
385.911	4060.1326
386.128	4056.23107
386.344	4157.65821
386.561	4162.84751
386.777	4108.55163
386.994	4076.77127
387.21	3943.48157
387.427	4037.64322
387.643	3892.84671
387.86	3933.27345
388.076	3783.49846
388.292	4001.80188
388.509	3833.78939
388.725	3985.42375
388.942	4019.85425
389.158	4053.64712
389.374	3979.09901
389.591	3946.03673
389.807	3938.91434
390.023	4055.43162
390.239	3871.05191
390.456	4089.77854
390.672	4088.6515
390.888	4051.08415
391.104	4228.66824
391.321	4304.38162
391.537	4482.88119
391.753	4255.47571
391.969	4529.16295
392.185	4703.38834
392.401	4594.29184
392.618	4605.71863
392.834	4486.36241
393.05	4797.82815
393.266	4850.81353
393.482	4794.34517
393.698	4617.33684
393.914	4664.37863
394.13	4758.05963
394.346	4588.65444
394.562	4714.10516
394.778	4639.45855
394.994	4761.41355
395.21	4888.10737
395.426	4892.59551
395.642	4829.46443
395.858	5137.17112
396.073	4962.24863
396.289	5025.00534
396.505	5155.9117
396.721	5018.82904
396.937	5067.49057
397.153	4864.58979
397.369	4920.02182
397.584	5244.25347
397.8	5008.78039
398.016	4944.95982
398.232	5153.67911
398.447	5002.80105
398.663	5151.83741
398.879	5003.03304
399.094	5301.61815
399.31	5193.45565
399.526	5065.57667
399.741	5336.48164
399.957	5331.26441
400.173	5315.19264
400.388	5350.71394
400.604	5428.3681
400.82	5505.86111
401.035	5868.72675
401.251	5607.44529
401.466	5628.52789
401.682	6001.57368
401.897	6108.63221
402.113	6040.23233
402.328	6401.98816
402.544	6252.49984
402.759	6511.1278
402.974	6715.85203
403.19	6561.08109
403.405	6967.14281
403.621	7416.77697
403.836	7394.51054
404.051	7541.14634
404.267	7716.22005
404.482	7469.14017
404.697	7411.60211
404.913	7552.75424
405.128	8151.52421
405.343	8001.37521
405.559	7978.6209
405.774	8167.76866
405.989	8587.71352
406.204	8497.28816
406.42	8539.0851
406.635	8672.70605
406.85	8524.44975
407.065	8752.01844
407.28	8892.29919
407.495	8840.46475
407.71	8665.79989
407.926	8732.72569
408.141	9435.04024
408.356	9301.71043
408.571	9171.73596
408.786	8987.95235
409.001	9160.02792
409.216	9448.71329
409.431	9372.10587
409.646	9294.66643
409.861	9316.38867
410.076	9240.20902
410.291	9360.17114
410.506	9480.44822
410.721	9227.62026
410.936	9284.83702
411.15	9318.80155
411.365	9461.57123
411.58	9585.97276
411.795	9365.12859
412.01	9645.15951
412.225	9470.13761
412.439	9232.31212
412.654	9441.90255
412.869	9536.57668
413.084	9495.54215
413.299	9553.15906
413.513	9328.67722
413.728	9416.73893
413.943	9627.85777
414.157	9768.93058
414.372	9663.34433
414.587	9921.04589
414.801	10159.88068
415.016	9857.42826
415.231	10092.47788
415.445	9984.94492
415.66	10030.69672
415.874	10325.53874
416.089	9993.96373
416.304	10456.37745
416.518	10168.00945
416.733	10298.54564
416.947	9937.59848
417.162	10193.93142
417.376	10270.02127
417.59	10605.61224
417.805	10681.35312
418.019	10474.07124
418.234	10417.74735
418.448	10173.72505
418.663	10498.42089
418.877	10461.75565
419.091	10566.66544
419.306	10521.87068
419.52	10479.71051
419.734	10468.56364
419.949	10845.78335
420.163	10884.63428
420.377	10411.28643
420.591	10554.39357
420.806	10818.39999
421.02	10627.85843
421.234	10749.53368
421.448	10727.01641
421.663	10911.99131
421.877	10618.74971
422.091	10623.42786
422.305	10473.86139
422.519	10634.13732
422.733	11295.08953
422.947	10508.13914
423.161	10449.1436
423.376	10673.11483
423.59	10728.68648
423.804	10970.90525
424.018	10809.30414
424.232	10725.84746
424.446	11273.05704
424.66	10946.62804
424.874	10827.83797
425.088	10518.66682
425.302	10685.86303
425.515	11172.78889
425.729	11226.35241
425.943	11273.41049
426.157	11260.33015
426.371	10912.23163
426.585	10958.60611
426.799	11095.0453
427.013	11535.3478
427.226	11632.48404
427.44	11006.29163
427.654	10932.84595
427.868	10957.34308
428.081	11153.29844
428.295	10979.58902
428.509	11224.56931
428.723	10876.18696
428.936	10951.49591
429.15	10782.77233
429.364	11129.73688
429.577	10576.76047
429.791	10690.68602
430.005	11216.76525
430.218	11221.79172
430.432	10533.08654
430.645	10580.72098
430.859	10770.59856
431.073	10750.15151
431.286	11055.9886
431.5	11229.93002
431.713	10437.28372
431.927	10523.47912
432.14	10780.10345
432.354	10673.0425
432.567	10698.04269
432.781	11027.56522
432.994	11002.00012
433.207	11018.55308
433.421	11167.88628
433.634	10999.57714
433.848	11319.66716
434.061	10836.70247
434.274	10374.59475
434.488	10539.58331
434.701	10462.89059
434.914	10445.89282
435.127	11020.86856
435.341	11214.79031
435.554	11094.72236
435.767	11486.02801
435.98	11618.28705
436.194	10859.30816
436.407	10978.477
436.62	12031.8195
436.833	11752.80062
437.046	11640.55139
437.259	11030.81456
437.473	11591.74389
437.686	11915.85809
437.899	11571.15572
438.112	11780.58748
438.325	11588.49524
438.538	11652.69133
438.751	12585.99087
438.964	11826.54682
439.177	12146.2012
439.39	12093.57627
439.603	12936.04389
439.816	12215.39853
440.029	13225.30963
440.242	13338.21856
440.455	13542.58058
440.668	13397.81084
440.881	12765.16188
441.094	12493.17138
441.306	13217.24542
441.519	13988.87204
441.732	13962.67538
441.945	13977.16825
442.158	13274.65193
442.37	13098.97693
442.583	14075.34934
442.796	14563.69941
443.009	14338.73008
443.222	13606.83051
443.434	13117.47467
443.647	14371.46665
443.86	14923.08694
444.072	15273.22935
444.285	14747.99275
444.498	14943.78958
444.71	14591.63102
444.923	14741.37924
445.136	14393.61178
445.348	14179.91619
445.561	14128.25264
445.773	14462.56343
445.986	13738.11834
446.198	14888.25389
446.411	14870.69174
446.623	15122.25597
446.836	14787.23475
447.048	15106.00472
447.261	15707.576
447.473	15406.30951
447.686	15115.56029
447.898	15023.19399
448.11	16188.44875
448.323	16282.81651
448.535	15932.25217
448.748	15182.25078
448.96	15275.28428
449.172	15493.0192
449.385	14772.3052
449.597	15806.98453
449.809	15841.11709
450.021	16259.61202
450.234	16244.52366
450.446	15485.10398
450.658	15383.66799
450.87	15505.34494
451.083	15895.11348
451.295	16056.4048
451.507	15707.11822
451.719	15577.77742
451.931	16146.4613
452.143	16100.02856
452.356	15817.54276
452.568	16036.45316
452.78	15851.96995
452.992	16420.48318
453.204	16550.36827
453.416	16199.02585
453.628	15467.72412
453.84	15941.5037
454.052	15867.1505
454.264	16555.01367
454.476	16243.62764
454.688	17210.03137
454.9	17236.13034
455.112	16285.22694
455.324	15950.17055
455.536	16644.06201
455.747	16980.18592
455.959	16743.27755
456.171	16983.74227
456.383	16441.27969
456.595	15975.94136
456.807	16038.26171
457.018	15851.14771
457.23	16774.38382
457.442	16214.70382
457.654	16601.40389
457.865	16595.02662
458.077	15981.73106
458.289	15856.87456
458.501	16309.3881
458.712	17227.56756
458.924	17709.99689
459.136	16593.13929
459.347	16293.16037
459.559	16374.17813
459.77	17186.82204
459.982	17412.82554
460.194	17454.85716
460.405	16542.11306
460.617	16539.82198
460.828	17347.07795
461.04	17176.40755
461.251	16769.33679
461.463	18192.0548
461.674	17843.77216
461.886	17511.40517
462.097	16973.72735
462.309	17508.72851
462.52	16823.11972
462.731	18303.96324
462.943	17239.25541
463.154	16638.55931
463.366	17023.77423
463.577	17475.94593
463.788	18011.90361
464	18193.63052
464.211	18182.97914
464.422	19324.77872
464.634	19022.10092
464.845	18709.37661
465.056	19071.29678
465.267	18580.03897
465.478	17798.32269
465.69	18759.50104
465.901	18726.91302
466.112	18697.14263
466.323	18878.92358
466.534	19418.83065
466.745	19306.63128
466.957	19418.57107
467.168	19007.2203
467.379	19140.96824
467.59	18476.38965
467.801	18245.63357
468.012	18941.66057
468.223	19222.45589
468.434	18864.72352
468.645	19865.3423
468.856	20212.26479
469.067	19650.70925
469.278	19779.56301
469.489	20122.08304
469.7	19147.48719
469.911	19065.70816
470.122	20687.41953
470.333	20803.50836
470.543	19749.36908
470.754	20522.72282
470.965	20504.39729
471.176	20558.78364
471.387	21160.70546
471.598	20566.36948
471.808	20209.73129
472.019	20709.61874
472.23	20626.28377
472.441	20102.51228
472.651	20893.09668
472.862	20864.23159
473.073	21564.96582
473.283	21055.42762
473.494	20936.40801
473.705	21049.009
473.915	21140.51206
474.126	22026.23588
474.337	21578.50368
474.547	22187.36894
474.758	22489.48587
474.968	22349.47979
475.179	22458.81283
475.389	22103.58352
475.6	22507.62308
475.81	22935.9162
476.021	23272.58996
476.231	23374.18974
476.442	23276.34532
476.652	22698.51465
476.863	23042.24082
477.073	22752.18843
477.284	23555.54838
477.494	23390.44437
477.704	24638.59758
477.915	25149.95745
478.125	23651.92172
478.335	24336.22636
478.546	25260.87292
478.756	24846.38792
478.966	25368.54787
479.177	25073.49911
479.387	25367.67004
479.597	25446.39001
479.807	25487.38118
480.018	25504.06425
480.228	25911.86524
480.438	26107.70528
480.648	26575.31111
480.858	26563.82111
481.068	25985.45901
481.279	26587.08073
481.489	27651.48278
481.699	27436.7087
481.909	27241.39672
482.119	28673.94063
482.329	28465.37053
482.539	28470.25468
482.749	27906.79686
482.959	28429.48654
483.169	29349.33973
483.379	29282.8362
483.589	29541.6327
483.799	29164.17207
484.009	29016.88383
484.219	29389.56459
484.429	29823.82946
484.639	29538.70882
484.849	29839.15004
485.059	30575.39843
485.268	30577.38612
485.478	30955.40951
485.688	30132.87577
485.898	30275.69001
486.108	30463.29479
486.317	30910.84878
486.527	30891.35537
486.737	31690.04764
486.947	31210.7381
487.156	32006.02109
487.366	31561.35181
487.576	30995.79457
487.785	31172.12308
487.995	31266.28125
488.205	31507.83378
488.414	31621.22871
488.624	31717.62407
488.834	31684.90754
489.043	31231.81329
489.253	31141.82536
489.462	31588.6256
489.672	32251.24274
489.882	32209.74662
490.091	32395.02103
490.301	32154.64587
490.51	32462.89966
490.72	32607.16201
490.929	32713.62699
491.138	32926.39611
491.348	32428.61894
491.557	32741.19064
491.767	32822.13394
491.976	32680.89333
492.185	32720.66396
492.395	32718.08928
492.604	32895.93769
492.813	32875.04946
493.023	33290.34043
493.232	33005.03454
493.441	32979.93291
493.651	33231.75565
493.86	32945.71182
494.069	33283.80982
494.278	33289.65467
494.488	33467.60989
494.697	33468.58782
494.906	33293.5053
495.115	33739.47554
495.324	33603.65874
495.533	33962.97947
495.743	33934.06338
495.952	34405.71835
496.161	34185.68506
496.37	34268.80141
496.579	34410.23465
496.788	34329.48078
496.997	34744.75501
497.206	34485.59109
497.415	34519.26673
497.624	34583.17042
497.833	34656.59021
498.042	34617.85976
498.251	34848.92675
498.46	34880.3331
498.669	34748.1359
498.878	34758.67493
499.087	34749.14339
499.296	35034.7327
499.504	34951.73841
499.713	34973.47028
499.922	35050.77424
500.131	34980.26242
500.34	35042.41228
500.549	35156.95481
500.757	35001.74202
500.966	35216.86171
501.175	35056.07155
501.384	35250.67091
501.592	35050.88181
501.801	35212.99617
502.01	35216.26507
502.218	35154.73594
502.427	35288.20708
502.636	35154.41998
502.844	35225.07128
503.053	35130.36406
503.262	35106.77907
503.47	35152.0689
503.679	35105.83849
503.887	35190.40336
504.096	35126.33284
504.304	35115.50362
504.513	35130.54533
504.721	35172.09363
504.93	35082.3616
505.138	35166.09936
505.347	35087.21165
505.555	35144.03763
505.764	35092.73807
505.972	35123.79391
506.18	35020.79562
506.389	35024.08871
506.597	34958.96483
506.806	35090.06679
507.014	35069.08762
507.222	35088.81478
507.431	35081.5677
507.639	34941.42096
507.847	35129.05559
508.055	35008.17569
508.264	35126.97677
508.472	35075.15044
508.68	35089.35105
508.888	35161.11484
509.096	35150.87487
509.305	35097.56659
509.513	35007.70534
509.721	35091.57362
509.929	35098.62792
510.137	35066.4107
510.345	35157.89658
510.553	35127.46128
510.762	35111.58084
510.97	35055.90107
511.178	35096.42567
511.386	35146.68606
511.594	35169.8396
511.802	35190.11882
512.01	35203.0724
512.218	35279.70931
512.426	35232.52056
512.634	35292.24472
512.842	35289.51098
513.049	35235.23678
513.257	35236.95292
513.465	35290.4432
513.673	35236.87112
513.881	35287.0807
514.089	35290.29623
514.297	35282.43561
514.504	35281.0124
514.712	35258.49399
514.92	35303.32186
515.128	35363.00223
515.336	35263.90071
515.543	35265.09954
515.751	35229.09431
515.959	35205.0705
516.166	35169.42057
516.374	35211.3429
516.582	35154.62906
516.789	35198.11252
516.997	35140.34751
517.205	35183.84594
517.412	35104.09069
517.62	35217.93113
517.827	35056.77842
518.035	35056.08879
518.243	35010.24698
518.45	34957.47309
518.658	34772.61283
518.865	34811.19944
519.073	34747.54502
519.28	34697.0467
519.488	34769.28678
519.695	34590.23859
519.902	34580.25983
520.11	34480.80171
520.317	34563.69199
520.525	34492.65826
520.732	34407.9114
520.939	34581.15117
521.147	34204.3155
521.354	34349.65776
521.561	34212.09601
521.769	34246.95727
521.976	34051.75598
522.183	34245.45655
522.391	34164.557
522.598	34234.91912
522.805	34061.51904
523.012	34130.83212
523.219	34084.10856
523.427	34209.36044
523.634	34209.83448
523.841	34317.9681
524.048	34211.85719
524.255	34234.12709
524.462	34096.51276
524.669	33997.50847
524.877	34241.21538
525.084	34066.78217
525.291	34002.4921
525.498	34157.37978
525.705	34149.76603
525.912	34294.31864
526.119	34093.25662
526.326	34302.63111
526.533	34195.41771
526.74	34500.55282
526.947	34209.54185
527.153	34439.44476
527.36	34264.81632
527.567	34279.29726
527.774	34271.90028
527.981	34307.99481
528.188	34321.15653
528.395	34286.83823
528.602	34232.75052
528.808	34322.52294
529.015	34231.13518
529.222	34431.42556
529.429	34066.01858
529.635	34408.92089
529.842	34359.92974
530.049	34225.98648
530.256	34295.52283
530.462	34455.49157
530.669	34434.05186
530.876	34493.66786
531.082	34322.8807
531.289	34323.71572
531.495	34259.0538
531.702	34402.68992
531.909	34387.07019
532.115	34600.63186
532.322	34278.70772
532.528	34332.73643
532.735	34394.31165
532.941	34400.73897
533.148	34271.69832
533.354	34380.21501
533.561	34408.72017
533.767	34170.71222
533.974	34221.64862
534.18	34275.02879
534.387	34170.01811
534.593	34222.30777
534.799	34049.68197
535.006	34285.1219
535.212	34154.50743
535.418	34226.63789
535.625	34321.02461
535.831	34214.0131
536.037	34076.86326
536.244	34071.99597
536.45	33761.80804
536.656	34011.59858
536.862	34126.50595
537.068	34270.65062
537.275	34167.38877
537.481	34304.71001
537.687	34205.97658
537.893	34424.62947
538.099	34044.69281
538.305	34099.53875
538.512	34027.54147
538.718	34034.66626
538.924	34038.2251
539.13	33945.40724
539.336	33974.75035
539.542	33997.45387
539.748	33917.27365
539.954	33958.87608
540.16	33999.59126
540.366	34087.78709
540.572	33868.79914
540.778	33836.15988
540.984	33819.41418
541.19	33980.15859
541.396	33634.20031
541.602	33830.69137
541.807	33595.15055
542.013	33865.47436
542.219	33541.77946
542.425	33558.32859
542.631	33523.68478
542.837	33340.06751
543.042	33537.56216
543.248	33341.47102
543.454	33435.12556
543.66	33378.00213
543.865	33043.85423
544.071	33386.06722
544.277	33151.12213
544.483	33076.18042
544.688	33269.98312
544.894	33282.23518
545.1	33400.94774
545.305	33081.90656
545.511	33177.08572
545.716	33054.33301
545.922	32995.57702
546.128	32917.6911
546.333	32931.81884
546.539	32974.72462
546.744	32965.04941
546.95	33021.32271
547.155	32757.30885
547.361	32818.99047
547.566	32536.37008
547.772	32777.64622
547.977	32893.10845
548.182	32571.05937
548.388	32765.03274
548.593	32991.11737
548.799	32526.13699
549.004	32590.1667
549.209	32623.11652
549.415	32897.22601
549.62	32492.49756
549.825	32688.14678
550.031	32330.88549
550.236	32695.32572
550.441	32547.81159
550.646	32774.28283
550.852	32674.52906
551.057	32400.33304
551.262	32556.76717
551.467	32450.96951
551.672	32333.59461
551.878	32539.58702
552.083	32385.80485
552.288	32207.61096
552.493	32388.64844
552.698	32217.10422
552.903	32289.84299
553.108	32528.07901
553.313	32316.95767
553.518	32373.08059
553.723	32433.65423
553.928	32563.88766
554.133	32246.14726
554.338	32387.03524
554.543	32315.38107
554.748	32200.54801
554.953	32366.85836
555.158	32417.90744
555.363	32238.82317
555.568	32118.55905
555.773	32489.84196
555.978	32381.43626
556.182	32159.99424
556.387	32090.06317
556.592	31894.30914
556.797	32172.8332
557.002	32047.60119
557.206	31989.85901
557.411	32059.83489
557.616	31809.23898
557.821	32126.94583
558.025	32121.13094
558.23	31762.0787
558.435	32145.31156
558.64	31913.23641
558.844	32003.24549
559.049	31867.33366
559.253	31928.70679
559.458	31876.60205
559.663	31848.21066
559.867	31547.12621
560.072	31616.74899
560.276	31618.08078
560.481	31537.55332
560.685	31541.46863
560.89	31320.41648
561.094	31423.31018
561.299	31386.36501
561.503	31094.48261
561.708	31141.39177
561.912	31212.40152
562.117	31071.74599
562.321	30969.46806
562.525	31276.95705
562.73	31146.04786
562.934	30968.00026
563.139	30994.56615
563.343	30850.21567
563.547	30957.35559
563.752	30946.33718
563.956	30999.73858
564.16	30689.50433
564.364	30686.44593
564.569	30690.92043
564.773	30533.24213
564.977	30525.48458
565.181	30827.79523
565.385	30387.03593
565.59	30802.2445
565.794	30484.95993
565.998	30456.61447
566.202	30518.71041
566.406	30327.01077
566.61	30534.17857
566.814	30265.91941
567.018	30204.4502
567.222	30152.07729
567.426	29830.52653
567.63	30288.88085
567.834	30047.51369
568.038	30030.18569
568.242	29925.47853
568.446	29995.5592
568.65	29895.70112
568.854	29805.81849
569.058	30072.67925
569.262	29917.79216
569.466	29905.19088
569.67	29746.26481
569.874	29620.89567
570.078	29717.93127
570.281	29723.61053
570.485	29489.36212
570.689	29617.51167
570.893	29401.97885
571.097	29443.17896
571.3	29128.63422
571.504	29247.28254
571.708	29286.95512
571.912	29285.56378
572.115	29287.83515
572.319	29054.80145
572.523	29067.60835
572.726	29039.16103
572.93	28808.00878
573.133	29047.56611
573.337	28954.05659
573.541	28949.99324
573.744	28678.21184
573.948	28915.33176
574.151	28783.80643
574.355	28472.49333
574.558	28663.77956
574.762	28766.47362
574.965	28490.20183
575.169	28793.65992
575.372	28408.26405
575.576	28570.89535
575.779	28309.48827
575.983	28442.14136
576.186	28396.70193
576.389	28357.9136
576.593	28374.35729
576.796	28316.88075
577	27948.86944
577.203	28309.73672
577.406	28066.65272
577.609	28138.43122
577.813	28042.44855
578.016	28031.92537
578.219	28050.58928
578.423	27994.00192
578.626	27670.0442
578.829	27781.2037
579.032	27687.63359
579.235	27885.84279
579.438	27797.33442
579.642	27910.18349
579.845	27553.49603
580.048	27745.4449
580.251	27252.08591
580.454	27489.82067
580.657	27528.15609
580.86	27633.66088
581.063	27105.18918
581.266	27441.22236
581.469	27222.95389
581.672	27203.77312
581.875	27205.77638
582.078	27346.51045
582.281	26977.49185
582.484	27098.81566
582.687	27054.50855
582.89	27027.15852
583.093	27068.05837
583.296	26824.74322
583.499	27099.90737
583.702	27014.36568
583.904	26826.36932
584.107	26944.38533
584.31	26950.91785
584.513	26928.48322
584.716	26892.58139
584.918	27081.21693
585.121	26886.81888
585.324	26664.7101
585.527	26637.36781
585.729	27116.2164
585.932	26497.91984
586.135	26793.53958
586.337	26432.33711
586.54	26701.20139
586.743	26393.092
586.945	26369.29108
587.148	26479.23516
587.35	26745.62005
587.553	26256.03663
587.755	26417.30463
587.958	26432.5875
588.161	26479.99465
588.363	26407.50827
588.566	26318.88136
588.768	26515.61569
588.971	26316.87512
589.173	26323.36992
589.375	26074.72848
589.578	26058.80569
589.78	26275.84631
589.983	25777.60212
590.185	25997.24552
590.387	25761.94041
590.59	25899.2039
590.792	25368.54614
590.994	25293.75346
591.197	25279.92516
591.399	25072.73679
591.601	25287.57319
591.803	25209.14133
592.006	24885.36439
592.208	25100.31309
592.41	24840.68735
592.612	24748.13953
592.815	24626.21729
593.017	24636.24266
593.219	24605.5449
593.421	24420.03365
593.623	24301.38741
593.825	24034.00684
594.027	24137.49038
594.229	24221.4835
594.432	24157.5779
594.634	24097.15857
594.836	23901.00097
595.038	24026.98201
595.24	23761.62788
595.442	23795.45812
595.644	23745.46284
595.846	23485.15099
596.048	23620.06242
596.249	23168.29465
596.451	23337.00049
596.653	23583.26558
596.855	23166.23528
597.057	23300.02487
597.259	23045.88502
597.461	23139.42936
597.663	23206.20296
597.864	23054.89433
598.066	23090.23609
598.268	23126.16914
598.47	22964.98115
598.671	22897.97014
598.873	22863.56273
599.075	22934.91429
599.277	23076.9458
599.478	23069.60994
599.68	23046.74741
599.882	23051.59634
600.083	22926.40244
600.285	22903.21801
600.487	22808.8425
600.688	22734.79327
600.89	22818.57869
601.091	22812.07247
601.293	22853.51745
601.494	22908.53713
601.696	22784.43411
601.898	22769.98384
602.099	22872.65929
602.301	22859.63932
602.502	22595.3017
602.703	23010.81687
602.905	22798.28847
603.106	22895.07864
603.308	22749.33714
603.509	22862.80005
603.711	22531.41683
603.912	22719.53657
604.113	22581.6366
604.315	22593.14671
604.516	22507.52901
604.717	22765.84208
604.919	22553.71367
605.12	22358.87803
605.321	22649.29965
605.522	22604.09273
605.724	22442.43344
605.925	22495.00107
606.126	22822.08009
606.327	22531.60311
606.528	22548.33491
606.729	22560.87469
606.931	22588.31948
607.132	22744.36115
607.333	22504.89155
607.534	22496.28791
607.735	22632.74754
607.936	22637.75643
608.137	22480.99079
608.338	22464.69635
608.539	22258.71414
608.74	22493.59721
608.941	22442.08871
609.142	22422.35533
609.343	22454.34416
609.544	22524.48375
609.745	22083.08095
609.946	22352.26786
610.147	22256.74739
610.348	22229.25375
610.549	22191.23704
610.75	22284.85414
610.95	22172.36002
611.151	22017.08615
611.352	22158.211
611.553	22160.35885
611.754	22070.80907
611.954	22279.65714
612.155	21980.29406
612.356	22014.59797
612.557	22030.39764
612.757	22288.02353
612.958	22011.443
613.159	21912.17595
613.359	22004.61383
613.56	21772.74568
613.761	21876.50228
613.961	22165.05059
614.162	21827.44217
614.362	21959.65794
614.563	21950.13646
614.764	21684.24684
614.964	21697.92988
615.165	21683.7523
615.365	21676.04926
615.566	21601.89908
615.766	21724.31317
615.967	21650.20197
616.167	21325.73037
616.368	21239.21681
616.568	21599.11759
616.768	21398.3961
616.969	21499.78712
617.169	21496.91081
617.37	21097.32322
617.57	21079.68716
617.77	21169.86551
617.971	21050.93364
618.171	21061.60746
618.371	21102.66987
618.571	20842.17305
618.772	21063.45678
618.972	20906.65288
619.172	20902.90443
619.372	20613.52919
619.573	20777.28915
619.773	20777.24477
619.973	20759.51143
620.173	20775.35756
620.373	20722.90661
620.573	20752.05701
620.774	20850.33225
620.974	20574.35823
621.174	20216.42976
621.374	20627.7939
621.574	20484.33649
621.774	20582.67829
621.974	20493.93476
622.174	20477.40956
622.374	20658.9137
622.574	20491.93944
622.774	20362.62846
622.974	20344.58357
623.174	20453.31779
623.374	20356.11512
623.574	20360.41737
623.774	20392.62605
623.973	20478.05802
624.173	20340.6913
624.373	20446.72138
624.573	20242.1306
624.773	20333.1053
624.973	20066.9699
625.172	20183.33458
625.372	20105.0494
625.572	20038.02767
625.772	19982.64848
625.971	19996.40111
626.171	20185.05517
626.371	20413.34407
626.57	19908.50898
626.77	20138.67694
626.97	19893.50602
627.169	20033.50791
627.369	19831.36686
627.569	19821.78338
627.768	19734.19943
627.968	19735.68661
628.167	19777.87521
628.367	19885.5351
628.566	19659.38457
628.766	19712.81304
628.965	19687.83887
629.165	19618.54933
629.364	19523.68567
629.564	19563.35481
629.763	19349.35427
629.963	19505.90979
630.162	19427.41489
630.362	19476.3959
630.561	19476.03434
630.76	19431.43947
630.96	19264.27865
631.159	19346.53932
631.358	19220.53506
631.558	19215.8077
631.757	19171.55353
631.956	19182.27381
632.155	19110.14816
632.355	18909.60356
632.554	18853.50511
632.753	18881.71804
632.952	18782.77283
633.152	18883.74942
633.351	18856.15717
633.55	18903.16895
633.749	18739.81017
633.948	18810.79938
634.147	18666.76565
634.346	18445.50271
634.545	18604.20335
634.744	18379.65966
634.944	18439.87203
635.143	18485.60301
635.342	18329.82591
635.541	18253.78322
635.74	18421.44277
635.939	18403.16822
636.138	18318.29718
636.336	18196.40387
636.535	18145.02783
636.734	18450.44259
636.933	18552.66951
637.132	18350.21349
637.331	18072.72123
637.53	18206.99149
637.729	18068.78183
637.928	18400.28922
638.126	18075.84583
638.325	18191.66383
638.524	17992.67638
638.723	18131.38735
638.921	18107.46829
639.12	18113.98138
639.319	18097.95994
639.518	17972.752
639.716	18136.83162
639.915	17920.09841
640.114	18123.66917
640.312	18003.57053
640.511	17992.4172
640.71	18070.82659
640.908	18067.04533
641.107	17962.84428
641.305	17679.04651
641.504	17994.67124
641.702	17878.84721
641.901	17661.83705
642.099	17787.86177
642.298	17809.98473
642.496	17909.5366
642.695	17826.44954
642.893	17855.79343
643.092	17909.79887
643.29	17562.90905
643.489	17614.99091
643.687	17668.47119
643.885	17645.71522
644.084	17687.37657
644.282	17577.18991
644.48	17736.55736
644.679	17734.3014
644.877	17546.08042
645.075	17697.88701
645.274	17468.52714
645.472	17445.75526
645.67	17306.52198
645.868	17279.35756
646.067	17294.2891
646.265	17433.4276
646.463	17304.1693
646.661	17279.39694
646.859	17358.23219
647.057	17173.33212
647.256	17368.65451
647.454	17366.16727
647.652	17270.07829
647.85	17112.96496
648.048	17279.24234
648.246	17175.16106
648.444	16878.81727
648.642	16981.70727
648.84	16966.56466
649.038	17008.13339
649.236	16802.15491
649.434	16785.82613
649.632	16649.98226
649.83	16720.5149
650.028	16582.65027
650.226	16478.40206
650.423	16594.36929
650.621	16534.7061
650.819	16388.32328
651.017	16401.09235
651.215	16365.19336
651.413	16435.69759
651.61	16269.37354
651.808	16246.46452
652.006	16028.13896
652.204	16206.98562
652.401	16076.17699
652.599	16112.51479
652.797	15930.31815
652.995	15883.1714
653.192	15829.9634
653.39	15895.3167
653.588	15947.72383
653.785	15620.92722
653.983	15676.43545
654.18	15838.6256
654.378	15475.75021
654.576	15783.60447
654.773	15619.99721
654.971	15737.33683
655.168	15488.54911
655.366	15666.55978
655.563	15470.02907
655.761	15542.59641
655.958	15557.53524
656.156	15614.83123
656.353	15455.16018
656.55	15471.75372
656.748	15476.46764
656.945	15303.56689
657.143	15251.34208
657.34	15366.87522
657.537	15170.70165
657.735	15295.1283
657.932	14908.29446
658.129	14863.90958
658.326	15016.83653
658.524	15008.26589
658.721	14831.47403
658.918	14829.61726
659.115	14767.64918
659.313	14816.90787
659.51	14512.1506
659.707	14799.38091
659.904	14625.69163
660.101	14810.88465
660.298	14593.71058
660.496	14782.94705
660.693	14660.4841
660.89	14642.86996
661.087	14474.67651
661.284	14447.64216
661.481	14545.30031
661.678	14520.4298
661.875	14598.61277
662.072	14432.82406
662.269	14491.65434
662.466	14500.23471
662.663	14324.70493
662.86	14499.14878
663.057	14452.61126
663.254	14479.88674
663.45	14526.98187
663.647	14478.69579
663.844	14280.19913
664.041	14276.34212
664.238	14284.20941
664.435	14273.0034
664.631	14232.10261
664.828	14395.0878
665.025	14348.25043
665.222	14286.2993
665.419	14264.81767
665.615	14339.51219
665.812	14048.99263
666.009	14271.46768
666.205	14201.28239
666.402	14422.24008
666.599	14290.49381
666.795	14303.71545
666.992	14114.92806
667.188	14193.43131
667.385	14308.52606
667.582	14453.15608
667.778	14230.86439
667.975	14456.05145
668.171	14470.15282
668.368	14135.23264
668.564	14344.61796
668.761	14483.65144
668.957	14265.33943
669.154	14169.73935
669.35	14252.54798
669.547	14250.72314
669.743	14262.30207
669.939	14385.80692
670.136	14322.90187
670.332	14185.78123
670.528	14053.90651
670.725	14259.10565
670.921	14110.81659
671.117	14126.58688
671.314	14009.78754
671.51	13966.82291
671.706	14134.08617
671.902	13974.19893
672.099	14195.93246
672.295	13943.49638
672.491	13938.09701
672.687	13830.67942
672.883	13898.25917
673.08	13938.58801
673.276	13867.93809
673.472	13957.73662
673.668	13665.8619
673.864	13739.79509
674.06	13675.02504
674.256	13686.13508
674.452	13592.33893
674.648	13644.67744
674.844	13543.84316
675.04	13759.26469
675.236	13542.29943
675.432	13666.00856
675.628	13508.5876
675.824	13441.83168
676.02	13478.85679
676.216	13494.61541
676.412	13435.55633
676.608	13286.46049
676.804	13153.54199
676.999	13431.5391
677.195	13056.81564
677.391	13425.89468
677.587	13246.08742
677.783	13401.38436
677.978	13212.30813
678.174	13218.17988
678.37	13087.91846
678.566	13250.04678
678.761	13193.7102
678.957	13038.62344
679.153	12877.41805
679.348	12973.40664
679.544	12955.13413
679.74	13146.13673
679.935	12961.53614
680.131	13039.20888
680.327	12949.69992
680.522	12828.59535
680.718	12815.43954
680.913	12895.2051
681.109	12655.84123
681.304	12894.51612
681.5	12887.30328
681.695	12894.25215
681.891	12667.05976
682.086	12766.90284
682.282	12559.54952
682.477	12464.71198
682.672	12740.85384
682.868	12660.0803
683.063	12604.79885
683.259	12695.48501
683.454	12511.82059
683.649	12713.13423
683.845	12473.52122
684.04	12451.21734
684.235	12461.58654
684.43	12629.48585
684.626	12479.51931
684.821	12568.80663
685.016	12475.3434
685.211	12362.01033
685.407	12312.08283
685.602	12388.31923
685.797	12281.63853
685.992	12423.23199
686.187	12339.15646
686.382	12364.02863
686.577	12098.93752
686.773	12373.30925
686.968	12105.30633
687.163	12198.51318
687.358	12133.98195
687.553	12130.23502
687.748	12029.05119
687.943	12225.67049
688.138	12064.14741
688.333	11895.30183
688.528	11833.04349
688.723	11800.61178
688.918	11554.0552
689.112	11611.38605
689.307	11582.39471
689.502	11538.4265
689.697	11363.26846
689.892	11566.74528
690.087	11286.558
690.282	11429.47762
690.476	11067.47533
690.671	11152.30678
690.866	10841.03581
691.061	11086.28886
691.255	10785.23179
691.45	11010.22862
691.645	10900.69134
691.84	10898.34898
692.034	10785.94045
692.229	10621.2049
692.424	10511.98894
692.618	10614.80505
692.813	10429.10027
693.007	10502.24562
693.202	10322.75742
693.397	10431.1552
693.591	10254.35968
693.786	10421.05305
693.98	10154.22632
694.175	10309.78728
694.369	10228.76022
694.564	10312.29074
694.758	10238.01349
694.953	10111.42018
695.147	10113.53957
695.342	9880.1443
695.536	9890.85098
695.73	9893.31116
695.925	10003.23974
696.119	9780.94603
696.313	9751.73192
696.508	9817.77965
696.702	9805.60144
696.896	9695.86537
697.091	9663.80744
697.285	9734.96457
697.479	9692.52174
697.673	9730.1042
697.868	9575.10113
698.062	9900.90819
698.256	9547.44269
698.45	9746.59649
698.644	9631.92419
698.839	9814.60643
699.033	9655.54313
699.227	9782.3949
699.421	9591.86841
699.615	9730.66914
699.809	9697.03331
700.003	9813.1608
700.197	9605.3948
700.391	9853.52358
700.585	9585.18461
700.779	9659.28479
700.973	9683.45735
701.167	9621.5929
701.361	9677.45633
701.555	9678.96186
701.749	9593.77388
701.943	9702.97682
702.137	9539.82513
702.331	9681.66535
702.525	9458.41032
702.718	9793.63637
702.912	9656.42437
703.106	9663.88699
703.3	9550.56216
703.494	9553.50972
703.687	9458.51597
703.881	9650.46342
704.075	9626.92502
704.269	9584.98634
704.462	9682.38639
704.656	9669.93113
704.85	9485.85515
705.043	9638.79577
705.237	9416.93681
705.431	9559.6609
705.624	9523.9094
705.818	9481.24128
706.012	9457.89807
706.205	9499.78401
706.399	9351.68783
706.592	9483.8359
706.786	9314.73819
706.979	9381.17503
707.173	9368.24094
707.366	9398.73982
707.56	9321.66019
707.753	9165.76032
707.947	9298.4221
708.14	9249.54731
708.333	9286.51135
708.527	9219.7695
708.72	9131.87109
708.914	9282.25601
709.107	9256.66236
709.3	9254.67709
709.494	9233.42065
709.687	9008.84703
709.88	9177.40141
710.073	9170.23657
710.267	9084.19493
710.46	9136.92906
710.653	9241.87695
710.846	9126.28048
711.04	9286.78435
711.233	9119.15528
711.426	9237.90659
711.619	9187.38483
711.812	9166.03196
712.005	9184.05229
712.198	9093.34134
712.391	9084.1254
712.585	8948.99857
712.778	9049.91637
712.971	9085.61597
713.164	9020.08918
713.357	9041.43133
713.55	8940.37084
713.743	8971.29145
713.936	8974.09133
714.129	8966.82613
714.322	8961.58893
714.514	8972.96254
714.707	8931.61827
714.9	8821.72728
715.093	8968.08755
715.286	8804.84046
715.479	8962.03889
715.672	8800.05589
715.864	8940.37084
716.057	8716.82019
716.25	8829.85566
716.443	8773.60426
716.636	8657.0307
716.828	8864.58475
717.021	8776.04665
717.214	8799.28639
717.406	8788.72394
717.599	8739.19344
717.792	8600.71512
717.984	8558.28917
718.177	8595.70255
718.37	8502.44252
718.562	8683.09285
718.755	8599.48274
718.947	8323.63657
719.14	8188.64704
719.333	8220.00925
719.525	8030.23987
719.718	8179.32667
719.91	7897.12795
720.103	8120.66052
720.295	7806.98491
720.487	7844.59661
720.68	7758.20242
720.872	7749.36619
721.065	7551.91758
721.257	7511.87016
721.449	7527.6368
721.642	7450.90119
721.834	7324.74336
722.026	7273.80664
722.219	7296.92925
722.411	7093.65218
722.603	7039.91192
722.796	7142.21167
722.988	7093.87111
723.18	7109.37697
723.372	6834.22719
723.565	6819.34818
723.757	6686.49358
723.949	6766.56726
724.141	6685.28861
724.333	6893.76329
724.525	6590.41652
724.717	6741.23873
724.91	6501.60138
725.102	6476.03703
725.294	6430.42225
725.486	6458.39629
725.678	6305.39799
725.87	6466.75843
726.062	6291.09387
726.254	6393.56428
726.446	6117.75607
726.638	6136.58272
726.83	6046.27343
727.022	6105.98597
727.213	6103.37984
727.405	6087.55734
727.597	6004.43719
727.789	6077.26448
727.981	6050.76518
728.173	6027.23035
728.365	5909.87788
728.556	5952.10615
728.748	5882.36227
728.94	6006.20388
729.132	6014.86736
729.324	5903.31972
729.515	5914.11418
729.707	5883.38503
729.899	5920.12272
730.09	5896.67374
730.282	5857.58961
730.474	5958.56875
730.665	5785.9601
730.857	5977.45099
731.049	5709.92294
731.24	5920.04718
731.432	5758.95903
731.623	5848.52742
731.815	5828.8246
732.006	5866.2537
732.198	5780.35931
732.389	5839.53774
732.581	5717.63401
732.772	5727.23099
732.964	5745.05458
733.155	5805.42866
733.347	5692.38699
733.538	5796.39783
733.729	5748.37686
733.921	5616.40529
734.112	5789.58849
734.304	5887.56255
734.495	5807.35719
734.686	5895.12548
734.877	5781.85676
735.069	5731.30496
735.26	5817.79409
735.451	5793.54167
735.643	5693.16685
735.834	5836.2564
736.025	5787.34967
736.216	5816.74019
736.407	5693.85127
736.599	5898.84384
736.79	5811.1079
736.981	5902.78853
737.172	5883.34727
737.363	5855.08142
737.554	5766.9382
737.745	6006.0817
737.936	5897.40864
738.127	6015.71786
738.318	5918.13636
738.509	6041.91316
738.7	5983.95966
738.891	6098.66338
739.082	5946.37583
739.273	6016.95838
739.464	5961.16035
739.655	6071.85945
739.846	5901.43556
740.037	6097.04311
740.228	6082.82945
740.419	6136.9198
740.609	5978.18944
740.8	6102.21225
740.991	6082.07067
741.182	6081.66473
741.373	6131.4721
741.563	6165.6938
741.754	6105.63877
741.945	6070.13204
742.136	6078.12447
742.326	6215.28135
742.517	6227.71368
742.708	6209.77431
742.898	6008.94894
743.089	6173.48182
743.28	6178.92825
743.47	6085.39889
743.661	6043.85044
743.851	6155.51363
744.042	5995.50876
744.233	6122.39236
744.423	5992.58725
744.614	6133.89786
744.804	6092.04097
744.995	6083.494
745.185	5898.13311
745.376	6126.25899
745.566	5948.44836
745.756	6085.06761
745.947	5993.13094
746.137	6207.87715
746.328	5978.87318
746.518	6139.4587
746.708	5950.61184
746.899	5986.79754
747.089	5913.12382
747.279	6082.09139
747.47	5867.01668
747.66	6061.96717
747.85	5879.80631
748.04	5991.92543
748.231	5869.27421
748.421	6018.42588
748.611	5896.57781
748.801	6052.88092
748.991	5815.69454
749.182	5963.0501
749.372	5805.46395
749.562	5924.05548
749.752	5840.92603
749.942	5993.00886
750.132	5856.76524
750.322	5863.35507
750.512	5760.21032
750.702	5852.24806
750.892	5697.42883
751.082	5883.58494
751.272	5663.47079
751.462	5838.05876
751.652	5692.42886
751.842	5823.83732
752.032	5672.30642
752.222	5801.556
752.412	5721.10533
752.602	5776.61428
752.792	5644.59661
752.981	5739.17062
753.171	5526.59837
753.361	5619.32814
753.551	5524.46197
753.741	5573.91874
753.93	5471.45978
754.12	5612.83946
754.31	5471.0423
754.5	5667.13289
754.689	5514.17629
754.879	5451.38685
755.069	5398.42034
755.258	5407.32921
755.448	5485.54102
755.638	5449.46574
755.827	5359.38112
756.017	5514.17629
756.206	5319.36046
756.396	5573.56036
756.586	5384.43283
756.775	5471.28697
756.965	5287.22737
757.154	5375.83047
757.344	5338.5506
757.533	5424.61638
757.723	5278.03336
757.912	5339.39868
758.101	5305.72944
758.291	5368.10554
758.48	5263.71034
758.67	5325.66359
758.859	5381.80238
759.048	5347.79733
759.238	5273.0163
759.427	5273.59788
759.616	5194.74954
759.806	5221.54182
759.995	5127.27583
760.184	5329.18998
760.373	5062.79101
760.563	5186.21255
760.752	4971.5784
760.941	5077.85707
761.13	4969.10001
761.319	5021.65705
761.509	4893.27293
761.698	4791.16777
761.887	4758.36055
762.076	4745.25714
762.265	4620.49134
762.454	4637.41271
762.643	4398.35556
762.832	4376.4615
763.021	4261.28284
763.21	4339.22469
763.399	4136.85875
763.588	4170.05103
763.777	3968.78621
763.966	4007.6184
764.155	3819.94743
764.344	3858.63939
764.533	3715.13934
764.722	3840.39801
764.911	3642.8989
765.1	3572.57797
765.288	3394.43844
765.477	3383.88866
765.666	3281.23351
765.855	3258.15756
766.044	3094.5153
766.232	3131.76462
766.421	2890.13068
766.61	3059.30387
766.799	2791.32162
766.987	2923.61675
767.176	2668.12891
767.365	2673.06546
767.553	2604.74023
767.742	2617.87577
767.931	2549.18913
768.119	2580.53155
768.308	2526.53552
768.497	2446.63146
768.685	2385.53005
768.874	2379.47614
769.062	2344.37922
769.251	2397.10528
769.439	2356.08726
769.628	2436.77531
769.816	2311.42862
770.005	2373.10973
770.193	2372.02289
770.382	2483.58079
770.57	2422.93808
770.758	2487.20507
770.947	2470.1881
771.135	2608.66246
771.323	2422.20913
771.512	2723.54065
771.7	2523.2991
771.888	2654.55407
772.077	2713.5563
772.265	2740.39218
772.453	2644.85024
772.642	2808.23171
772.83	2799.93082
773.018	2901.36572
773.206	2734.11302
773.394	2880.79734
773.583	2854.79722
773.771	3167.32771
773.959	3096.33053
774.147	3167.05453
774.335	3187.37839
774.523	3283.27205
774.711	3163.08675
774.899	3310.86321
775.087	3304.04511
775.275	3411.41744
775.463	3301.28897
775.651	3483.59813
775.839	3414.3821
776.027	3450.20689
776.215	3456.68124
776.403	3572.60569
776.591	3433.35809
776.779	3663.9831
776.967	3506.94762
777.155	3655.72253
777.343	3618.82366
777.531	3705.65827
777.718	3479.19857
777.906	3673.08214
778.094	3641.12947
778.282	3778.24575
778.47	3671.47201
778.657	3641.29211
778.845	3624.44903
779.033	3805.38243
779.22	3617.842
779.408	3727.71478
779.596	3701.43348
779.783	3801.21672
779.971	3619.83926
780.159	3749.4859
780.346	3638.9106
780.534	3787.52276
780.722	3698.88514
780.909	3695.95142
781.097	3627.24466
781.284	3777.18129
781.472	3680.02028
781.659	3782.85965
781.847	3586.86736
782.034	3779.17828
782.222	3689.22957
782.409	3752.7182
782.597	3556.6965
782.784	3683.59775
782.971	3573.13745
783.159	3734.97981
783.346	3568.34669
783.533	3685.2951
783.721	3606.61398
783.908	3681.08099
784.095	3485.30447
784.283	3577.28887
784.47	3558.30413
784.657	3597.12095
784.844	3505.53905
785.032	3548.89468
785.219	3628.81802
785.406	3599.65016
785.593	3492.56136
785.78	3388.03567
785.968	3521.34772
786.155	3626.97086
786.342	3428.33878
786.529	3593.2588
786.716	3474.77964
786.903	3529.72037
787.09	3438.07739
787.277	3580.53203
787.464	3292.31311
787.651	3475.35178
787.838	3369.33889
788.025	3411.18026
788.212	3342.27119
788.399	3461.37046
788.586	3291.32981
788.773	3439.55143
788.96	3214.89857
789.147	3277.75679
789.334	3124.55467
789.521	3234.18998
789.707	3327.9902
789.894	3268.1017
790.081	3271.01528
790.268	3276.30777
790.455	3162.4843
790.641	3313.57479
790.828	3175.4172
791.015	3136.79319
791.202	3182.3917
791.388	3210.26882
791.575	3157.34542
791.762	3147.4631
791.948	3071.21846
792.135	3043.7908
792.322	2905.19484
792.508	3074.95602
792.695	2992.72042
792.881	3048.52599
793.068	2947.76952
793.254	2999.20716
793.441	3034.6173
793.627	3034.74378
793.814	2848.58516
794	2981.51806
794.187	2812.74374
794.373	2976.34475
794.56	2842.21651
794.746	2913.85393
794.933	2857.97674
795.119	2906.76351
795.305	2839.98899
795.492	2873.7416
795.678	2753.80569
795.864	2917.57044
796.051	2629.11065
796.237	2792.36895
796.423	2644.69552
796.61	2738.17132
796.796	2721.18268
796.982	2807.7531
797.168	2775.33711
797.355	2800.41589
797.541	2639.00725
797.727	2829.75853
797.913	2719.89716
798.099	2729.41337
798.285	2671.3974
798.471	2769.45478
798.658	2606.52109
798.844	2749.41116
799.03	2594.06784
799.216	2758.46897
799.402	2638.05347
799.588	2742.31906
799.774	2606.7674
799.96	2595.85401
800.146	2617.93246
800.332	2719.13225
800.518	2513.52563
800.704	2637.56938
800.89	2649.24531
801.075	2660.656
801.261	2617.87876
801.447	2697.16546
801.633	2537.75266
801.819	2748.38798
802.005	2657.4272
802.19	2665.92171
802.376	2553.25951
802.562	2635.74693
802.748	2472.7115
802.934	2690.70414
803.119	2601.37431
803.305	2682.06259
803.491	2707.35335
803.676	2738.99967
803.862	2538.65325
804.048	2598.41327
804.233	2526.09269
804.419	2720.82895
804.605	2490.04537
804.79	2708.86007
804.976	2557.75727
805.161	2679.99291
805.347	2511.6199
805.532	2690.57515
805.718	2610.32957
805.903	2604.99149
806.089	2584.99415
806.274	2673.10786
806.46	2533.45977
806.645	2738.66543
806.831	2583.55976
807.016	2714.5461
807.201	2596.47718
807.387	2672.60496
807.572	2477.10159
807.757	2702.71451
807.943	2509.52264
808.128	2620.3391
808.313	2536.32091
808.499	2623.18781
808.684	2523.59693
808.869	2571.43995
809.054	2492.27414
809.24	2580.84526
809.425	2390.79368
809.61	2529.32163
809.795	2530.00708
809.98	2610.48355
810.165	2435.39051
810.35	2549.50024
810.536	2500.95477
810.721	2599.25151
810.906	2487.15891
811.091	2522.3268
811.276	2366.92192
811.461	2569.19081
811.646	2384.5451
811.831	2543.84415
812.016	2368.00807
812.201	2481.34933
812.386	2355.92682
812.571	2513.65414
812.756	2263.44072
812.941	2405.8657
813.125	2330.12798
813.31	2431.85543
813.495	2316.09497
813.68	2396.23962
813.865	2313.33498
814.05	2369.20921
814.234	2244.17177
814.419	2355.92368
814.604	2273.02164
814.789	2337.54069
814.973	2199.40639
815.158	2256.27366
815.343	2242.16313
815.528	2202.3474
815.712	2252.40509
815.897	2233.84056
816.081	2044.61357
816.266	2153.6065
816.451	2112.94113
816.635	2090.6039
816.82	2011.31325
817.004	2065.85088
817.189	1913.81042
817.374	2055.66084
817.558	1852.84146
817.743	2043.63297
817.927	1892.73838
818.111	1907.1439
818.296	1806.11052
818.48	1925.4698
818.665	1802.26399
818.849	1816.64207
819.034	1787.06257
819.218	1814.79151
819.402	1637.55489
819.587	1773.06659
819.771	1642.71616
819.955	1698.37623
820.14	1548.24686
820.324	1688.68928
820.508	1621.00218
820.692	1707.46502
820.877	1480.81764
821.061	1615.60536
821.245	1542.35892
821.429	1542.74565
821.613	1459.42402
821.798	1479.59198
821.982	1368.38644
822.166	1463.58655
822.35	1391.18716
822.534	1459.60582
822.718	1337.84871
822.902	1402.38543
823.086	1354.23263
823.27	1389.26714
823.454	1308.26389
823.638	1493.53697
823.822	1293.51807
824.006	1412.35554
824.19	1297.34514
824.374	1419.74561
824.558	1215.81687
824.742	1366.60709
824.926	1073.46756
825.11	1378.41492
825.294	1166.55474
825.477	1270.90591
825.661	1220.53651
825.845	1296.86101
826.029	1139.11375
826.213	1278.71486
826.396	1137.24802
826.58	1199.14212
826.764	1241.0314
826.948	1223.75764
827.131	1147.43563
827.315	1277.80424
827.499	1221.95898
827.682	1269.50395
827.866	1173.68454
828.05	1199.42803
828.233	1208.5673
828.417	1249.41041
828.6	1098.65246
828.784	1168.44254
828.967	1156.36563
829.151	1192.49723
829.335	1132.06864
829.518	1246.94288
829.701	1107.42298
829.885	1187.79019
830.068	1098.43181
830.252	1102.73352
830.435	1153.39566
830.619	1173.20288
830.802	1183.40572
830.985	1232.11667
831.169	1150.90026
831.352	1148.24902
831.535	1101.18375
831.719	1212.51475
831.902	1190.65921
832.085	1129.46325
832.269	1070.60155
832.452	1220.28537
832.635	1084.66622
832.818	1188.26962
833.002	1195.38212
833.185	1133.43167
833.368	1073.07957
833.551	1201.37706
833.734	1050.55915
833.917	1182.47154
834.1	1055.90985
834.284	1196.12386
834.467	1045.17036
834.65	1143.40886
834.833	1074.84021
835.016	1161.67047
835.199	1027.16734
835.382	1076.91152
835.565	1066.97537
835.748	997.98996
835.931	1022.8644
836.114	1113.62015
836.297	1027.00885
836.479	1127.63313
836.662	1032.97184
836.845	1133.43081
837.028	992.48625
837.211	1030.26791
837.394	963.34465
837.577	1102.83197
837.759	1004.93757
837.942	989.06643
838.125	982.88064
838.308	1003.78352
838.49	989.74268
838.673	864.9442
838.856	980.14717
839.039	1061.5163
839.221	1019.47593
839.404	1009.91337
839.587	961.50829
839.769	1003.59821
839.952	886.00043
840.134	1086.20774
840.317	918.08856
840.499	1083.04794
840.682	889.2647
840.865	1074.34589
841.047	941.69899
841.23	1010.86637
841.412	933.26919
841.595	1013.47674
841.777	929.14764
841.959	1026.03789
842.142	904.45329
842.324	1004.34021
842.507	917.99167
842.689	1007.79583
842.871	1010.9727
843.054	968.92227
843.236	909.64667
843.418	972.41746
843.601	880.98173
843.783	912.12566
843.965	865.48809
844.147	1028.18901
844.33	919.73186
844.512	977.85347
844.694	853.0451
844.876	1048.92196
845.059	898.03348
845.241	956.66271
845.423	933.72862
845.605	905.48587
845.787	880.52969
845.969	885.15319
846.151	882.74046
846.333	946.6181
846.515	906.53934
846.697	828.54782
846.879	830.30335
847.061	903.66378
847.243	784.20463
847.425	922.37609
847.607	817.72347
847.789	920.11926
847.971	878.46788
848.153	916.18647
848.335	809.32693
848.517	910.18949
848.699	898.79429
848.881	846.90656
849.062	796.01448
849.244	790.71137
849.426	778.66018
849.608	897.33163
849.789	753.70879
849.971	795.44929
850.153	708.26661
850.335	811.72856
850.516	806.66883
850.698	848.51824
850.88	733.8362
851.061	777.2817
851.243	724.51677
851.425	828.63606
851.606	738.84558
851.788	753.06049
851.969	721.20924
852.151	720.75538
852.333	712.24246
852.514	808.80405
852.696	670.25903
852.877	721.18335
853.059	756.23982
853.24	676.39604
853.422	613.86379
853.603	697.1449
853.784	650.03021
853.966	743.87629
854.147	584.71937
854.329	623.7922
854.51	620.29633
854.691	643.56742
854.873	616.83795
855.054	669.73567
855.235	547.11059
855.416	623.97295
855.598	576.09924
855.779	616.34393
855.96	596.08227
856.141	585.48478
856.323	509.67883
856.504	566.21887
856.685	548.79787
856.866	554.90179
857.047	502.55994
857.228	567.42941
857.409	507.79551
857.591	532.03011
857.772	526.62079
857.953	463.94779
858.134	486.98661
858.315	496.1659
858.496	420.66385
858.677	483.26002
858.858	455.44953
859.039	558.17571
859.22	481.14509
859.401	531.42821
859.582	450.55953
859.762	455.38236
859.943	488.74061
860.124	494.7284
860.305	479.96342
860.486	461.93063
860.667	437.59612
860.848	513.34487
861.028	421.09954
861.209	471.05855
861.39	511.6153
861.571	412.02607
861.751	345.09089
861.932	403.75751
862.113	429.0648
862.293	452.18168
862.474	370.51931
862.655	439.16331
862.835	358.52137
863.016	468.36651
863.197	421.63312
863.377	384.06304
863.558	358.84263
863.738	454.91062
863.919	325.14796
864.099	469.9648
864.28	427.15655
864.46	330.49398
864.641	372.25529
864.821	395.66655
865.002	308.36626
865.182	429.90686
865.363	362.09462
865.543	397.80632
865.723	359.03101
865.904	387.80687
866.084	329.30526
866.264	352.68534
866.445	324.84493
866.625	364.20273
866.805	358.80236
866.986	401.11854
867.166	309.48289
867.346	365.82173
867.526	288.14117
867.707	352.18763
867.887	327.63806
868.067	351.019
868.247	301.60914
868.427	259.13579
868.607	329.47694
868.788	321.93193
868.968	219.90744
869.148	356.62462
869.328	235.68016
869.508	297.36519
869.688	327.42921
869.868	284.80084
870.048	286.02513
870.228	300.6615
870.408	260.42063
870.588	338.69105
870.768	251.47799
870.948	237.99936
871.128	282.64073
871.307	288.38999
871.487	269.23836
871.667	289.21481
871.847	239.10982
872.027	280.52165
872.207	223.30723
872.387	310.84437
872.566	231.39544
872.746	355.40244
872.926	271.61734
873.106	268.21116
873.285	267.34514
873.465	225.66517
873.645	224.36744
873.824	218.01519
874.004	232.48047
874.184	281.55495
874.363	236.88878
874.543	261.58883
874.723	212.38477
874.902	241.31216
875.082	232.51572
875.261	246.87033
875.441	174.9239
875.62	241.33037
875.8	203.09024
875.979	273.96793
876.159	224.45199
876.338	236.7191
876.518	256.05133
876.697	249.23947
876.876	206.48839
877.056	203.09024
877.235	171.60941
877.415	199.99562
877.594	135.93089
877.773	262.90682
877.953	182.8719
878.132	194.29958
878.311	168.53562
878.49	251.53504
878.67	160.59928
878.849	214.39939
879.028	177.47184
879.207	189.69984
879.387	144.93126
879.566	198.79113
879.745	179.77663
879.924	167.21011
880.103	185.30141
880.282	246.20823
880.461	246.3116
880.64	188.81571
880.819	198.8591
880.998	239.30003
881.178	180.67913
881.357	174.07356
881.536	197.7603
881.715	224.74976
881.893	183.17024
882.072	161.6109
882.251	147.10979
882.43	160.61149
882.609	139.25767
882.788	141.49756
882.967	185.31547
883.146	149.42265
883.325	128.07764
883.503	219.11129
883.682	178.74325
883.861	207.84425
884.04	157.37704
884.219	133.63866
884.397	149.50256
884.576	100.99666
884.755	152.79075
884.933	149.33736
885.112	175.46269
885.291	141.61095
885.469	169.72905
885.648	151.79566
885.827	120.20274
886.005	112.41741
886.184	138.23515
886.363	194.50683
886.541	196.79639
886.72	155.13067
886.898	22.18364
887.077	185.56292
887.255	93.23873
887.434	205.96378
887.612	151.78403
887.791	167.49641
887.969	87.59318
888.147	120.19815
888.326	129.19127
888.504	127.93144
888.682	138.19291
888.861	136.04533
889.039	123.49839
889.218	131.44802
889.396	134.65403
889.574	100.99666
889.752	94.36006
889.931	124.63553
890.109	108.9883
890.287	138.33587
890.465	87.52954
890.643	166.46913
890.822	156.29574
891	103.29848
891.178	83.04225
891.356	141.54607
891.534	139.42271
891.712	88.60973
891.89	117.92816
892.068	116.84475
892.247	117.9597
892.425	165.33924
892.603	63.91124
892.781	137.18517
892.959	128.03365
893.137	139.40668
893.314	110.15071
893.492	139.50845
893.67	115.63683
893.848	86.44505
894.026	74.02575
894.204	79.69625
894.382	92.09255
894.56	124.6213
894.738	124.77373
894.915	69.53024
895.093	146.16029
895.271	92.09961
895.449	60.54541
895.626	90.89477
895.804	74.08813
895.982	104.53845
896.16	104.49431
896.337	122.52985
896.515	133.97243
896.693	119.0972
896.87	97.72703
897.048	53.7786
897.225	72.97672
897.403	68.42124
897.581	100.03002
897.758	48.1667
897.936	61.66121
898.113	119.16569
898.291	74.08244
898.468	60.50608
898.646	105.66759
898.823	23.37198
899.001	41.42873
899.178	103.44916
899.356	129.35479
899.533	84.24731
899.71	36.90387
899.888	104.59482
900.065	16.60746
900.242	87.64703
900.42	101.18243
900.597	83.20844
900.774	52.72422
900.952	142.99806
901.129	120.31336
901.306	63.97996
901.483	54.97768
901.661	44.80981
901.838	88.74532
902.015	7.6117
902.192	61.7299
902.369	45.96634
902.546	31.29074
902.723	53.80127
902.901	45.95569
903.078	79.80362
903.255	73.07253
903.432	56.09786
903.609	38.05632
903.786	81.9806
903.963	25.65821
904.14	97.78333
904.317	7.617
904.494	57.23539
904.671	33.54981
904.848	51.62535
905.024	75.34713
905.201	33.58489
905.378	31.2787
905.555	15.50322
905.732	39.19676
905.909	60.57328
906.086	6.47694
906.262	67.44161
906.439	38.06512
906.616	39.18014
906.793	54.92695
906.969	67.38944
907.146	14.37489
907.323	1.97291
907.5	24.54984
907.676	41.47033
907.853	44.87045
908.03	38.06366
908.206	1.97375
908.383	51.59941
908.559	4.23076
908.736	24.53654
908.912	15.49785
909.089	38.1005
909.266	47.03187
909.442	51.60938
909.619	48.21491
909.795	61.74657
909.972	52.72422
910.148	-0.2819
910.324	53.90519
910.501	9.87465
910.677	24.55651
910.854	61.79914
911.03	9.87121
911.206	43.71707
911.383	-21.69908
911.559	60.63868
911.735	-14.94033
911.912	-4.79487
912.088	39.19828
912.264	7.61023
912.44	35.79699
912.617	36.94226
912.793	12.12608
912.969	44.86871
913.145	54.99892
913.321	83.18593
913.498	-10.43326
913.674	21.14769
913.85	74.17093
914.026	-1.40974
914.202	-13.8221
914.378	15.50621
914.554	34.71312
914.73	-57.81492
914.906	0.84623
915.082	39.18467
915.258	8.7524
915.434	12.1214
915.61	50.49009
915.786	56.14123
915.962	77.56566
916.138	30.17421
916.314	12.1228
916.49	-4.79468
916.665	9.8693
916.841	35.83019
917.017	39.19374
917.193	-34.15199
917.369	73.07253
917.545	-14.94668
917.72	75.3092
917.896	10.99744
918.072	46.01267
918.247	47.11165
918.423	60.68334
918.599	20.03027
918.775	-3.66532
918.95	-18.3326
919.126	-19.44987
919.301	70.7908
919.477	13.25383
919.653	71.93703
919.828	35.79974
920.004	17.7754
920.179	-51.07995
920.355	-96.04826
920.53	-1.41017
920.706	15.51881
920.881	41.4543
921.057	-53.30871
921.232	59.47722
921.408	-25.10739
921.583	14.38488
921.759	18.89924
921.934	43.71032
922.109	53.86761
922.285	48.25597
922.46	7.61229
922.635	-8.17963
922.811	26.79484
922.986	17.77402
923.161	17.75687
923.336	4.23109
923.512	17.77058
923.687	-3.66815
923.862	3.10286
924.037	9.86322
924.212	-10.43689
924.388	41.48642
924.563	48.24849
924.738	-23.97572
924.913	59.56245
925.088	12.11907
925.263	38.06072
925.438	7.60965
925.613	25.6503
925.788	34.69697
925.963	29.04227
926.138	45.98056
926.313	39.20889
926.488	62.94622
926.663	-3.6683
926.838	-21.71666
927.013	15.51761
927.188	47.10618
927.363	20.01866
927.538	-8.17742
927.713	-13.83444
927.888	31.29074
928.062	21.14851
928.237	-10.44094
928.412	-11.57081
928.587	4.2306
928.761	-3.66588
928.936	25.66019
929.111	36.92801
929.286	-9.30193
929.46	6.48843
929.635	57.24202
929.81	3.1019
929.984	36.97375
930.159	6.48567
930.334	-22.83378
930.508	27.93007
930.683	24.54889
930.857	5.36156
931.032	13.24821
931.206	45.99303
931.381	25.68405
931.556	23.40345
931.73	64.06908
931.904	-14.95826
932.079	-4.79579
932.253	-84.92548
932.428	26.78863
932.602	22.25543
932.777	-14.94899
932.951	-4.79524
933.125	44.80119
933.3	16.65553
933.474	-1.41099
933.648	32.4667
933.823	0.84637
933.997	24.5527
934.171	18.90583
934.345	-23.95722
934.52	3.10166
934.694	3.10418
934.868	-1.41209
935.042	30.18705
935.217	40.30529
935.391	18.89924
935.565	1.97596
935.739	48.23541
935.913	-43.15883
936.087	-28.48
936.261	40.35675
936.435	-11.5623
936.609	-17.21077
936.783	16.64584
936.957	22.29238
937.131	-41.994
937.305	-16.085
937.479	31.32708
937.653	-40.91642
937.827	12.1228
938.001	-26.24243
938.175	-31.88658
938.349	-28.49542
938.523	7.61729
938.697	-31.8693
938.87	7.61464
939.044	-5.92387
939.218	42.61116
939.392	-3.66602
939.566	46.01625
939.739	-18.34254
939.913	49.38764
940.087	-18.32906
940.261	0.84623
940.434	4.23224
940.608	-81.52236
940.782	46.01804
940.955	39.23322
941.129	-9.30444
941.302	-8.179
941.476	49.41261
941.65	35.8413
941.823	-3.66702
941.997	-13.83229
942.17	-3.66702
942.344	-9.30552
942.517	-44.26236
942.691	-9.31599
942.864	20.03881
943.038	22.27772
943.211	47.06802
943.385	25.68006
943.558	-28.49211
943.731	-92.78068
943.905	-17.20411
944.078	1.97413
944.251	-29.61421
944.425	25.68206
944.598	-31.88287
944.771	60.69041
944.945	31.33682
945.118	-4.80289
945.291	5.36406
945.464	26.80626
945.638	35.80803
945.811	8.75376
945.984	-26.24039
946.157	27.90419
946.33	24.57085
946.503	-8.18503
946.677	43.77141
946.85	11.00467
947.023	-18.32482
947.196	0.84623
947.369	26.80522
947.542	-3.67129
947.715	-51.07598
947.888	-42.03293
948.061	20.03415
948.234	-52.20575
948.407	-62.4096
948.58	-3.66915
948.753	-48.79579
948.926	1.97535
949.099	21.15505
949.271	-8.18693
949.444	18.90437
949.617	16.66007
949.79	21.15505
949.963	77.60473
950.136	-31.86684
950.308	-12.69549
950.481	5.36385
950.654	-48.83174
950.827	23.4134
950.999	1.97704
951.172	7.61141
951.345	20.03337
951.517	45.99125
951.69	18.91023
951.863	-33.02236
952.035	-5.92732
952.208	-8.17869
952.381	65.19679
952.553	26.79692
952.726	77.56566
952.898	-26.21909
953.071	-34.13081
953.243	4.23388
953.416	-14.95015
953.588	-18.32129
953.761	36.98094
953.933	-31.87423
954.106	11.01109
954.278	-32.99041
954.45	1.97359
954.623	-7.06004
954.795	25.67807
954.967	5.36052
955.14	41.49286
955.312	-0.28243
955.484	23.40706
955.657	23.42975
955.829	3.10563
956.001	-48.81091
956.173	-23.97201
956.346	34.70235
956.518	-31.88782
956.69	7.62113
956.862	9.87465
957.034	-25.09575
957.207	-10.45069
957.379	0.84571
957.551	60.69513
957.723	-32.9955
957.895	31.31736
958.067	17.76578
958.239	-55.53727
958.411	-11.56543
958.583	-19.46039
958.755	9.8804
958.927	-8.17932
959.099	-33.03648
959.271	-34.11763
959.443	15.53148
959.615	-7.05291
959.787	-23.97201
959.959	-29.65101
960.13	15.50263
960.302	-9.30516
960.474	-14.96175
960.646	1.97337
960.818	35.8427
960.99	-1.41121
961.161	-8.18439
961.333	-4.79135
961.505	-51.05422
961.677	-33.01723
961.848	-18.34539
962.02	-14.95884
962.192	29.0704
962.363	52.7344
962.535	-8.18312
962.707	-26.23836
962.878	15.53027
963.05	-8.17742
963.221	-4.7984
963.393	-48.7939
963.564	7.61229
963.736	-4.79487
963.907	4.23322
964.079	-19.48153
964.25	1.97367
964.422	-75.90859
964.593	-60.11068
964.765	29.05912
964.936	3.1013
965.108	-37.53095
965.279	-27.36318
965.45	-29.62912
965.622	24.54794
965.793	25.6731
965.964	48.23914
966.136	-19.46114
966.307	26.82293
966.478	12.13783
966.65	24.54889
966.821	-35.26525
966.992	23.41249
967.163	-56.72966
967.334	-22.85763
967.506	17.77885
967.677	-1.41259
967.848	-27.36212
968.019	-27.38442
968.19	-3.66844
968.361	34.73337
968.532	-30.72991
968.703	-53.30046
968.874	-48.76942
969.045	20.01557
969.216	4.22978
969.387	9.87503
969.558	-25.09187
969.729	61.76565
969.9	-27.36424
970.071	-4.79952
970.242	14.38655
970.413	-11.56677
970.584	-28.49542
970.755	23.40616
970.926	39.24542
971.097	-29.62797
971.267	-25.09575
971.438	-19.47396
971.609	26.81354
971.78	-7.05264
971.951	16.65294
972.121	43.73231
972.292	-63.52311
972.463	-9.30337
972.633	43.73739
972.804	-17.20677
972.975	-63.47382
973.145	6.48792
973.316	-25.11128
973.487	7.62202
973.657	3.10479
973.828	12.12374
973.998	16.64648
974.169	24.55651
974.339	-14.95652
974.51	-27.37272
974.68	0.8464
974.851	3.10466
975.021	-3.66673
975.192	20.03959
975.362	5.36052
975.533	-25.09672
975.703	-14.95884
975.874	-47.66111
976.044	24.53464
976.214	27.94525
976.385	20.0202
976.555	5.36032
976.725	-12.69942
976.896	58.44125
977.066	-3.66801
977.236	18.91538
977.406	11.00723
977.577	6.49069
977.747	14.39324
977.917	21.1616
978.087	-16.09375
978.257	-27.34416
978.427	14.38989
978.598	29.0817
978.768	16.63747
978.938	-31.88164
979.108	-5.92663
979.278	18.89194
979.448	6.48692
979.618	17.77127
979.788	4.23175
979.958	-7.05565
980.128	-13.82638
980.298	14.38989
980.468	20.04583
980.638	-30.73821
980.808	-42.06066
980.978	-20.57939
981.148	-26.21606
981.317	-16.085
981.487	20.03104
981.657	-29.63832
981.827	-8.18375
981.997	36.9795
982.167	50.50769
982.336	53.901
982.506	7.62558
982.676	-45.42958
982.846	-53.28811
983.015	-40.90215
983.185	-18.33402
983.355	-45.38394
983.524	-11.55383
983.694	-48.81848
983.864	-20.58813
984.033	-3.66475
984.203	12.1303
984.372	-47.6888
984.542	-49.95983
984.712	12.12889
984.881	3.10346
985.051	-36.38318
985.22	18.89413
985.39	-7.051
985.559	-18.33544
985.728	3.10382
985.898	25.68106
986.067	20.03493
986.237	-37.50192
986.406	-13.8296
986.576	18.90803
986.745	17.78161
986.914	30.20462
987.084	14.39324
987.253	-8.17932
987.422	-1.41105
987.591	0.84607
987.761	14.38822
987.93	-8.18153
988.099	18.90144
988.268	-0.28204
988.438	-3.66659
988.607	22.29931
988.776	11.00126
988.945	55.02875
989.114	27.92575
989.283	17.78991
989.452	5.36219
989.621	-11.56409
989.791	44.85307
989.96	-14.94437
990.129	-28.49542
990.298	-4.79728
990.467	31.33194
990.636	26.81875
990.805	-2.53836
990.974	17.7754
991.142	39.18316
991.311	-40.89741
991.48	-33.00827
991.649	25.65623
991.818	-33.00061
991.987	-5.91953
992.156	22.30885
992.325	-0.28217
992.493	-57.85973
992.662	-210.47329
992.831	11.00211
993	-17.20477
993.168	17.76784
993.337	41.48159
993.506	13.26513
993.675	-5.92594
993.843	-10.43165
994.012	20.04115
994.181	-47.67586
994.349	16.651
994.518	-20.5937
994.686	27.94633
994.855	-33.01339
995.024	-13.81569
995.192	-18.34183
995.361	-35.2448
995.529	0.84623
995.698	-22.83554
995.866	1.97535
996.035	-37.5397
996.203	17.76166
996.371	9.87656
996.54	-7.05455
996.708	5.35804
996.877	17.78368
997.045	-2.54082
997.213	-5.92548
997.382	-5.92686
997.55	-40.89741
997.718	-28.4822
997.887	-13.82692
998.055	-13.81943
998.223	-8.17648
998.391	6.48567
998.56	41.47837
998.728	42.58148
998.896	91.16451
999.064	41.46712
999.232	-19.45437
999.401	-36.36632
999.569	-8.1863
999.737	18.91317
999.905	1.97474
1000.073	66.30388
1000.241	5.35783
1000.409	69.7126
1000.577	27.89882
1000.745	-1.41127
1000.913	-8.18249
1001.081	-43.14215
1001.249	-21.72844
1001.417	-42.01019
1001.585	-27.37804
1001.753	-12.70041
1001.921	-3.6683
1002.089	27.91388
1002.256	5.36115
1002.424	-16.09689
1002.592	-14.95536
1002.76	11.00211
1002.928	-40.92436
1003.096	56.15646
1003.263	27.92143
1003.431	-42.08031
1003.599	-25.11713
1003.767	16.64004
1003.934	3.10515
1004.102	-28.50316
1004.27	-8.18058
1004.437	-14.94899
1004.605	49.37041
1004.773	-22.86562
1004.94	36.92801
1005.108	10.9877
1005.275	24.54889
1005.443	-28.51423
1005.61	-16.08001
1005.778	-18.34326
1005.945	-29.62338
1006.113	21.15751
1006.28	14.38265
1006.448	32.42772
1006.615	-27.37166
1006.783	25.70105
1006.95	3.10262
1007.118	7.61965
1007.285	36.95798
1007.452	-34.1573
1007.62	20.03881
1007.787	-35.26935
1007.954	-9.31925
1008.122	4.23011
1008.289	33.56667
1008.456	36.97806
1008.623	8.75172
1008.791	-12.70485
1008.958	-12.70436
1009.125	-12.69499
1009.292	35.83574
1009.459	12.13689
1009.627	-26.22314
1009.794	-31.8804
1009.961	1.97329
1010.128	33.60448
1010.295	-1.41061
1010.462	64.10149
1010.629	31.33682
1010.796	4.23339
1010.963	32.44654
1011.13	-60.09669
1011.297	15.5152
1011.464	-46.53394
1011.631	0.84597
1011.798	-3.66617
1011.965	8.75104
1012.132	14.38822
1012.299	-13.8296
1012.466	-40.91007
1012.633	-17.20677
1012.799	8.74459
1012.966	-7.05291
1013.133	54.99467
1013.3	-3.66801
1013.467	-57.77702
1013.633	100.11101
1013.8	3.10298
1013.967	-0.28212
1014.134	-23.9878
1014.3	29.05912
1014.467	-34.13081
1014.634	-19.4649
1014.8	18.90803
1014.967	7.61523
1015.134	29.05462
1015.3	-23.97944
1015.467	-75.88212
1015.633	-19.46867
1015.8	-23.98967
1015.966	5.36135
1016.133	-39.78846
1016.3	-7.04665
1016.466	4.2324
1016.632	-47.64823
1016.799	0.84663
1016.965	-57.83729
1017.132	-7.054
1017.298	4.23306
1017.465	40.35518
1017.631	-18.33757
1017.797	51.67147
1017.964	48.26534
1018.13	-4.78859
1018.296	23.42157
1018.463	40.33955
1018.629	22.2872
1018.795	-14.94841
1018.961	-20.5961
1019.128	-38.64099
1019.294	-36.39022
1019.46	-13.83444
1019.626	-1.41127
1019.792	-12.69598
1019.959	13.25127
1020.125	23.44802
1020.291	-23.96924
1020.457	-2.53807
1020.623	-42.00047
1020.789	11.00895
1020.955	-14.94206
1021.121	29.06363
1021.287	-29.62338
1021.453	-22.86562
1021.619	14.39603
1021.785	-17.21411
1021.951	-27.38336
1022.117	-10.44337
1022.283	-17.21344
1022.449	49.37807
1022.615	-0.28242
1022.781	-78.10864
1022.946	24.5527
1023.112	25.69704
1023.278	-38.62309
1023.444	73.12362
1023.61	33.54464
1023.775	-11.57486
1023.941	31.31857
1024.107	-18.34326
1024.273	-2.53915
1024.438	-36.37474
1024.604	-64.591
1024.77	-100.61292
1024.935	-2.53885
1025.101	20.04739
1025.267	-10.43811
1025.432	15.51761
1025.598	17.78783
1025.763	-22.85409
1025.929	16.64068
1026.095	13.2605
1026.26	7.62261
1026.426	-17.21411
1026.591	-27.36212
1026.757	20.03104
1026.922	-12.69205
1027.087	-5.92158
1027.253	9.87235
1027.418	22.28547
1027.584	-37.50626
1027.749	7.61995
1027.914	-51.08193
1028.08	4.23454
1028.245	18.89194
1028.41	3.10322
1028.576	7.61582
1028.741	-1.40979
1028.906	-27.33995
1029.072	-5.9241
1029.237	-0.28214
1029.402	-9.30948
1029.567	-20.58256
1029.732	23.43157
1029.898	-7.05209
1030.063	26.82606
1030.228	65.16646
1030.393	-13.83552
1030.558	60.65276
1030.723	21.18301
1030.888	-17.21144
1031.053	41.4977
1031.218	10.99871
1031.383	-19.46039
1031.548	-22.86829
1031.713	-0.28204
1031.878	-16.07815
1032.043	1.9755
1032.208	17.76852
1032.373	-12.69156
1032.538	-1.41006
1032.703	-25.10934
1032.868	32.43273
1033.033	27.94525
1033.198	18.91685
1033.362	3.1025
1033.527	3.10406
1033.692	-33.00316
1033.857	17.76578
1034.021	35.85942
1034.186	31.30524
1034.351	-26.22415
1034.516	68.52656
1034.68	-1.41116
1034.845	23.4134
1035.01	0.84663
1035.174	-11.57801
1035.339	24.53938
1035.504	8.75036
1035.668	-37.48891
1035.833	-17.2121
1035.997	-16.08562
1036.162	38.11087
1036.326	51.66946
1036.491	4.23076
1036.655	-2.53777
1036.82	-48.79579
1036.984	-78.10864
1037.149	-48.75252
1037.313	-8.17458
1037.478	-19.47623
1037.642	-37.53678
1037.807	11.00382
1037.971	5.36302
1038.135	4.23273
1038.3	-5.92732
1038.464	14.39771
1038.628	38.08573
1038.792	-2.53836
1038.957	-23.99712
1039.121	21.16078
1039.285	-36.41705
1039.449	-1.41045
1039.614	4.23224
1039.778	24.54603
1039.942	-25.10545
1040.106	41.49447
1040.27	-20.59211
1040.434	-71.32182
1040.599	-8.18249
1040.763	-37.51351
1040.927	14.37987
1041.091	-33.02107
1041.255	-31.88782
1041.419	43.72723
1041.583	-20.59131
1041.747	-63.43703
1041.911	-34.11499
1042.075	-3.6683
1042.239	1.97673
1042.403	-55.56301
1042.567	-61.20039
1042.731	-51.08391
1042.894	-47.66111
1043.058	44.86349
1043.222	25.65821
1043.386	-13.80718
1043.55	-8.18407
1043.714	1.97436
1043.877	4.23339
1044.041	34.69429
1044.205	-4.79487
1044.369	9.87886
1044.532	-28.50316
1044.696	-35.25433
1044.86	-7.05182
1045.023	-52.16737
1045.187	24.53749
1045.351	-36.37615
1045.514	-9.31671
1045.678	-18.3234
1045.841	4.23454
