Data from mildly cloudy_Subt2__13__14-24-19-404.txt Node

Date: Mon Oct 13 14:24:19 EDT 2025
User: brett
Spectrometer: USB4F03499
Trigger mode: 4
Integration Time (sec): 4.400000E-4
Scans to average: 1
Electric dark correction enabled: true
Nonlinearity correction enabled: true
Boxcar width: 0
XAxis mode: Wavelengths
Number of Pixels in Spectrum: 3648
>>>>>Begin Spectral Data<<<<<
345.386	40.1781
345.605	40.1781
345.824	40.1781
346.044	61.67357
346.263	27.75608
346.482	-36.56002
346.701	-45.6391
346.92	-8.36835
347.139	22.10005
347.358	26.59047
347.577	-18.51711
347.796	-6.11598
348.015	52.58116
348.234	-4.98272
348.453	-27.5524
348.672	31.11371
348.891	15.33551
349.11	-35.47547
349.329	-7.24017
349.548	28.89694
349.767	1.78695
349.986	27.72921
350.205	-52.35957
350.424	33.39814
350.643	17.60377
350.862	30.02003
351.08	32.23859
351.299	-4.98003
351.518	-20.78667
351.737	37.90659
351.956	-34.33893
352.174	-10.62375
352.393	34.5224
352.612	19.82999
352.831	-11.75717
353.049	-9.50237
353.268	7.43269
353.487	-17.40635
353.705	-7.24017
353.924	-8.36157
354.143	20.96788
354.361	27.74746
354.58	1.78654
354.798	44.712
355.017	-1.59678
355.236	70.63307
355.454	-11.75945
355.673	14.20624
355.891	26.59252
356.11	-7.23653
356.328	50.27501
356.547	-18.5293
356.765	20.97113
356.984	15.32422
357.202	26.63582
357.42	45.79797
357.639	11.94737
357.857	17.57512
358.076	-33.2145
358.294	-10.62334
358.512	-28.67694
358.731	-72.69518
358.949	0.65773
359.167	10.8099
359.386	-24.17414
359.604	-28.68027
359.822	33.37873
360.04	-33.21708
360.259	-12.87763
360.477	2.91731
360.695	-36.58265
360.913	-35.44658
361.131	-0.46987
361.35	-3.85628
361.568	-1.59963
361.786	5.17025
362.004	-1.59746
362.222	18.72504
362.44	-25.28772
362.658	19.85689
362.876	-27.54068
363.094	10.81115
363.312	45.77848
363.53	7.4324
363.749	-21.8963
363.967	-6.10982
364.184	-7.2441
364.402	24.35236
364.62	15.33135
364.838	-43.32024
365.056	62.69265
365.274	1.78591
365.492	14.19579
365.71	13.07905
365.928	-29.80348
366.146	-6.12051
366.364	-45.58432
366.581	8.5559
366.799	-30.94907
367.017	-30.93468
367.235	-24.15824
367.453	-35.46307
367.67	10.81534
367.888	-6.11527
368.106	-12.89261
368.323	-17.39219
368.541	52.5486
368.759	16.45207
368.977	36.76006
369.194	-45.57377
369.412	32.27107
369.629	26.64204
369.847	-19.64847
370.065	-0.47043
370.282	24.35331
370.5	39.00588
370.717	5.16925
370.935	-17.4023
371.152	24.36842
371.37	16.45016
371.588	-11.74943
371.805	32.26731
372.022	0.65801
372.24	41.2984
372.457	-20.77621
372.675	-3.85613
372.892	57.09176
373.11	50.3022
373.327	35.63118
373.544	44.6738
373.762	-16.26059
373.979	-18.50926
374.196	22.10519
374.414	52.58728
374.631	2.91504
374.848	53.70471
375.066	-3.85329
375.283	-25.3083
375.5	0.65796
375.717	-11.75352
375.935	-0.47058
376.152	-9.49795
376.369	41.28719
376.586	7.42636
376.803	-2.72429
377.02	32.2573
377.238	14.19414
377.455	25.50093
377.672	18.69969
377.889	44.69982
378.106	19.83765
378.323	60.47894
378.54	6.30209
378.757	-7.23765
378.974	13.07296
379.191	-34.32695
379.408	8.55359
379.625	9.69336
379.842	8.55955
380.059	20.97276
380.276	54.83229
380.493	13.0684
380.71	55.91226
380.927	33.39814
381.143	-7.24185
381.36	51.43944
381.577	23.2057
381.794	-34.34027
382.011	11.94227
382.228	-10.62169
382.444	-47.81976
382.661	18.72068
382.878	9.68809
383.095	29.98862
383.311	31.14265
383.528	24.34671
383.745	18.71342
383.962	-2.72724
384.178	-17.3848
384.395	17.58463
384.612	66.13138
384.828	-34.29381
385.045	17.57987
385.261	15.31831
385.478	49.20348
385.695	15.32245
385.911	-4.98176
386.128	-3.85404
386.344	90.99078
386.561	19.86385
386.777	14.18976
386.994	-8.36028
387.21	-21.90222
387.427	33.36068
387.643	103.28147
387.86	31.09932
388.076	27.72386
388.292	44.63066
388.509	49.16917
388.725	63.85388
388.942	75.10978
389.158	67.24588
389.374	80.65841
389.591	25.45854
389.807	43.50064
390.023	61.4596
390.239	18.68244
390.456	55.91011
390.672	84.02425
390.888	72.81152
391.104	61.53034
391.321	73.88639
391.537	111.14353
391.753	95.2646
391.969	104.29088
392.185	131.35628
392.401	106.45834
392.618	74.98858
392.834	108.83011
393.05	142.53624
393.266	172.85705
393.482	192.9477
393.698	205.50115
393.914	167.23266
394.13	152.5862
394.346	140.11865
394.562	183.92351
394.778	222.21967
394.994	249.16603
395.21	235.28999
395.426	263.54087
395.642	288.22537
395.858	325.21794
396.073	357.78251
396.289	359.27669
396.505	441.92359
396.721	385.26274
396.937	440.63272
397.153	373.1428
397.369	469.77961
397.584	540.69903
397.8	466.20563
398.016	447.63177
398.232	524.23658
398.447	574.51627
398.663	557.17472
398.879	616.97479
399.094	747.58376
399.31	667.55468
399.526	696.40958
399.741	778.53236
399.957	794.75943
400.173	884.02961
400.388	905.74887
400.604	916.9387
400.82	988.84964
401.035	1136.05478
401.251	1183.98074
401.466	1142.16169
401.682	1319.81637
401.897	1344.88802
402.113	1446.77037
402.328	1548.65096
402.544	1542.16274
402.759	1675.42219
402.974	1841.78014
403.19	1680.50608
403.405	1978.72048
403.621	2025.0641
403.836	2035.082
404.051	2104.35119
404.267	2283.99624
404.482	2180.17274
404.697	2153.23053
404.913	2261.74247
405.128	2609.76963
405.343	2470.72069
405.559	2541.48773
405.774	2660.90546
405.989	2824.33002
406.204	2825.39311
406.42	2946.20514
406.635	2928.89122
406.85	2826.18094
407.065	2967.51737
407.28	3150.60442
407.495	3204.36311
407.71	3116.39477
407.926	3153.7181
408.141	3543.46616
408.356	3482.86503
408.571	3507.04999
408.786	3477.30517
409.001	3500.6678
409.216	3702.03668
409.431	3757.01081
409.646	3696.06915
409.861	3646.47354
410.076	3622.83329
410.291	3861.99
410.506	3860.49154
410.721	3832.76893
410.936	3904.97746
411.15	3864.46705
411.365	3964.23938
411.58	4117.20294
411.795	4066.33119
412.01	4292.62751
412.225	4126.42749
412.439	4135.65683
412.654	4226.22306
412.869	4252.12983
413.084	4306.60331
413.299	4380.80775
413.513	4150.76898
413.728	4365.59979
413.943	4475.97974
414.157	4451.15309
414.372	4536.22805
414.587	4634.47712
414.801	4750.81263
415.016	4720.06629
415.231	4900.89766
415.445	4873.11592
415.66	4959.34093
415.874	4990.79661
416.089	4834.15437
416.304	5368.70769
416.518	5002.53003
416.733	5035.88582
416.947	4938.1323
417.162	4996.5552
417.376	5206.15469
417.59	5356.26112
417.805	5352.37798
418.019	5162.88769
418.234	5194.81213
418.448	4987.30404
418.663	5208.93899
418.877	5078.67391
419.091	5227.5327
419.306	5243.41403
419.52	5335.21788
419.734	5255.59692
419.949	5480.48267
420.163	5446.389
420.377	5156.06549
420.591	5404.38798
420.806	5413.5294
421.02	5373.17613
421.234	5438.25272
421.448	5385.57114
421.663	5542.25186
421.877	5224.94941
422.091	5414.70708
422.305	5280.51279
422.519	5303.98356
422.733	5848.3904
422.947	5325.14902
423.161	5516.38871
423.376	5505.57342
423.59	5580.03368
423.804	5653.33741
424.018	5519.29398
424.232	5590.24111
424.446	5826.80345
424.66	5703.60751
424.874	5645.02822
425.088	5611.64027
425.302	5622.52059
425.515	5954.16781
425.729	6049.17254
425.943	6077.94501
426.157	6070.06889
426.371	5920.53597
426.585	6078.31934
426.799	6174.3928
427.013	6416.83965
427.226	6520.21184
427.44	6134.8785
427.654	6185.51418
427.868	6149.40723
428.081	6299.34355
428.295	6304.1059
428.509	6357.03772
428.723	6332.95635
428.936	6245.39123
429.15	6146.82055
429.364	6368.69588
429.577	6166.02437
429.791	6312.30848
430.005	6661.20422
430.218	6628.0596
430.432	6282.78039
430.645	6207.62096
430.859	6506.82506
431.073	6438.27082
431.286	6524.50963
431.5	6652.44613
431.713	6158.93879
431.927	6256.06055
432.14	6546.53257
432.354	6348.13093
432.567	6420.35613
432.781	6668.24518
432.994	6739.37467
433.207	6694.58685
433.421	6753.25336
433.634	6702.84583
433.848	6911.19452
434.061	6643.61108
434.274	6304.11208
434.488	6473.86503
434.701	6301.23439
434.914	6447.17965
435.127	6674.40084
435.341	6740.99142
435.554	6846.13637
435.767	7077.37127
435.98	7113.0915
436.194	6653.92138
436.407	6838.70741
436.62	7419.2853
436.833	7142.52346
437.046	7067.37726
437.259	6882.65919
437.473	7198.1476
437.686	7318.55779
437.899	7069.46627
438.112	7327.43828
438.325	7233.83092
438.538	7248.54534
438.751	7827.49813
438.964	7411.05178
439.177	7524.45229
439.39	7624.0582
439.603	8258.007
439.816	7802.13186
440.029	8338.9538
440.242	8472.88336
440.455	8636.60136
440.668	8404.25992
440.881	8149.42561
441.094	8050.92664
441.306	8314.93248
441.519	8917.86205
441.732	9033.68428
441.945	8980.6596
442.158	8479.81813
442.37	8460.02203
442.583	8993.33698
442.796	9387.5812
443.009	9330.77578
443.222	8944.2274
443.434	8554.09827
443.647	9325.71807
443.86	9834.27267
444.072	10104.88273
444.285	9728.19435
444.498	9917.42341
444.71	9536.53644
444.923	9764.2892
445.136	9582.01296
445.348	9509.6779
445.561	9633.68687
445.773	9790.83511
445.986	9108.205
446.198	10001.84401
446.411	10082.61938
446.623	10307.44174
446.836	10153.1043
447.048	10340.91605
447.261	10827.06231
447.473	10668.7122
447.686	10218.4054
447.898	10488.37202
448.11	11244.2375
448.323	11248.35021
448.535	11015.87678
448.748	10389.96771
448.96	10571.01349
449.172	10712.67216
449.385	10185.77242
449.597	11031.17024
449.809	11098.7979
450.021	11172.18019
450.234	11442.85424
450.446	10551.83671
450.658	10775.15038
450.87	10808.0455
451.083	11187.22472
451.295	11255.44954
451.507	11241.97459
451.719	11009.21667
451.931	11351.20264
452.143	11280.13569
452.356	11109.02074
452.568	11173.2788
452.78	11154.06633
452.992	11413.35039
453.204	11852.17115
453.416	11400.69092
453.628	11011.72577
453.84	11112.28083
454.052	11230.82578
454.264	11756.63685
454.476	11494.32098
454.688	12095.62875
454.9	12213.0108
455.112	11309.58476
455.324	11222.28305
455.536	11786.84913
455.747	11984.107
455.959	11869.33564
456.171	12035.05388
456.383	11685.26471
456.595	11295.52984
456.807	11563.70788
457.018	11275.34726
457.23	11929.23611
457.442	11612.40683
457.654	11906.96699
457.865	11584.19101
458.077	11478.68687
458.289	11277.98629
458.501	11662.99062
458.712	12299.67317
458.924	12631.54085
459.136	11892.51634
459.347	11762.05178
459.559	11786.97618
459.77	12559.74874
459.982	12446.22695
460.194	12565.29605
460.405	11760.49133
460.617	12181.88983
460.828	12404.52396
461.04	12474.88996
461.251	12215.71456
461.463	13251.53297
461.674	13067.34838
461.886	12747.48002
462.097	12302.14041
462.309	12894.64387
462.52	12349.77009
462.731	13383.91896
462.943	12514.80585
463.154	12176.09224
463.366	12429.1107
463.577	12982.35627
463.788	13317.67721
464	13506.51633
464.211	13609.28469
464.422	14421.04634
464.634	14121.08668
464.845	13838.65171
465.056	14047.85385
465.267	13881.82638
465.478	13247.53579
465.69	13920.36209
465.901	13781.63431
466.112	13931.0127
466.323	13968.73533
466.534	14472.92703
466.745	14505.14752
466.957	14599.96169
467.168	14344.72013
467.379	14353.56102
467.59	13873.33069
467.801	13375.36485
468.012	14165.98782
468.223	14552.99639
468.434	14105.59499
468.645	14951.95403
468.856	15201.26186
469.067	14851.67985
469.278	15029.59688
469.489	15248.11519
469.7	14397.67536
469.911	14367.13295
470.122	15482.15045
470.333	15942.3004
470.543	14857.51405
470.754	15418.6826
470.965	15248.24879
471.176	15486.68958
471.387	16030.84025
471.598	15507.90178
471.808	15643.00315
472.019	15840.75528
472.23	15868.32521
472.441	15253.41632
472.651	15848.19325
472.862	15755.76355
473.073	16386.25992
473.283	16112.28804
473.494	15795.47206
473.705	16135.93385
473.915	16212.94021
474.126	17019.13626
474.337	16731.80848
474.547	17044.99014
474.758	17395.80992
474.968	16990.85696
475.179	17359.27781
475.389	17181.88665
475.6	17192.18145
475.81	17573.07149
476.021	18251.07878
476.231	18174.60486
476.442	18064.05887
476.652	17595.1691
476.863	17988.47859
477.073	17830.19966
477.284	18409.13447
477.494	18183.70093
477.704	19113.20558
477.915	19752.22207
478.125	18649.27575
478.335	19035.68476
478.546	19862.79307
478.756	19463.4249
478.966	20111.20082
479.177	19900.98452
479.387	20207.36687
479.597	20176.86361
479.807	20314.79956
480.018	20186.45529
480.228	20798.41546
480.438	20645.55506
480.648	21105.15383
480.858	21133.52058
481.068	20665.67463
481.279	21171.86824
481.489	22489.4455
481.699	22002.66678
481.909	21917.98007
482.119	23096.09543
482.329	22953.02707
482.539	22946.89653
482.749	22570.97922
482.959	22987.33963
483.169	23806.93823
483.379	23644.45374
483.589	23744.30319
483.799	23675.40302
484.009	23685.84584
484.219	23948.387
484.429	24621.27108
484.639	23985.046
484.849	24585.43249
485.059	24738.31817
485.268	25188.38998
485.478	25550.59407
485.688	24615.74935
485.898	24639.94849
486.108	25134.86827
486.317	25397.7173
486.527	25597.7882
486.737	26199.57074
486.947	26091.86422
487.156	26379.12737
487.366	26107.31043
487.576	25485.33661
487.785	25795.49713
487.995	25686.79779
488.205	26167.47404
488.414	26314.70171
488.624	26140.89564
488.834	26386.15789
489.043	25794.98081
489.253	25899.68272
489.462	26144.64982
489.672	26732.89095
489.882	26696.51838
490.091	26921.26022
490.301	26664.82407
490.51	26903.72141
490.72	27105.50825
490.929	27178.29267
491.138	27687.44262
491.348	27107.26423
491.557	27174.87487
491.767	27291.52773
491.976	27386.61909
492.185	27536.65133
492.395	27303.21003
492.604	27669.02834
492.813	27637.26425
493.023	27976.6449
493.232	27815.92238
493.441	27668.39632
493.651	28030.72628
493.86	27527.11141
494.069	27971.12656
494.278	27949.9154
494.488	28152.18935
494.697	28238.41289
494.906	28081.07087
495.115	28679.92324
495.324	28382.97662
495.533	28765.78888
495.743	29002.97882
495.952	29551.99595
496.161	29231.54134
496.37	29329.35066
496.579	29625.83522
496.788	29536.4192
496.997	30259.2927
497.206	29612.40094
497.415	29671.0475
497.624	30031.04465
497.833	30001.64011
498.042	30179.15549
498.251	30381.78902
498.46	30711.82745
498.669	30353.96195
498.878	30470.89354
499.087	30315.85284
499.296	30793.04713
499.504	31011.99409
499.713	30781.27395
499.922	30937.8154
500.131	30850.32186
500.34	30929.34386
500.549	30979.99567
500.757	30909.14661
500.966	31354.69029
501.175	31222.7891
501.384	31626.51602
501.592	31203.0983
501.801	31331.60383
502.01	31469.67909
502.218	31383.27988
502.427	31424.72656
502.636	31343.54132
502.844	31461.28543
503.053	31525.01667
503.262	31547.72046
503.47	31373.51153
503.679	31584.98194
503.887	31613.02832
504.096	31517.90128
504.304	31547.50177
504.513	31878.38621
504.721	31832.28571
504.93	31660.20991
505.138	31933.89684
505.347	31738.61434
505.555	31736.84677
505.764	32009.85137
505.972	31963.15522
506.18	31709.55658
506.389	31673.79369
506.597	31408.4062
506.806	31938.82983
507.014	32050.66481
507.222	31951.59135
507.431	31810.46348
507.639	31824.89448
507.847	32197.07358
508.055	32126.84501
508.264	31997.64951
508.472	32263.09649
508.68	31881.65051
508.888	32225.8769
509.096	32343.61833
509.305	32177.66999
509.513	32086.09013
509.721	32148.50938
509.929	32299.58865
510.137	32101.36564
510.345	32225.72047
510.553	32312.1924
510.762	32257.2129
510.97	32247.90687
511.178	32364.71936
511.386	32716.02686
511.594	32503.49612
511.802	32607.27339
512.01	32437.91265
512.218	32497.32102
512.426	32588.05371
512.634	32647.70809
512.842	32604.67018
513.049	32598.74094
513.257	32543.23098
513.465	32778.72848
513.673	32821.04316
513.881	32723.07828
514.089	32831.21829
514.297	32903.86737
514.504	32642.62036
514.712	32778.16084
514.92	32854.08556
515.128	33064.81516
515.336	32984.06705
515.543	32831.07452
515.751	32873.72255
515.959	32850.7885
516.166	32664.25298
516.374	32646.55738
516.582	32861.01744
516.789	32738.06969
516.997	32751.98113
517.205	32818.54732
517.412	32652.53079
517.62	32812.33909
517.827	32671.88295
518.035	32564.28359
518.243	32485.40284
518.45	32452.93262
518.658	32249.52065
518.865	32282.86717
519.073	32402.73795
519.28	32190.27336
519.488	32230.17606
519.695	32120.09709
519.902	32008.41799
520.11	32105.68143
520.317	32241.6461
520.525	32151.67306
520.732	31633.34471
520.939	31852.27817
521.147	31690.97686
521.354	31660.78727
521.561	31798.38626
521.769	31778.84476
521.976	31402.98823
522.183	31856.79114
522.391	31691.73281
522.598	31894.6867
522.805	31834.4437
523.012	32013.26621
523.219	31597.26973
523.427	31747.27778
523.634	31927.92449
523.841	31854.69573
524.048	31749.83428
524.255	31905.92929
524.462	31851.102
524.669	31695.03334
524.877	32148.60127
525.084	31662.52704
525.291	31622.49086
525.498	31995.4877
525.705	32011.00859
525.912	32010.18827
526.119	31921.42215
526.326	32180.56904
526.533	32156.21824
526.74	32424.33435
526.947	32245.7313
527.153	32348.28761
527.36	32252.62961
527.567	32196.55692
527.774	32197.31891
527.981	32282.65553
528.188	32285.64772
528.395	32391.38037
528.602	32151.12901
528.808	32332.33154
529.015	32109.11126
529.222	32398.67229
529.429	32230.36053
529.635	32541.40349
529.842	32476.37655
530.049	32292.41848
530.256	32238.99266
530.462	32355.27681
530.669	32329.85806
530.876	32211.0741
531.082	32183.79746
531.289	32246.8587
531.495	32168.33134
531.702	32472.76252
531.909	32292.02047
532.115	32555.3827
532.322	32100.35891
532.528	32248.83108
532.735	32364.67652
532.941	32319.78871
533.148	32179.92656
533.354	32287.27291
533.561	32188.85015
533.767	31978.49701
533.974	32062.53538
534.18	32139.98788
534.387	31823.88804
534.593	32073.29972
534.799	32008.78285
535.006	31956.77405
535.212	32108.27752
535.418	32046.39445
535.625	32110.44802
535.831	31922.1311
536.037	32076.14407
536.244	31997.78169
536.45	31761.81942
536.656	31915.47822
536.862	32150.91091
537.068	32137.67399
537.275	32047.67791
537.481	32160.46991
537.687	32248.27087
537.893	32365.88196
538.099	32318.91415
538.305	32178.31273
538.512	32110.45344
538.718	32180.0481
538.924	32093.98645
539.13	31973.10433
539.336	32238.10828
539.542	32044.25933
539.748	32191.76549
539.954	32271.55091
540.16	32156.12814
540.366	32198.81331
540.572	32017.5669
540.778	32053.44121
540.984	32040.70591
541.19	32046.25204
541.396	31740.16633
541.602	31876.83319
541.807	31844.20316
542.013	31972.04594
542.219	31495.05856
542.425	31622.1821
542.631	31482.95906
542.837	31644.83901
543.042	31487.7459
543.248	31119.00771
543.454	31190.35903
543.66	31081.13885
543.865	30801.99759
544.071	31163.61539
544.277	30612.43038
544.483	30686.46317
544.688	30673.65988
544.894	30733.18973
545.1	30472.54575
545.305	29997.62031
545.511	29807.08926
545.716	29806.31944
545.922	29319.62526
546.128	29127.5868
546.333	28846.49122
546.539	28888.17372
546.744	28417.61188
546.95	28033.87776
547.155	27818.17299
547.361	27542.29309
547.566	26836.2354
547.772	26876.98747
547.977	26261.51346
548.182	25899.78615
548.388	25387.80913
548.593	25135.79176
548.799	24367.00409
549.004	24159.32367
549.209	23769.22414
549.415	23521.60132
549.62	22716.2925
549.825	22266.58155
550.031	21625.89004
550.236	21339.26374
550.441	20747.33511
550.646	20355.20793
550.852	19733.80349
551.057	18985.71005
551.262	18687.33338
551.467	18202.3897
551.672	17376.55163
551.878	17129.87186
552.083	16535.62514
552.288	15852.90516
552.493	15236.16192
552.698	14680.14886
552.903	14173.21325
553.108	13973.52736
553.313	13200.21294
553.518	12579.34839
553.723	12331.289
553.928	11732.14844
554.133	11158.4665
554.338	11020.38905
554.543	10415.46193
554.748	9864.69253
554.953	9551.66309
555.158	9273.71536
555.363	8793.16053
555.568	8186.16366
555.773	8110.35422
555.978	7732.09033
556.182	7380.3612
556.387	7035.62076
556.592	6552.64452
556.797	6474.38716
557.002	6104.47078
557.206	6012.68121
557.411	5713.15107
557.616	5500.41862
557.821	5289.65801
558.025	5125.99539
558.23	4898.85954
558.435	4751.08248
558.64	4475.65782
558.844	4426.74646
559.049	4351.96462
559.253	4214.61949
559.458	3968.24942
559.663	3892.40141
559.867	3789.70495
560.072	3768.79561
560.276	3604.632
560.481	3484.37618
560.685	3507.08538
560.89	3444.67134
561.094	3270.92446
561.299	3339.802
561.503	3244.00329
561.708	3226.07132
561.912	3156.95638
562.117	3153.09707
562.321	3050.55606
562.525	3135.14684
562.73	3001.20661
562.934	3024.50082
563.139	2986.16151
563.343	2993.11559
563.547	2879.51762
563.752	2866.69207
563.956	2837.06754
564.16	2951.43089
564.364	2771.2012
564.569	2736.76876
564.773	2656.86559
564.977	2673.24575
565.181	2665.45896
565.385	2738.29358
565.59	2703.23836
565.794	2628.06013
565.998	2542.01631
566.202	2559.16813
566.406	2536.44919
566.61	2649.26681
566.814	2567.73541
567.018	2567.82042
567.222	2512.3599
567.426	2482.71191
567.63	2539.3805
567.834	2521.08686
568.038	2581.44848
568.242	2454.53105
568.446	2471.84904
568.65	2447.36472
568.854	2324.45862
569.058	2433.24487
569.262	2461.66777
569.466	2386.12421
569.67	2324.87857
569.874	2381.61111
570.078	2459.75379
570.281	2350.61256
570.485	2342.7271
570.689	2345.46233
570.893	2302.43131
571.097	2331.50292
571.3	2259.99127
571.504	2325.71879
571.708	2279.4102
571.912	2261.23687
572.115	2196.63276
572.319	2241.73635
572.523	2184.29928
572.726	2159.66633
572.93	2168.62838
573.133	2152.43405
573.337	2165.63637
573.541	2153.42807
573.744	2169.02983
573.948	2156.35095
574.151	2054.84413
574.355	2106.91897
574.558	2078.47567
574.762	2181.69217
574.965	2006.68433
575.169	2044.68198
575.372	2055.90821
575.576	2123.40728
575.779	2039.19732
575.983	2012.63683
576.186	1966.10958
576.389	2068.02724
576.593	1965.41425
576.796	2034.57256
577	1911.2383
577.203	2056.35573
577.406	1882.36273
577.609	1967.54778
577.813	1913.39059
578.016	1958.54033
578.219	1906.35856
578.423	2046.47805
578.626	1876.95766
578.829	1936.66244
579.032	1864.60632
579.235	1941.05508
579.438	1867.58374
579.642	2005.18213
579.845	1848.49545
580.048	1933.06546
580.251	1786.0692
580.454	1945.77394
580.657	1776.16929
580.86	1845.22619
581.063	1671.16506
581.266	1968.30466
581.469	1875.05832
581.672	1785.85357
581.875	1870.60792
582.078	1817.94098
582.281	1757.60832
582.484	1857.37177
582.687	1839.47773
582.89	1818.29044
583.093	1730.02134
583.296	1832.19463
583.499	1746.88772
583.702	1817.33629
583.904	1749.37304
584.107	1767.54967
584.31	1798.2426
584.513	1777.27863
584.716	1724.53238
584.918	1813.94927
585.121	1710.88208
585.324	1862.52255
585.527	1738.758
585.729	1770.12836
585.932	1817.59211
586.135	1760.99335
586.337	1760.65415
586.54	1770.29878
586.743	1795.48995
586.945	1679.58558
587.148	1721.31362
587.35	1843.43525
587.553	1689.52922
587.755	1708.80469
587.958	1766.12602
588.161	1740.68633
588.363	1667.41328
588.566	1822.90805
588.768	1778.55928
588.971	1762.87265
589.173	1621.66964
589.375	1784.45482
589.578	1669.29095
589.78	1705.95826
589.983	1626.37586
590.185	1743.16604
590.387	1646.2982
590.59	1758.11782
590.792	1665.96055
590.994	1751.01272
591.197	1643.23795
591.399	1665.31877
591.601	1577.22753
591.803	1668.13297
592.006	1549.16981
592.208	1594.55703
592.41	1597.73605
592.612	1675.53118
592.815	1535.09523
593.017	1644.95315
593.219	1569.74894
593.421	1573.51965
593.623	1545.73367
593.825	1579.31749
594.027	1507.00986
594.229	1716.47568
594.432	1552.55353
594.634	1574.25548
594.836	1529.23224
595.038	1555.12377
595.24	1471.11982
595.442	1530.7465
595.644	1456.65016
595.846	1453.893
596.048	1455.8328
596.249	1555.73652
596.451	1402.11089
596.653	1492.8105
596.855	1412.36235
597.057	1483.53216
597.259	1401.17218
597.461	1519.99302
597.663	1468.17327
597.864	1479.65658
598.066	1378.91379
598.268	1488.73179
598.47	1434.78291
598.671	1429.04584
598.873	1447.34395
599.075	1416.02854
599.277	1401.17218
599.478	1476.07419
599.68	1401.45942
599.882	1388.83445
600.083	1485.34661
600.285	1430.86475
600.487	1396.65246
600.688	1397.74046
600.89	1428.25043
601.091	1407.8964
601.293	1424.96018
601.494	1502.77523
601.696	1448.81184
601.898	1463.70848
602.099	1438.61152
602.301	1433.97253
602.502	1413.16235
602.703	1450.89387
602.905	1422.75084
603.106	1418.61119
603.308	1450.19952
603.509	1540.95486
603.711	1330.99182
603.912	1439.48921
604.113	1388.76224
604.315	1281.75235
604.516	1376.51763
604.717	1382.22589
604.919	1410.43526
605.12	1376.72476
605.321	1441.98765
605.522	1471.11448
605.724	1396.37131
605.925	1486.57337
606.126	1389.13326
606.327	1429.20477
606.528	1360.90331
606.729	1398.25452
606.931	1386.86344
607.132	1420.69476
607.333	1360.0487
607.534	1385.8274
607.735	1429.52186
607.936	1388.42298
608.137	1364.7919
608.338	1421.66986
608.539	1376.72476
608.74	1349.84965
608.941	1357.98845
609.142	1308.28645
609.343	1369.63012
609.544	1479.26595
609.745	1301.48881
609.946	1373.27006
610.147	1387.57334
610.348	1425.30865
610.549	1389.93657
610.75	1456.86551
610.95	1359.3311
611.151	1345.24783
611.352	1356.03616
611.553	1410.57857
611.754	1346.91732
611.954	1434.03675
612.155	1331.61705
612.356	1369.60897
612.557	1325.83055
612.757	1513.29526
612.958	1262.31957
613.159	1360.12995
613.359	1258.64126
613.56	1330.44422
613.761	1293.11215
613.961	1432.13595
614.162	1325.97682
614.362	1314.76594
614.563	1309.16748
614.764	1360.62995
614.964	1282.44136
615.165	1378.12877
615.365	1341.41211
615.566	1289.38379
615.766	1384.80558
615.967	1286.95379
616.167	1300.97603
616.368	1395.43749
616.568	1319.85101
616.768	1330.48892
616.969	1333.10394
617.169	1327.72999
617.37	1267.68414
617.57	1283.0053
617.77	1251.64011
617.971	1284.52494
618.171	1286.17748
618.371	1279.79921
618.571	1226.54978
618.772	1349.76403
618.972	1268.94124
619.172	1311.33599
619.372	1262.12908
619.573	1202.5906
619.773	1227.677
619.973	1291.37877
620.173	1219.89515
620.373	1210.73769
620.573	1220.56539
620.774	1335.72624
620.974	1159.60656
621.174	1280.61891
621.374	1281.74705
621.574	1339.42512
621.774	1271.54297
621.974	1313.57529
622.174	1293.86394
622.374	1420.79007
622.574	1251.1044
622.774	1372.76409
622.974	1207.24664
623.174	1296.0662
623.374	1284.82799
623.574	1315.98347
623.774	1192.35661
623.973	1341.14149
624.173	1221.94483
624.373	1372.41782
624.573	1361.77198
624.773	1381.96179
624.973	1246.50887
625.172	1364.00588
625.372	1275.75551
625.572	1362.48859
625.772	1250.84005
625.971	1339.87601
626.171	1253.70006
626.371	1384.5586
626.57	1256.38346
626.77	1343.93897
626.97	1322.57811
627.169	1386.48089
627.369	1368.04058
627.569	1318.68706
627.768	1272.24036
627.968	1301.35709
628.167	1320.54351
628.367	1406.3452
628.566	1325.05981
628.766	1269.94062
628.965	1302.83722
629.165	1370.99048
629.364	1319.78649
629.564	1305.18284
629.763	1293.98437
629.963	1339.33468
630.162	1337.75787
630.362	1371.65784
630.561	1328.48978
630.76	1341.36646
630.96	1310.56148
631.159	1440.9839
631.358	1350.72169
631.558	1419.07346
631.757	1467.62609
631.956	1408.7427
632.155	1366.47261
632.355	1358.65956
632.554	1303.04296
632.753	1328.78131
632.952	1404.88904
633.152	1345.70219
633.351	1346.92238
633.55	1404.69996
633.749	1389.73792
633.948	1482.06995
634.147	1309.59005
634.346	1392.41638
634.545	1392.00693
634.744	1423.46341
634.944	1361.89466
635.143	1457.32617
635.342	1378.79641
635.541	1391.72865
635.74	1324.22733
635.939	1410.67018
636.138	1378.5901
636.336	1367.39835
636.535	1311.60162
636.734	1450.02822
636.933	1389.2726
637.132	1421.49077
637.331	1312.26879
637.53	1449.45716
637.729	1433.09927
637.928	1484.2221
638.126	1462.59573
638.325	1462.66738
638.524	1416.0757
638.723	1398.7395
638.921	1409.21356
639.12	1563.79253
639.319	1437.13577
639.518	1560.10014
639.716	1427.72779
639.915	1498.58247
640.114	1505.13426
640.312	1448.82973
640.511	1425.70885
640.71	1507.95295
640.908	1486.13477
641.107	1539.75781
641.305	1421.43314
641.504	1554.2989
641.702	1471.21246
641.901	1537.8053
642.099	1505.6468
642.298	1595.36984
642.496	1441.51729
642.695	1525.30594
642.893	1456.39127
643.092	1572.61879
643.29	1540.39644
643.489	1500.88724
643.687	1517.5888
643.885	1451.54042
644.084	1496.32504
644.282	1565.58541
644.48	1442.90024
644.679	1567.89241
644.877	1505.88242
645.075	1543.41649
645.274	1518.23668
645.472	1519.69401
645.67	1487.16172
645.868	1594.07163
646.067	1573.2223
646.265	1573.7861
646.463	1523.04929
646.661	1524.50337
646.859	1549.3738
647.057	1569.22546
647.256	1567.17982
647.454	1624.18349
647.652	1645.43704
647.85	1602.61627
648.048	1607.1857
648.246	1618.49513
648.444	1552.09181
648.642	1563.22665
648.84	1526.1327
649.038	1595.159
649.236	1629.94145
649.434	1530.7465
649.632	1594.31795
649.83	1654.46963
650.028	1519.92645
650.226	1536.70843
650.423	1525.35622
650.621	1561.2788
650.819	1529.09493
651.017	1581.43079
651.215	1545.57269
651.413	1563.99768
651.61	1576.47472
651.808	1569.53465
652.006	1474.22093
652.204	1617.84316
652.401	1566.05068
652.599	1625.85541
652.797	1475.63279
652.995	1517.20865
653.192	1574.91887
653.39	1594.13952
653.588	1541.2207
653.785	1583.58398
653.983	1547.93951
654.18	1612.35068
654.378	1465.37145
654.576	1551.24561
654.773	1547.37138
654.971	1640.82232
655.168	1507.80371
655.366	1543.41154
655.563	1511.93778
655.761	1661.30024
655.958	1555.64031
656.156	1579.70755
656.353	1515.15236
656.55	1555.27684
656.748	1542.24753
656.945	1499.28755
657.143	1499.48681
657.34	1545.83534
657.537	1488.63138
657.735	1536.80941
657.932	1480.14645
658.129	1476.32137
658.326	1564.42204
658.524	1547.12699
658.721	1432.19245
658.918	1520.74271
659.115	1509.55257
659.313	1527.34228
659.51	1447.3166
659.707	1524.57986
659.904	1472.93181
660.101	1510.43118
660.298	1494.81105
660.496	1521.8983
660.693	1456.36124
660.89	1456.82732
661.087	1488.83858
661.284	1550.6538
661.481	1429.79383
661.678	1440.96094
661.875	1446.93281
662.072	1465.76221
662.269	1443.50193
662.466	1498.79038
662.663	1472.34168
662.86	1498.7305
663.057	1481.9128
663.254	1468.75859
663.45	1538.33074
663.647	1567.29344
663.844	1420.92058
664.041	1500.91577
664.238	1401.19309
664.435	1479.5162
664.631	1426.89843
664.828	1560.35426
665.025	1577.3098
665.222	1532.17806
665.419	1436.22232
665.615	1524.07717
665.812	1423.26349
666.009	1576.77238
666.205	1464.73068
666.402	1457.6052
666.599	1524.0053
666.795	1561.79045
666.992	1502.57556
667.188	1544.96115
667.385	1446.3114
667.582	1601.51694
667.778	1504.56829
667.975	1500.81586
668.171	1528.61083
668.368	1571.68843
668.564	1523.04929
668.761	1558.91769
668.957	1483.23729
669.154	1568.41243
669.35	1509.18091
669.547	1574.66979
669.743	1505.16492
669.939	1609.16218
670.136	1526.01112
670.332	1469.55427
670.528	1457.08443
670.725	1542.45029
670.921	1544.59666
671.117	1545.62374
671.314	1621.60361
671.51	1529.55013
671.706	1538.27982
671.902	1509.18091
672.099	1460.27543
672.295	1456.69836
672.491	1463.01718
672.687	1439.94664
672.883	1439.94664
673.08	1548.80677
673.276	1492.31513
673.472	1475.8827
673.668	1422.70344
673.864	1482.25618
674.06	1412.31686
674.256	1556.71166
674.452	1493.97907
674.648	1473.7181
674.844	1447.26858
675.04	1416.21727
675.236	1409.21356
675.432	1401.5637
675.628	1333.20234
675.824	1534.4356
676.02	1355.13538
676.216	1421.11043
676.412	1374.76801
676.608	1380.27054
676.804	1307.37847
676.999	1354.58891
677.195	1270.38198
677.391	1340.19238
677.587	1315.78303
677.783	1395.25135
677.978	1333.01419
678.174	1424.59246
678.37	1316.7781
678.566	1300.49217
678.761	1307.08708
678.957	1269.51136
679.153	1195.06036
679.348	1322.31036
679.544	1185.55024
679.74	1290.20727
679.935	1262.34274
680.131	1243.17834
680.327	1261.75961
680.522	1274.62685
680.718	1237.46146
680.913	1293.42489
681.109	1205.49421
681.304	1261.88907
681.5	1204.0476
681.695	1228.13415
681.891	1169.47789
682.086	1291.04673
682.282	1138.11079
682.477	1051.36516
682.672	1249.37593
682.868	1279.35881
683.063	1128.19257
683.259	1255.82904
683.454	1201.9769
683.649	1270.50044
683.845	1127.02611
684.04	1203.45406
684.235	1135.7804
684.43	1195.42796
684.626	1173.42237
684.821	1179.06583
685.016	1082.29936
685.211	1060.46658
685.407	1059.2529
685.602	1073.93375
685.797	991.3723
685.992	1077.52262
686.187	1126.67198
686.382	1156.68105
686.577	1018.65029
686.773	1075.51849
686.968	1006.41618
687.163	1111.78387
687.358	1024.71311
687.553	1056.99789
687.748	988.95313
687.943	1067.40474
688.138	1117.09352
688.333	1055.39878
688.528	948.55495
688.723	1004.84876
688.918	995.55067
689.112	1050.89792
689.307	879.06682
689.502	959.74154
689.697	957.88768
689.892	999.2853
690.087	875.09318
690.282	856.89094
690.476	865.67335
690.671	929.60386
690.866	791.51547
691.061	908.71164
691.255	826.6464
691.45	809.92671
691.645	874.86397
691.84	792.98356
692.034	794.62494
692.229	751.74867
692.424	757.228
692.618	856.33467
692.813	713.22972
693.007	760.36849
693.202	765.56508
693.397	831.45579
693.591	807.20296
693.786	691.52711
693.98	766.28239
694.175	816.82002
694.369	659.21418
694.564	737.90422
694.758	664.55474
694.953	719.40723
695.147	609.05796
695.342	721.76575
695.536	693.04717
695.73	744.95339
695.925	687.39927
696.119	676.01856
696.313	586.02341
696.508	707.09649
696.702	648.50469
696.896	634.798
697.091	623.85653
697.285	685.67504
697.479	679.83808
697.673	689.1846
697.868	571.97278
698.062	742.74172
698.256	620.0002
698.45	719.81953
698.644	742.71493
698.839	762.58864
699.033	606.8906
699.227	768.40404
699.421	692.07239
699.615	648.83553
699.809	665.58691
700.003	763.00596
700.197	652.10121
700.391	741.10504
700.585	659.70174
700.779	687.28968
700.973	612.44105
701.167	684.52204
701.361	677.38304
701.555	649.32769
701.749	631.66513
701.943	769.99933
702.137	668.99516
702.331	728.74257
702.525	643.24423
702.718	752.63954
702.912	706.42717
703.106	656.68269
703.3	701.88246
703.494	751.72671
703.687	668.25299
703.881	684.71946
704.075	705.7383
704.269	737.33309
704.462	733.86406
704.656	700.65132
704.85	687.12569
705.043	737.90422
705.237	648.5518
705.431	800.94517
705.624	660.32853
705.818	752.98466
706.012	720.38941
706.205	768.53966
706.399	612.7074
706.592	777.73768
706.786	687.6102
706.979	753.60641
707.173	684.10396
707.366	741.94113
707.56	662.92149
707.753	692.37121
707.947	700.39814
708.14	681.97128
708.333	667.26912
708.527	709.53965
708.72	670.2684
708.914	718.5367
709.107	701.85704
709.3	737.17337
709.494	739.29941
709.687	723.43848
709.88	748.55152
710.073	741.12077
710.267	700.80357
710.46	745.48696
710.653	713.99957
710.846	768.67721
711.04	755.59374
711.233	764.43589
711.426	707.58276
711.619	856.57952
711.812	675.86243
712.005	715.59079
712.198	725.85297
712.391	741.75528
712.585	675.4
712.778	735.2504
712.971	747.55697
713.164	766.78169
713.357	749.73763
713.55	758.5189
713.743	714.46076
713.936	776.33035
714.129	721.36265
714.322	859.99736
714.514	760.88495
714.707	778.78323
714.9	713.43485
715.093	779.21603
715.286	717.84659
715.479	781.80716
715.672	724.30703
715.864	835.52643
716.057	726.88607
716.25	712.17815
716.443	740.52132
716.636	808.41843
716.828	752.63954
717.021	761.33366
717.214	726.74668
717.406	798.00267
717.599	669.30583
717.792	664.86135
717.984	731.05206
718.177	714.2555
718.37	680.45091
718.562	764.62809
718.755	722.70015
718.947	742.37992
719.14	679.98477
719.333	702.87498
719.525	669.09167
719.718	682.85702
719.91	627.57632
720.103	686.35913
720.295	627.48602
720.487	722.54377
720.68	658.19065
720.872	717.10532
721.065	546.76721
721.257	643.2674
721.449	537.64466
721.642	708.20011
721.834	581.91397
722.026	584.44902
722.219	523.1848
722.411	612.06875
722.603	516.03536
722.796	633.02362
722.988	551.47753
723.18	592.09548
723.372	555.64999
723.565	601.10784
723.757	490.32681
723.949	590.17177
724.141	496.41752
724.333	545.74794
724.525	458.81883
724.717	534.27801
724.91	502.06015
725.102	567.41031
725.294	487.05241
725.486	510.26269
725.678	493.23205
725.87	544.88951
726.062	458.88676
726.254	449.60683
726.446	440.7465
726.638	503.05936
726.83	497.38154
727.022	434.96221
727.213	516.83135
727.405	498.95003
727.597	421.74598
727.789	413.63871
727.981	444.26236
728.173	491.17382
728.365	471.7587
728.556	481.89339
728.748	424.31589
728.94	523.87212
729.132	497.13299
729.324	492.92386
729.515	409.66023
729.707	508.18039
729.899	442.05433
730.09	503.92901
730.282	459.82871
730.474	488.32261
730.665	435.34774
730.857	525.51957
731.049	432.65954
731.24	535.82034
731.432	505.5393
731.623	540.87265
731.815	449.60683
732.006	568.68418
732.198	471.81072
732.389	529.47279
732.581	446.63541
732.772	530.98942
732.964	489.06015
733.155	546.61635
733.347	509.02029
733.538	456.52745
733.729	504.97
733.921	512.93406
734.112	492.12143
734.304	562.57189
734.495	508.72047
734.686	560.27084
734.877	467.86839
735.069	503.09632
735.26	442.10344
735.451	487.07022
735.643	482.9861
735.834	528.96509
736.025	535.85985
736.216	568.31088
736.407	484.70948
736.599	541.48697
736.79	495.50793
736.981	611.36398
737.172	469.48585
737.363	565.76707
737.554	504.26187
737.745	564.84482
737.936	553.49298
738.127	691.14318
738.318	622.48366
738.509	611.22972
738.7	556.82031
738.891	622.57013
739.082	553.71064
739.273	558.94312
739.464	558.42475
739.655	657.27623
739.846	591.18253
740.037	646.76681
740.228	572.82332
740.419	733.8111
740.609	566.67549
740.8	687.43747
740.991	579.50885
741.182	721.25878
741.373	600.21193
741.563	677.23584
741.754	664.21944
741.945	695.58157
742.136	725.98381
742.326	794.65348
742.517	627.62999
742.708	716.74371
742.898	623.63053
743.089	727.95407
743.28	638.94174
743.47	722.5579
743.661	674.78259
743.851	797.61419
744.042	667.74676
744.233	757.30918
744.423	648.08194
744.614	852.97532
744.804	732.60099
744.995	897.6606
745.185	661.36143
745.376	765.4278
745.566	692.27149
745.756	756.39732
745.947	701.87311
746.137	757.98826
746.328	747.44988
746.518	803.75916
746.708	783.53363
746.899	752.93078
747.089	791.23554
747.279	854.90704
747.47	771.87066
747.66	841.96972
747.85	712.97394
748.04	851.08795
748.231	748.79297
748.421	830.53389
748.611	754.32931
748.801	772.03645
748.991	799.15942
749.182	826.4998
749.372	757.52598
749.562	803.4731
749.752	768.81496
749.942	855.85382
750.132	806.41964
750.322	930.15918
750.512	719.63893
750.702	789.79438
750.892	806.3908
751.082	917.29461
751.272	856.54999
751.462	896.1313
751.652	830.35638
751.842	858.77707
752.032	822.42531
752.222	882.90041
752.412	851.94492
752.602	841.58274
752.792	776.10845
752.981	865.94394
753.171	779.81729
753.361	912.58475
753.551	813.13852
753.741	930.12644
753.93	885.03282
754.12	833.77804
754.31	859.93635
754.5	994.33731
754.689	825.54735
754.879	910.84705
755.069	846.27344
755.258	906.84542
755.448	833.6545
755.638	915.26263
755.827	782.12763
756.017	963.75055
756.206	806.91544
756.396	896.03638
756.586	887.19616
756.775	923.09489
756.965	867.11085
757.154	931.72953
757.344	905.19519
757.533	870.09782
757.723	852.27723
757.912	931.18974
758.101	886.13237
758.291	945.30527
758.48	891.21301
758.67	937.60043
758.859	859.02089
759.048	936.4719
759.238	817.70782
759.427	945.13637
759.616	813.48435
759.806	970.4876
759.995	809.5251
760.184	1007.61341
760.373	859.8449
760.563	965.04785
760.752	887.03963
760.941	909.71914
761.13	858.65537
761.319	944.43889
761.509	909.80895
761.698	880.58082
761.887	803.0317
762.076	835.7936
762.265	696.65979
762.454	838.30047
762.643	671.80993
762.832	733.52033
763.021	637.74506
763.21	685.97194
763.399	635.00502
763.588	659.80512
763.777	586.60046
763.966	519.05876
764.155	561.87106
764.344	565.31861
764.533	483.35999
764.722	549.37978
764.911	491.33727
765.1	516.26185
765.288	452.9577
765.477	454.0356
765.666	386.52098
765.855	425.287
766.044	396.30018
766.232	392.15204
766.421	352.88001
766.61	417.86997
766.799	311.22782
766.987	282.27474
767.176	247.64435
767.365	314.92653
767.553	278.0574
767.742	343.85408
767.931	305.07048
768.119	300.25014
768.308	274.80693
768.497	283.63582
768.685	283.65714
768.874	300.46399
769.062	284.94649
769.251	306.16505
769.439	277.12738
769.628	321.90302
769.816	270.38383
770.005	306.82267
770.193	303.97572
770.382	376.86895
770.57	333.2367
770.758	386.79569
770.947	370.95415
771.135	430.99354
771.323	406.30569
771.512	447.53248
771.7	428.75191
771.888	432.70729
772.077	440.28739
772.265	494.45197
772.453	450.8846
772.642	522.99297
772.83	524.37133
773.018	612.15809
773.206	518.63221
773.394	626.06812
773.583	585.17215
773.771	686.70451
773.959	600.99804
774.147	686.03961
774.335	657.25241
774.523	681.33375
774.711	701.32479
774.899	790.95193
775.087	732.68157
775.275	815.2493
775.463	753.11949
775.651	801.8165
775.839	863.10893
776.027	873.59462
776.215	809.20125
776.403	903.25653
776.591	817.50491
776.779	925.74185
776.967	835.43752
777.155	981.6038
777.343	894.03169
777.531	911.61673
777.718	832.9743
777.906	954.16476
778.094	894.30926
778.282	949.02161
778.47	918.90514
778.657	971.39017
778.845	981.50077
779.033	980.54366
779.22	923.70516
779.408	1074.80748
779.596	982.80145
779.783	1076.01141
779.971	934.24778
780.159	1022.74114
780.346	965.08166
780.534	1119.54466
780.722	932.25294
780.909	1102.46011
781.097	959.13683
781.284	1081.43347
781.472	1025.22864
781.659	1053.47085
781.847	999.9602
782.034	1140.21823
782.222	977.0254
782.409	1038.46914
782.597	979.10661
782.784	1117.05498
782.971	1005.64746
783.159	1045.71675
783.346	971.52497
783.533	1111.31774
783.721	1036.46415
783.908	1154.34316
784.095	983.48318
784.283	1093.09886
784.47	1129.35752
784.657	1110.62785
784.844	1035.77981
785.032	1122.35116
785.219	1098.2239
785.406	1165.96356
785.593	1060.67323
785.78	1105.42654
785.968	1007.93221
786.155	1177.25865
786.342	1079.63037
786.529	1192.0011
786.716	983.03755
786.903	1077.68446
787.09	1052.77874
787.277	1216.50507
787.464	1079.14613
787.651	1098.58397
787.838	1065.64761
788.025	1145.23324
788.212	992.23469
788.399	1140.41492
788.586	1125.59013
788.773	1154.75809
788.96	1075.65166
789.147	1154.14464
789.334	999.71632
789.521	1160.719
789.707	1119.22952
789.894	1162.25918
790.081	1148.75844
790.268	1111.91057
790.455	1120.4416
790.641	1083.28481
790.828	1086.81565
791.015	1122.3125
791.202	1145.40792
791.388	1120.40294
791.575	1070.70021
791.762	1161.17074
791.948	1108.63832
792.135	1141.33849
792.322	973.61037
792.508	1132.24689
792.695	1088.73961
792.881	1179.59192
793.068	1110.57635
793.254	1225.16505
793.441	1075.86194
793.627	1117.52938
793.814	1149.03829
794	1158.91443
794.187	1091.179
794.373	1196.43398
794.56	1094.03624
794.746	1205.81122
794.933	1117.82795
795.119	1272.19172
795.305	1165.19489
795.492	1220.81564
795.678	1129.70812
795.864	1248.48256
796.051	1059.03401
796.237	1198.18778
796.423	1191.79748
796.61	1193.44381
796.796	1180.27548
796.982	1325.05981
797.168	1183.33785
797.355	1286.00271
797.541	1232.35486
797.727	1327.22844
797.913	1140.48119
798.099	1278.45717
798.285	1192.57274
798.471	1264.51372
798.658	1183.45631
798.844	1229.68228
799.03	1180.83837
799.216	1313.13004
799.402	1189.97964
799.588	1328.67235
799.774	1323.12686
799.96	1324.44905
800.146	1168.15105
800.332	1309.50203
800.518	1162.06045
800.704	1330.89174
800.89	1301.19646
801.075	1370.32461
801.261	1224.74869
801.447	1271.14889
801.633	1203.39093
801.819	1348.54428
802.005	1169.55769
802.19	1460.50021
802.376	1307.10904
802.562	1250.18815
802.748	1183.98074
802.934	1330.7512
803.119	1191.15777
803.305	1298.07329
803.491	1277.49152
803.676	1328.08328
803.862	1220.77391
804.048	1288.94906
804.233	1168.54953
804.419	1223.61885
804.605	1095.46471
804.79	1228.30721
804.976	1139.19975
805.161	1167.09226
805.347	1191.09209
805.532	1218.2661
805.718	1142.43715
805.903	1228.38481
806.089	1093.32597
806.274	1150.99574
806.46	1121.72552
806.645	1271.49768
806.831	1156.36268
807.016	1151.2336
807.201	1128.73501
807.387	1206.80051
807.572	1033.1299
807.757	1214.24445
807.943	1048.22904
808.128	1247.20226
808.313	1067.58931
808.499	1125.70564
808.684	1136.25109
808.869	1125.04065
809.054	933.97231
809.24	1240.87887
809.425	1108.50589
809.61	1129.94124
809.795	1117.22247
809.98	1195.87849
810.165	1062.30636
810.35	1124.56786
810.536	1162.10018
810.721	1154.67896
810.906	1098.32587
811.091	1160.08227
811.276	1036.72832
811.461	1152.73866
811.646	1153.78801
811.831	1213.62723
812.016	1155.67126
812.201	1272.71501
812.386	1207.3329
812.571	1266.10643
812.756	1127.3741
812.941	1311.88987
813.125	1205.25868
813.31	1281.92034
813.495	1242.50314
813.68	1263.64237
813.865	1187.93412
814.05	1273.23447
814.234	1241.68267
814.419	1224.29547
814.604	1259.64171
814.789	1315.61136
814.973	1229.59797
815.158	1304.27471
815.343	1260.8885
815.528	1286.73696
815.712	1238.7061
815.897	1333.05527
816.081	1168.94424
816.266	1216.22641
816.451	1189.75733
816.635	1223.62362
816.82	1157.2133
817.004	1283.09507
817.189	1163.46706
817.374	1303.65764
817.558	1177.57441
817.743	1252.44438
817.927	1077.98116
818.111	1315.83458
818.296	1104.83115
818.48	1212.71992
818.665	1146.90013
818.849	1199.45134
819.034	1194.29922
819.218	1164.8349
819.402	1158.14327
819.587	1164.11761
819.771	1089.33612
819.955	1164.06588
820.14	1107.51994
820.324	1176.32558
820.508	1146.93942
820.692	1198.17819
820.877	1019.99538
821.061	1176.04269
821.245	1091.82582
821.429	1043.90309
821.613	1095.76641
821.798	1090.05113
821.982	1021.36466
822.166	1075.74995
822.35	1025.53328
822.534	1104.38959
822.718	985.12193
822.902	1129.55261
823.086	961.96558
823.27	1071.8436
823.454	1016.32546
823.638	1051.21863
823.822	954.29874
824.006	1025.17604
824.19	973.35938
824.374	1109.95966
824.558	945.07014
824.742	978.73202
824.926	902.76276
825.11	1041.8544
825.294	906.46289
825.477	930.60153
825.661	925.39686
825.845	887.47844
826.029	832.49592
826.213	903.06462
826.396	778.81115
826.58	861.46257
826.764	804.39127
826.948	852.09584
827.131	855.26979
827.315	792.55922
827.499	743.41625
827.682	917.74914
827.866	738.74137
828.05	755.02563
828.233	813.31321
828.417	762.73331
828.6	582.44932
828.784	671.56673
828.967	625.57008
829.151	701.87311
829.335	633.7386
829.518	738.31837
829.701	657.20479
829.885	668.10806
830.068	619.45541
830.252	698.5695
830.435	585.40708
830.619	647.96488
830.802	623.38577
830.985	643.66222
831.169	529.82175
831.352	619.2757
831.535	538.91197
831.719	535.1715
831.902	518.9946
832.085	515.03951
832.269	505.05684
832.452	619.9969
832.635	560.49789
832.818	508.40335
833.002	560.22964
833.185	523.71924
833.368	489.6658
833.551	543.32914
833.734	509.84913
833.917	532.04017
834.1	516.45116
834.284	545.06057
834.467	525.42304
834.65	562.61332
834.833	453.30928
835.016	496.47228
835.199	495.74578
835.382	543.20954
835.565	452.09665
835.748	512.01249
835.931	471.32621
836.114	527.48714
836.297	518.4043
836.479	494.12447
836.662	490.92037
836.845	504.28041
837.028	488.68135
837.211	541.17038
837.394	509.99922
837.577	568.55954
837.759	494.45197
837.942	549.62111
838.125	512.1254
838.308	490.52406
838.49	571.73941
838.673	400.13657
838.856	564.58273
839.039	599.65015
839.221	588.9236
839.404	633.78451
839.587	494.05191
839.769	638.36796
839.952	563.96342
840.134	625.5082
840.317	576.33418
840.499	562.93789
840.682	507.86579
840.865	675.36944
841.047	582.25438
841.23	676.42545
841.412	587.30096
841.595	583.51341
841.777	656.05224
841.959	732.62872
842.142	567.16224
842.324	613.52619
842.507	673.58102
842.689	721.85762
842.871	708.53302
843.054	775.45139
843.236	622.27757
843.418	796.73275
843.601	692.57097
843.783	732.83655
843.965	768.53966
844.147	811.92188
844.33	725.07165
844.512	823.08637
844.694	833.09229
844.876	862.46974
845.059	700.99684
845.241	794.16678
845.423	785.24982
845.605	840.57379
845.787	778.27654
845.969	833.35823
846.151	779.27157
846.333	922.30167
846.515	866.83337
846.697	787.75119
846.879	848.8004
847.061	917.74914
847.243	808.19779
847.425	929.86486
847.607	918.61873
847.789	935.27777
847.971	946.33491
848.153	935.73809
848.335	924.41793
848.517	907.81414
848.699	900.80613
848.881	937.79813
849.062	887.00835
849.244	943.14433
849.426	894.97091
849.608	1004.61231
849.789	928.32683
849.971	955.38619
850.153	854.30512
850.335	972.84708
850.516	931.56644
850.698	975.6184
850.88	955.69642
851.061	966.96676
851.243	912.32763
851.425	1012.73042
851.606	879.42124
851.788	937.40306
851.969	910.13485
852.151	963.56861
852.333	823.0815
852.514	896.54349
852.696	873.68701
852.877	901.33058
853.059	876.02495
853.24	847.84144
853.422	795.32682
853.603	882.96285
853.784	804.0592
853.966	859.11602
854.147	794.02617
854.329	869.20556
854.51	814.06392
854.691	775.66612
854.873	789.99247
855.054	835.97208
855.235	711.51518
855.416	788.13028
855.598	675.37573
855.779	795.9729
855.96	702.11157
856.141	784.03676
856.323	620.22422
856.504	665.53897
856.685	663.69011
856.866	601.18733
857.047	591.11763
857.228	647.98828
857.409	584.10749
857.591	609.36695
857.772	527.54514
857.953	576.81235
858.134	538.99122
858.315	523.70015
858.496	528.15223
858.677	486.40653
858.858	473.04314
859.039	519.14776
859.22	465.40344
859.401	474.59192
859.582	450.37399
859.762	448.52843
859.943	356.15918
860.124	445.62213
860.305	380.7629
860.486	380.55078
860.667	371.73661
860.848	403.10064
861.028	397.53187
861.209	371.83345
861.39	393.45772
861.571	317.10026
861.751	310.32052
861.932	295.53
862.113	360.90141
862.293	340.62258
862.474	268.8403
862.655	317.42168
862.835	292.4991
863.016	338.84868
863.197	356.7466
863.377	274.55908
863.558	302.82373
863.738	290.70247
863.919	260.15568
864.099	293.72631
864.28	315.36519
864.46	202.91126
864.641	321.84249
864.821	272.65227
865.002	276.89783
865.182	283.64648
865.363	226.66701
865.543	289.3651
865.723	315.28186
865.904	281.55934
866.084	219.65475
866.264	239.7718
866.445	214.05932
866.625	304.8757
866.805	242.38215
866.986	281.51689
867.166	259.00787
867.346	211.66981
867.526	211.90867
867.707	248.0368
867.887	258.12317
868.067	287.16149
868.247	260.07739
868.427	207.46862
868.607	262.28415
868.788	246.83287
868.968	200.68663
869.148	281.5912
869.328	261.22503
869.508	250.20057
869.688	250.12498
869.868	252.20154
870.048	261.24469
870.228	285.94632
870.408	195.27087
870.588	275.93576
870.768	266.95664
870.948	291.50232
871.128	247.79333
871.307	265.83796
871.487	218.70055
871.667	234.25965
871.847	208.68343
872.027	306.03853
872.207	230.95542
872.387	253.61612
872.566	286.05405
872.746	328.4332
872.926	252.41067
873.106	281.44271
873.285	352.12051
873.465	314.93833
873.645	266.6758
873.824	317.44558
874.004	290.48308
874.184	327.1575
874.363	260.20471
874.543	308.3652
874.723	316.29236
874.902	292.56492
875.082	277.10645
875.261	295.87228
875.441	230.67823
875.62	309.34314
875.8	264.43079
875.979	251.39604
876.159	269.01161
876.338	302.47183
876.518	374.29983
876.697	330.65364
876.876	322.54874
877.056	290.12371
877.235	267.61316
877.415	377.58874
877.594	348.39269
877.773	356.63927
877.953	342.45852
878.132	351.77787
878.311	367.45706
878.49	361.97638
878.67	379.53567
878.849	361.69293
879.028	411.93217
879.207	318.10956
879.387	372.96189
879.566	359.59761
879.745	390.90625
879.924	336.93601
880.103	370.67746
880.282	403.65775
880.461	466.23371
880.64	398.83874
880.819	382.01946
880.998	417.83883
881.178	348.12046
881.357	361.73332
881.536	423.28141
881.715	426.77984
881.893	408.78998
882.072	344.75121
882.251	406.20036
882.43	342.77716
882.609	360.55147
882.788	415.10232
882.967	338.36575
883.146	382.9914
883.325	349.53409
883.503	404.44004
883.682	366.56128
883.861	457.75775
884.04	434.46081
884.219	392.84268
884.397	405.47867
884.576	377.02793
884.755	394.13151
884.933	360.49786
885.112	421.38438
885.291	462.1543
885.469	386.56426
885.648	345.36963
885.827	375.14905
886.005	366.49267
886.184	398.70502
886.363	415.71965
886.541	370.08843
886.72	408.85086
886.898	253.53236
887.077	429.16686
887.255	377.44796
887.434	376.00776
887.612	317.42168
887.791	395.51032
887.969	341.68724
888.147	382.93443
888.326	331.65824
888.504	323.5078
888.682	303.78152
888.861	367.64937
889.039	320.30542
889.218	351.76474
889.396	252.04081
889.574	294.53489
889.752	299.32418
889.931	210.79688
890.109	299.34666
890.287	273.88505
890.465	243.18996
890.643	344.39558
890.822	283.91387
891	296.92256
891.178	220.84018
891.356	276.92905
891.534	250.30479
891.712	225.18151
891.89	216.45259
892.068	254.59131
892.247	205.30602
892.425	290.72447
892.603	201.77617
892.781	276.07127
892.959	188.43526
893.137	242.43725
893.314	200.93009
893.492	242.61234
893.67	189.49158
893.848	219.79547
894.026	150.20407
894.204	183.94441
894.382	154.82525
894.56	181.64728
894.738	211.02851
894.915	160.30279
895.093	158.33114
895.271	167.18173
895.449	141.26749
895.626	156.94477
895.804	152.57458
895.982	170.65809
896.16	138.02679
896.337	147.06853
896.515	206.85996
896.693	145.87258
896.87	145.86146
897.048	116.53736
897.225	158.21633
897.403	136.77826
897.581	166.15465
897.758	90.72822
897.936	92.95873
898.113	172.90981
898.291	108.75927
898.468	56.94481
898.646	120.10283
898.823	103.01697
899.001	82.8929
899.178	124.63898
899.356	137.03992
899.533	82.93427
899.71	60.35555
899.888	133.66106
900.065	70.40037
900.242	102.08886
900.42	80.72983
900.597	106.67087
900.774	84.06943
900.952	132.67972
901.129	111.12642
901.306	113.30259
901.483	115.56881
901.661	50.25372
901.838	98.68316
902.015	54.74144
902.192	55.91011
902.369	81.82449
902.546	61.51615
902.723	51.36216
902.901	113.30259
903.078	123.51424
903.255	144.93271
903.432	33.37098
903.609	48.00858
903.786	64.90842
903.963	29.97936
904.14	73.9546
904.317	64.91592
904.494	35.63256
904.671	58.14739
904.848	98.75148
905.024	96.571
905.201	85.25082
905.378	44.60663
905.555	46.86045
905.732	76.18348
905.909	59.25984
906.086	-47.82344
906.262	51.46538
906.439	54.77934
906.616	42.37237
906.793	33.34398
906.969	120.10283
907.146	16.44128
907.323	29.95514
907.5	78.46822
907.676	72.8396
907.853	128.03264
908.03	64.91342
908.206	51.36807
908.383	91.95096
908.559	68.27562
908.736	87.42917
908.912	10.8024
909.089	83.00461
909.266	41.21563
909.442	68.32295
909.619	68.30452
909.795	102.08886
909.972	69.43331
910.148	5.16766
910.324	107.80492
910.501	77.30925
910.677	124.63898
910.854	114.55889
911.03	68.27825
911.206	80.70805
911.383	44.56906
911.559	75.09818
911.735	24.32047
911.912	41.24098
912.088	78.438
912.264	31.08616
912.44	76.14544
912.617	99.81565
912.793	41.24574
912.969	57.08512
913.145	79.59744
913.321	96.51131
913.498	63.74082
913.674	28.85105
913.85	106.63798
914.026	80.61824
914.202	41.23939
914.378	58.12951
914.554	102.13995
914.73	20.9356
914.906	62.64918
915.082	95.28649
915.258	111.13925
915.434	32.21872
915.61	69.46009
915.786	77.36591
915.962	87.51678
916.138	76.17469
916.314	51.37004
916.49	32.22616
916.665	53.63013
916.841	69.45741
917.017	57.03441
917.193	37.8685
917.369	81.90033
917.545	34.47044
917.72	96.52248
917.896	53.63219
918.072	89.79369
918.247	90.86408
918.423	123.58562
918.599	63.80455
918.775	24.32982
918.95	34.47177
919.126	23.19143
919.301	66.09552
919.477	57.01466
919.653	108.91808
919.828	69.3986
920.004	84.07914
920.179	31.09333
920.355	-43.24389
920.53	29.97358
920.706	94.20875
920.881	64.92842
921.057	40.0821
921.232	81.80876
921.408	114.35689
921.583	59.28035
921.759	90.81166
921.934	91.95096
922.109	108.85519
922.285	87.51678
922.46	41.23305
922.635	42.36585
922.811	88.56459
922.986	86.32382
923.161	72.74445
923.336	52.51618
923.512	61.53982
923.687	51.3997
923.862	55.89504
924.037	22.07023
924.212	62.63715
924.388	97.64843
924.563	107.76751
924.738	26.58535
924.913	122.47438
925.088	62.60833
925.263	71.66343
925.438	25.45169
925.613	66.00647
925.788	75.07791
925.963	79.53926
926.138	90.85708
926.313	54.80259
926.488	112.34245
926.663	66.04453
926.838	64.86608
927.013	100.95214
927.188	81.84656
927.363	76.14837
927.538	70.49441
927.713	84.08885
927.888	41.24415
928.062	64.90094
928.237	39.00287
928.412	41.26006
928.587	78.40184
928.761	16.44382
928.936	72.78632
929.111	81.78049
929.286	36.70914
929.46	55.90364
929.635	64.94094
929.81	43.49059
929.984	124.65816
930.159	51.37597
930.334	41.20616
930.508	98.71728
930.683	36.7686
930.857	19.84225
931.032	11.93305
931.206	73.98601
931.381	80.73918
931.556	67.15252
931.73	89.8076
931.904	54.78145
932.079	44.62894
932.253	-2.72356
932.428	77.29142
932.602	1.78481
932.777	69.37996
932.951	25.46737
933.125	25.46148
933.3	30.0107
933.474	42.39199
933.648	81.89716
933.823	59.28035
933.997	39.03003
934.171	0.65862
934.345	-21.88955
934.52	1.78585
934.694	33.37614
934.868	54.83017
935.042	60.43683
935.217	-14.01183
935.391	70.55127
935.565	39.02398
935.739	41.28239
935.913	-18.51568
936.087	9.67501
936.261	78.49852
936.435	17.5697
936.609	-11.75489
936.783	19.84225
936.957	22.10433
937.131	-7.22958
937.305	24.34577
937.479	42.41988
937.653	-20.78023
937.827	6.29697
938.001	18.7033
938.175	-15.13942
938.349	-8.36705
938.523	7.42923
938.697	24.32515
938.87	-19.65684
939.044	-2.72671
939.218	64.97357
939.392	27.71531
939.566	42.44295
939.739	23.21733
939.913	9.69601
940.087	-6.10841
940.261	1.78647
940.434	27.73349
940.608	-23.01381
940.782	13.08822
940.955	41.30161
941.129	6.29527
941.302	-3.85419
941.476	49.22453
941.65	33.39684
941.823	43.49896
941.997	29.99442
942.17	-24.17321
942.344	24.33076
942.517	-19.63257
942.691	37.89191
942.864	16.46483
943.038	33.36325
943.211	-11.75534
943.385	40.15628
943.558	6.29648
943.731	-50.06682
943.905	5.16865
944.078	-1.5982
944.251	2.91279
944.425	24.36558
944.598	-4.98234
944.771	33.41893
944.945	61.60644
945.118	46.95104
945.291	6.30502
945.464	0.6587
945.638	-8.37094
945.811	44.68246
945.984	5.17005
946.157	-18.52355
946.33	79.6621
946.503	9.68734
946.677	90.95194
946.85	-11.76173
947.023	-33.18106
947.196	26.59765
947.369	-8.37582
947.542	45.80507
947.715	7.42349
947.888	-0.46983
948.061	-1.59956
948.234	-9.49354
948.407	16.4508
948.58	58.17428
948.753	-23.02445
948.926	-7.2441
949.099	-15.14705
949.271	23.23081
949.444	46.90921
949.617	27.76147
949.79	8.55789
949.963	34.54792
950.136	10.8024
950.308	32.23113
950.481	5.17566
950.654	13.06436
950.827	19.84149
950.999	60.47425
951.172	20.95009
951.345	9.68922
951.517	24.36842
951.69	31.13419
951.863	37.8685
952.035	-10.6324
952.208	-1.59795
952.381	36.80288
952.553	35.62981
952.726	36.78714
952.898	-25.27893
953.071	-21.90306
953.243	-6.11669
953.416	20.95493
953.588	-50.10544
953.761	53.71512
953.933	-27.54707
954.106	55.95333
954.278	-53.49899
954.45	-27.55027
954.623	52.56689
954.795	25.49004
954.967	37.87873
955.14	68.37051
955.312	61.59928
955.484	-4.98465
955.657	39.03911
955.829	17.59418
956.001	-25.2887
956.173	-11.74853
956.346	25.49004
956.518	1.78619
956.69	57.06303
956.862	9.68659
957.034	-53.50727
957.207	30.01303
957.379	-27.546
957.551	27.77553
957.723	-20.7706
957.895	10.81911
958.067	9.68322
958.239	-47.82528
958.411	-34.3336
958.583	-8.36544
958.755	-0.47058
958.927	11.93581
959.099	10.81575
959.271	-51.23847
959.443	54.8408
959.615	6.29916
959.787	-18.51783
959.959	-4.98678
960.13	-34.32296
960.302	5.16826
960.474	-6.11551
960.646	-26.41835
960.818	70.60846
960.99	32.25106
961.161	45.77141
961.333	-20.76819
961.505	-24.15265
961.677	4.04227
961.848	9.68547
962.02	-9.50126
962.192	28.88233
962.363	-25.32012
962.535	24.34765
962.707	4.04181
962.878	36.78857
963.05	-15.13473
963.221	28.86778
963.393	-27.53643
963.564	1.78578
963.736	-20.78345
963.907	27.73993
964.079	7.43154
964.25	-1.59783
964.422	6.29333
964.593	15.31359
964.765	1.78764
964.936	-7.23765
965.108	18.70041
965.279	-21.9073
965.45	-3.85478
965.622	50.29637
965.793	17.58804
965.964	23.23622
966.136	8.55128
966.307	49.20348
966.478	-0.47056
966.65	5.17486
966.821	-26.42142
966.992	-6.11479
967.163	-8.36608
967.334	-23.04584
967.506	24.36085
967.677	92.04674
967.848	-36.58265
968.019	2.91572
968.19	27.73349
968.361	34.54522
968.532	-38.81715
968.703	-38.81416
968.874	-29.7782
969.045	-6.11077
969.216	-16.26688
969.387	27.73564
969.558	-60.27564
969.729	58.19676
969.9	8.55194
970.071	49.17298
970.242	2.91549
970.413	28.84994
970.584	19.82693
970.755	4.04337
970.926	32.28488
971.097	-9.49648
971.267	-19.6424
971.438	-2.72745
971.609	26.62546
971.78	-17.3996
971.951	33.39037
972.121	44.67207
972.292	-21.91154
972.463	-32.05742
972.633	40.16562
972.804	-6.11053
972.975	-8.36124
973.145	24.34577
973.316	-6.11124
973.487	24.36463
973.657	14.20404
973.828	6.29745
973.998	14.20183
974.169	25.49696
974.339	18.70835
974.51	6.29867
974.68	-2.72745
974.851	8.56055
975.021	-17.39757
975.192	33.39166
975.362	-0.47027
975.533	-4.98003
975.703	26.60587
975.874	-30.91915
976.044	16.45271
976.214	36.78428
976.385	-28.69139
976.555	73.92328
976.725	10.81366
976.896	51.4834
977.066	37.87581
977.236	61.5945
977.406	14.20514
977.577	20.97194
977.747	39.02398
977.917	10.81785
978.087	39.02096
978.257	8.54569
978.427	22.09919
978.598	75.13885
978.768	31.10531
978.938	2.91369
979.108	14.20018
979.278	-10.62621
979.448	-18.52858
979.618	4.04415
979.788	14.19743
979.958	10.81534
980.128	1.7866
980.298	26.61101
980.468	63.85388
980.638	-12.87415
980.808	-4.98388
980.978	-44.4659
981.148	-24.14799
981.317	1.78667
981.487	15.33016
981.657	28.85662
981.827	-6.11408
981.997	92.03251
982.167	30.0142
982.336	13.08465
982.506	28.89131
982.676	15.31535
982.846	-23.01381
983.015	-18.5164
983.185	-10.62293
983.355	-12.86573
983.524	-47.84189
983.694	-1.59777
983.864	-34.32163
984.033	-55.77281
984.203	-3.85643
984.372	-20.77782
984.542	-16.26751
984.712	-19.66142
984.881	2.91538
985.051	1.78509
985.22	15.32304
985.39	9.6806
985.559	8.5526
985.728	-1.59907
985.898	39.03003
986.067	20.97519
986.237	-16.25432
986.406	2.91561
986.576	26.61823
986.745	32.2623
986.914	37.91542
987.084	24.36085
987.253	10.80823
987.422	5.17325
987.591	22.08383
987.761	9.68697
987.93	7.42722
988.099	-11.76082
988.268	27.72065
988.438	28.8466
988.607	59.33301
988.776	23.22003
988.945	55.96851
989.114	10.81617
989.283	30.02003
989.452	23.22901
989.621	13.06285
989.791	48.04751
989.96	-18.51711
990.129	-53.53425
990.298	34.49835
990.467	11.95341
990.636	58.21704
990.805	-3.85463
990.974	-17.40973
991.142	25.47032
991.311	-15.13006
991.48	-24.16478
991.649	-4.98349
991.818	-8.36414
991.987	-28.66918
992.156	45.82285
992.325	19.83918
992.493	-24.16478
992.662	-207.27736
992.831	15.3266
993	-12.87912
993.168	13.0684
993.337	15.33909
993.506	13.07701
993.675	36.75154
993.843	-38.83216
994.012	10.82206
994.181	-44.47622
994.349	28.87449
994.518	-4.98253
994.686	26.6296
994.855	16.44572
995.024	-28.6725
995.192	-19.65913
995.361	-60.27098
995.529	-17.40027
995.698	-68.18375
995.866	22.09748
996.035	-18.52858
996.203	29.97242
996.371	20.97194
996.54	-14.01672
996.708	5.17005
996.877	36.77857
997.045	14.20569
997.213	-1.59882
997.382	29.9921
997.55	8.54831
997.718	2.91246
997.887	18.70763
998.055	-26.42244
998.223	-2.72524
998.391	-4.98272
998.56	22.11034
998.728	2.91595
998.896	65.03918
999.064	35.64084
999.232	-53.50727
999.401	-21.88955
999.569	28.8689
999.737	15.33849
999.905	27.72814
1000.073	15.34327
1000.241	10.80865
1000.409	61.63036
1000.577	-2.72555
1000.745	29.99674
1000.913	36.74586
1001.081	-35.43015
1001.249	19.83305
1001.417	-21.89039
1001.585	36.74586
1001.753	0.65839
1001.921	33.3697
1002.089	38.99686
1002.256	28.86331
1002.424	42.41166
1002.592	-0.47018
1002.76	27.73242
1002.928	9.68172
1003.096	31.14871
1003.263	-7.24326
1003.431	17.586
1003.599	15.32304
1003.767	-32.08477
1003.934	16.46291
1004.102	-16.27066
1004.27	41.24415
1004.437	-20.78023
1004.605	18.72359
1004.773	-1.59907
1004.94	13.06638
1005.108	-30.91915
1005.275	42.40674
1005.443	8.55822
1005.61	17.57444
1005.778	-6.11313
1005.945	-9.49501
1006.113	23.22542
1006.28	-16.27129
1006.448	2.91527
1006.615	24.34014
1006.783	39.06036
1006.95	8.55491
1007.118	5.17406
1007.285	27.74638
1007.452	7.42837
1007.62	23.23622
1007.787	-11.75171
1007.954	40.16095
1008.122	-19.65456
1008.289	24.35613
1008.456	49.19966
1008.623	45.79974
1008.791	34.51036
1008.958	16.46035
1009.125	-12.88311
1009.292	14.2079
1009.459	44.66515
1009.627	-7.23486
1009.794	-20.77943
1009.961	-24.16011
1010.128	53.72973
1010.295	28.8555
1010.462	24.39598
1010.629	48.07359
1010.796	22.10091
1010.963	6.30404
1011.13	0.65765
1011.297	-20.79394
1011.464	-28.66365
1011.631	-23.03869
1011.798	-7.23877
1011.965	4.04651
1012.132	-21.92515
1012.299	33.37098
1012.466	14.18757
1012.633	1.78591
1012.799	-7.24213
1012.966	-2.72692
1013.133	30.00139
1013.3	-3.85613
1013.467	-81.6728
1013.633	41.30803
1013.8	6.29964
1013.967	7.42808
1014.134	7.42751
1014.3	13.07549
1014.467	-9.49244
1014.634	-17.39555
1014.8	-15.15412
1014.967	71.65517
1015.134	-4.98639
1015.3	10.80781
1015.467	-63.64486
1015.633	-4.98349
1015.8	25.47327
1015.966	-0.47034
1016.133	-7.23877
1016.3	5.16646
1016.466	-4.98562
1016.632	-41.06495
1016.799	28.86554
1016.965	5.16686
1017.132	6.30013
1017.298	33.37744
1017.465	-0.47067
1017.631	-19.65456
1017.797	43.58329
1017.964	54.84505
1018.13	-42.18528
1018.296	43.53592
1018.463	28.87337
1018.629	5.17365
1018.795	-7.23821
1018.961	-26.4296
1019.128	-37.70022
1019.294	1.78543
1019.46	-10.63405
1019.626	9.68884
1019.792	4.04274
1019.959	-8.36738
1020.125	45.84247
1020.291	6.29454
1020.457	11.93535
1020.623	-64.76423
1020.789	44.66861
1020.955	-25.28381
1021.121	35.6436
1021.287	17.57173
1021.453	27.73457
1021.619	13.07905
1021.785	17.57987
1021.951	-4.98543
1022.117	46.90197
1022.283	6.29964
1022.449	18.7265
1022.615	25.50093
1022.781	-51.20289
1022.946	19.85072
1023.112	39.05428
1023.278	-47.84004
1023.444	72.93563
1023.61	-3.85493
1023.775	6.30306
1023.941	44.66342
1024.107	4.04337
1024.273	-6.11313
1024.438	-33.17721
1024.604	-8.35964
1024.77	-18.48089
1024.935	4.0429
1025.101	61.60405
1025.267	1.78633
1025.432	32.24856
1025.598	51.4514
1025.763	-21.91324
1025.929	18.70835
1026.095	26.60895
1026.26	24.36653
1026.426	-14.01509
1026.591	-20.77782
1026.757	24.35519
1026.922	-8.36673
1027.087	-9.49391
1027.253	17.57987
1027.418	11.94412
1027.584	-11.7449
1027.749	24.35802
1027.914	20.95251
1028.08	28.87673
1028.245	19.83152
1028.41	37.87435
1028.576	63.77999
1028.741	-0.46992
1028.906	-52.35351
1029.072	0.65816
1029.237	26.60278
1029.402	-14.01237
1029.567	-29.79773
1029.732	19.85689
1029.898	-27.55987
1030.063	44.69635
1030.228	70.61392
1030.393	34.51304
1030.558	49.19012
1030.723	49.21495
1030.888	6.29891
1031.053	39.05276
1031.218	20.95978
1031.383	-41.0983
1031.548	-27.57594
1031.713	-3.85478
1031.878	-15.13766
1032.043	46.90559
1032.208	36.74728
1032.373	-17.39353
1032.538	11.93581
1032.703	6.29745
1032.868	28.8622
1033.033	39.04063
1033.198	24.37315
1033.362	-7.24045
1033.527	6.30184
1033.692	4.04056
1033.857	29.97936
1034.021	37.92869
1034.186	11.9432
1034.351	-17.38614
1034.516	61.57782
1034.68	10.81659
1034.845	44.64788
1035.01	-17.40838
1035.174	-9.50681
1035.339	14.19963
1035.504	42.41002
1035.668	-4.97697
1035.833	8.55524
1035.997	-27.56736
1036.162	32.27985
1036.326	37.93756
1036.491	-2.72682
1036.655	-11.7508
1036.82	1.78481
1036.984	-41.04914
1037.149	-26.3858
1037.313	0.65763
1037.478	23.22272
1037.642	-15.14059
1037.807	42.39362
1037.971	39.02398
1038.135	17.58531
1038.3	34.50502
1038.464	9.69336
1038.628	11.94829
1038.792	4.04212
1038.957	23.22542
1039.121	29.99674
1039.285	19.83611
1039.449	22.08809
1039.614	-6.11432
1039.778	41.27441
1039.942	17.57038
1040.106	40.1781
1040.27	18.69897
1040.434	-64.73675
1040.599	23.21823
1040.763	-56.90034
1040.927	2.91414
1041.091	20.95978
1041.255	-10.62539
1041.419	33.38907
1041.583	-11.75125
1041.747	-30.90248
1041.911	-17.38145
1042.075	34.49702
1042.239	58.21028
1042.403	-39.94579
1042.567	-80.59326
1042.731	-32.06983
1042.894	-20.76579
1043.058	-6.11884
1043.222	-12.88461
1043.386	-16.24994
1043.55	15.32719
1043.714	25.46836
1043.877	17.58804
1044.041	48.03451
1044.205	10.80906
1044.369	24.3618
1044.532	-24.17414
1044.696	1.78509
1044.86	-4.98311
1045.023	-34.29777
1045.187	18.71053
1045.351	-12.87217
1045.514	40.15006
1045.678	-45.59488
1045.841	40.15628
