Data from 3_57 pm cloudy_Subt2__4__15-59-37-651.txt Node

Date: Tue Oct 07 15:59:37 EDT 2025
User: brett
Spectrometer: USB4F03499
Trigger mode: 4
Integration Time (sec): 1.000000E-2
Scans to average: 1
Electric dark correction enabled: true
Nonlinearity correction enabled: true
Boxcar width: 0
XAxis mode: Wavelengths
Number of Pixels in Spectrum: 3648
>>>>>Begin Spectral Data<<<<<
345.386	-18.11994
345.605	-18.11994
345.824	-18.11994
346.044	-10.1717
346.263	-22.2637
346.482	5.38902
346.701	-22.81368
346.92	33.69882
347.139	6.62191
347.358	-2.89067
347.577	15.57607
347.796	-14.64647
348.015	-11.95752
348.234	20.71448
348.453	-4.23643
348.672	-11.17247
348.891	-14.31071
349.11	-10.94742
349.329	124.88753
349.548	197.21534
349.767	180.27765
349.986	179.03618
350.205	223.87303
350.424	182.24845
350.643	201.49098
350.862	212.47914
351.08	200.04248
351.299	224.41001
351.518	214.10988
351.737	217.69944
351.956	225.39176
352.174	219.57756
352.393	239.22414
352.612	236.73885
352.831	199.64745
353.049	229.84182
353.268	202.13981
353.487	223.42808
353.705	201.67692
353.924	206.69816
354.143	204.8381
354.361	215.01326
354.58	210.63294
354.798	244.45729
355.017	249.95119
355.236	218.89781
355.454	228.40429
355.673	239.90464
355.891	266.52933
356.11	223.78897
356.328	258.66132
356.547	214.34175
356.765	269.06343
356.984	251.50843
357.202	258.9433
357.42	259.71724
357.639	242.15545
357.857	242.28546
358.076	294.00235
358.294	216.10002
358.512	284.9969
358.731	287.36332
358.949	278.31214
359.167	261.70302
359.386	273.7233
359.604	287.68835
359.822	267.09124
360.04	316.61117
360.259	268.83818
360.477	264.44243
360.695	282.39068
360.913	263.45477
361.131	292.44967
361.35	244.91416
361.568	293.59843
361.786	254.63232
362.004	237.93964
362.222	288.62669
362.44	272.8992
362.658	262.96773
362.876	293.10707
363.094	281.65619
363.312	230.62498
363.53	294.13865
363.749	299.59844
363.967	286.75036
364.184	287.42172
364.402	277.73176
364.62	250.61324
364.838	259.63955
365.056	273.03145
365.274	316.98245
365.492	297.14846
365.71	300.88566
365.928	310.53967
366.146	273.84506
366.364	269.39057
366.581	334.8158
366.799	338.89448
367.017	345.71619
367.235	327.14183
367.453	325.16356
367.67	371.71439
367.888	322.76533
368.106	354.95714
368.323	372.16411
368.541	366.00722
368.759	370.16127
368.977	334.30586
369.194	348.51323
369.412	385.91486
369.629	382.61255
369.847	403.47238
370.065	342.05396
370.282	402.31552
370.5	373.73053
370.717	410.91007
370.935	420.57051
371.152	358.33441
371.37	425.99274
371.588	421.13377
371.805	429.8144
372.022	438.64184
372.24	408.58344
372.457	376.1636
372.675	464.03694
372.892	439.05663
373.11	440.67144
373.327	455.92235
373.544	397.61547
373.762	457.708
373.979	482.05245
374.196	493.50706
374.414	467.25822
374.631	468.55774
374.848	478.47544
375.066	446.82401
375.283	410.68625
375.5	462.90075
375.717	473.60294
375.935	438.22632
376.152	459.93556
376.369	449.38127
376.586	459.85132
376.803	473.96405
377.02	457.10992
377.238	469.66878
377.455	464.47478
377.672	461.20515
377.889	506.00978
378.106	476.85624
378.323	508.93723
378.54	477.47542
378.757	518.88
378.974	456.50538
379.191	502.96819
379.408	515.67256
379.625	454.94353
379.842	453.62954
380.059	439.20144
380.276	498.91858
380.493	477.74434
380.71	501.36496
380.927	519.01082
381.143	519.26858
381.36	509.10545
381.577	523.41222
381.794	494.79595
382.011	501.43798
382.228	528.96737
382.444	519.14164
382.661	504.46154
382.878	495.7309
383.095	497.29424
383.311	551.35138
383.528	512.2397
383.745	518.09542
383.962	544.067
384.178	542.47432
384.395	555.6401
384.612	555.57969
384.828	503.36292
385.045	584.12824
385.261	542.10533
385.478	560.37233
385.695	521.02221
385.911	585.03822
386.128	558.53024
386.344	597.87694
386.561	536.72472
386.777	569.88504
386.994	535.23077
387.21	575.17806
387.427	536.9147
387.643	539.94561
387.86	538.36463
388.076	547.74636
388.292	557.65496
388.509	543.38915
388.725	540.91362
388.942	545.02867
389.158	570.83042
389.374	546.93753
389.591	591.79718
389.807	553.37315
390.023	566.98638
390.239	592.92644
390.456	574.8934
390.672	625.37563
390.888	553.29809
391.104	606.79891
391.321	566.85391
391.537	630.3195
391.753	579.45629
391.969	621.0093
392.185	631.63982
392.401	569.99697
392.618	637.92295
392.834	644.30092
393.05	621.07603
393.266	679.90281
393.482	680.60812
393.698	630.02554
393.914	694.85052
394.13	660.73614
394.346	688.29326
394.562	710.83729
394.778	678.75973
394.994	747.28156
395.21	677.93156
395.426	700.07236
395.642	730.78592
395.858	734.8826
396.073	730.42415
396.289	731.81539
396.505	777.51036
396.721	757.25168
396.937	762.28273
397.153	720.88446
397.369	759.96378
397.584	790.52646
397.8	719.12863
398.016	789.21214
398.232	827.71754
398.447	805.49011
398.663	829.45463
398.879	794.19139
399.094	819.88836
399.31	793.93929
399.526	784.17465
399.741	846.43616
399.957	837.50233
400.173	866.12982
400.388	876.48744
400.604	864.70522
400.82	910.63067
401.035	943.2048
401.251	936.56004
401.466	906.42221
401.682	1017.88095
401.897	1009.0314
402.113	953.8428
402.328	1007.15179
402.544	1037.6923
402.759	1000.10439
402.974	1087.76551
403.19	1079.15006
403.405	1177.89453
403.621	1275.14026
403.836	1202.17778
404.051	1226.76006
404.267	1249.98697
404.482	1180.25257
404.697	1291.13573
404.913	1275.37088
405.128	1404.74801
405.343	1343.86713
405.559	1410.8947
405.774	1475.45211
405.989	1500.56221
406.204	1507.19589
406.42	1513.64797
406.635	1575.02642
406.85	1501.77114
407.065	1517.7419
407.28	1665.56647
407.495	1693.48883
407.71	1660.96876
407.926	1640.81804
408.141	1830.28422
408.356	1738.7379
408.571	1818.74355
408.786	1726.8052
409.001	1798.09068
409.216	1837.07851
409.431	1781.15031
409.646	1763.97229
409.861	1818.93569
410.076	1857.91482
410.291	1859.83355
410.506	1932.63298
410.721	1868.3257
410.936	1963.11971
411.15	1896.36995
411.365	1976.15504
411.58	1882.78227
411.795	2010.73746
412.01	2046.76074
412.225	2012.69109
412.439	1982.17073
412.654	2025.00258
412.869	2045.61194
413.084	2083.62425
413.299	2091.02465
413.513	1982.23653
413.728	2044.68254
413.943	2131.48897
414.157	2176.62396
414.372	2146.16738
414.587	2183.26195
414.801	2249.20486
415.016	2247.49117
415.231	2278.93375
415.445	2239.93178
415.66	2300.25395
415.874	2345.69928
416.089	2266.98803
416.304	2474.06446
416.518	2358.58454
416.733	2456.18962
416.947	2370.10179
417.162	2436.222
417.376	2490.26536
417.59	2467.27868
417.805	2454.73458
418.019	2421.12162
418.234	2433.43827
418.448	2403.40466
418.663	2458.70802
418.877	2448.19171
419.091	2646.81669
419.306	2582.34972
419.52	2586.97393
419.734	2532.11828
419.949	2661.68463
420.163	2674.12948
420.377	2544.61637
420.591	2615.79199
420.806	2713.91585
421.02	2607.95697
421.234	2645.30359
421.448	2723.83257
421.663	2671.72574
421.877	2735.11603
422.091	2645.58614
422.305	2590.44601
422.519	2727.12284
422.733	2739.57489
422.947	2715.32636
423.161	2631.72118
423.376	2729.95352
423.59	2854.89483
423.804	2744.01751
424.018	2779.45449
424.232	2760.54892
424.446	2889.37557
424.66	2775.44314
424.874	2844.90386
425.088	2726.43999
425.302	2760.26589
425.515	2911.00325
425.729	2876.56797
425.943	2903.66749
426.157	2966.74182
426.371	2915.41249
426.585	2873.37298
426.799	2930.68627
427.013	3002.76873
427.226	3010.46388
427.44	2829.77678
427.654	2886.88309
427.868	2874.74645
428.081	2916.87486
428.295	2918.00103
428.509	2971.52647
428.723	2925.02636
428.936	3006.7428
429.15	2846.43366
429.364	2936.32737
429.577	2785.91912
429.791	2875.23538
430.005	2961.02691
430.218	3007.94561
430.432	2885.74328
430.645	2873.33183
430.859	2853.85158
431.073	2923.19235
431.286	3066.61708
431.5	3007.41402
431.713	2849.29369
431.927	2950.36574
432.14	2972.40116
432.354	2995.13211
432.567	2952.54145
432.781	3026.24076
432.994	3037.65502
433.207	3042.09982
433.421	3150.11368
433.634	3041.31008
433.848	3107.42123
434.061	3057.23591
434.274	2898.1102
434.488	2937.8761
434.701	2864.72684
434.914	2967.71773
435.127	3015.83501
435.341	3009.28882
435.554	3081.53087
435.767	3216.17992
435.98	3252.17934
436.194	3017.62534
436.407	2979.62332
436.62	3338.53756
436.833	3291.70637
437.046	3184.41385
437.259	3013.42936
437.473	3224.54419
437.686	3343.12945
437.899	3175.46087
438.112	3307.78471
438.325	3189.45052
438.538	3259.04264
438.751	3448.49004
438.964	3382.9776
439.177	3314.14415
439.39	3354.51274
439.603	3529.98364
439.816	3487.85778
440.029	3605.34919
440.242	3716.68084
440.455	3709.0078
440.668	3794.50553
440.881	3536.06289
441.094	3488.49065
441.306	3743.3393
441.519	4003.74965
441.732	3979.13169
441.945	3951.25206
442.158	3803.67725
442.37	3642.192
442.583	3944.06556
442.796	4086.71039
443.009	4039.87845
443.222	3841.87519
443.434	3732.63322
443.647	4024.36818
443.86	4247.04029
444.072	4245.69739
444.285	4155.96249
444.498	4285.27896
444.71	4161.05479
444.923	4208.52444
445.136	4140.65405
445.348	4118.03322
445.561	4192.85102
445.773	4147.55166
445.986	3970.15082
446.198	4313.07444
446.411	4336.91084
446.623	4502.08813
446.836	4465.25505
447.048	4394.91146
447.261	4549.21572
447.473	4506.25847
447.686	4411.29303
447.898	4446.31073
448.11	4699.649
448.323	4789.04705
448.535	4672.11585
448.748	4406.37077
448.96	4478.49457
449.172	4479.7179
449.385	4471.25606
449.597	4545.27251
449.809	4648.70028
450.021	4740.5756
450.234	4743.82941
450.446	4568.96385
450.658	4672.16127
450.87	4638.15581
451.083	4741.84668
451.295	4721.5036
451.507	4847.16768
451.719	4769.49572
451.931	4854.66856
452.143	4745.4003
452.356	4725.45284
452.568	4814.34878
452.78	4852.65566
452.992	4848.95914
453.204	4991.77544
453.416	4911.7761
453.628	4688.19452
453.84	4740.46995
454.052	4839.65568
454.264	5054.48964
454.476	5013.24335
454.688	5241.62304
454.9	5290.49574
455.112	4958.88579
455.324	4843.36203
455.536	5021.2976
455.747	5217.7818
455.959	5125.54165
456.171	5313.00384
456.383	5097.21484
456.595	5021.40091
456.807	4976.44824
457.018	5019.72593
457.23	5102.42477
457.442	5021.73574
457.654	5139.07689
457.865	5122.87594
458.077	4964.59157
458.289	4996.25104
458.501	5066.10041
458.712	5350.45567
458.924	5572.92529
459.136	5270.94452
459.347	5130.46332
459.559	5206.36075
459.77	5473.6327
459.982	5482.79355
460.194	5534.3091
460.405	5211.15289
460.617	5287.16422
460.828	5442.67376
461.04	5588.67139
461.251	5384.32718
461.463	5760.8454
461.674	5719.69082
461.886	5634.20128
462.097	5396.90393
462.309	5617.67146
462.52	5356.81332
462.731	5850.69834
462.943	5534.07731
463.154	5378.55311
463.366	5461.18359
463.577	5629.36813
463.788	5785.58617
464	5929.90045
464.211	5936.98009
464.422	6195.41475
464.634	6009.44158
464.845	5978.2832
465.056	6148.36491
465.267	6169.90562
465.478	5790.58202
465.69	6052.13321
465.901	5990.82133
466.112	6063.77242
466.323	6073.2965
466.534	6247.41664
466.745	6280.13787
466.957	6172.9954
467.168	6346.55579
467.379	6349.66052
467.59	6043.40276
467.801	6049.61945
468.012	6274.14121
468.223	6329.5584
468.434	6236.76413
468.645	6567.77386
468.856	6805.7044
469.067	6496.10072
469.278	6598.21037
469.489	6736.93767
469.7	6464.52227
469.911	6467.63011
470.122	6889.02681
470.333	7011.66173
470.543	6582.52308
470.754	6779.61366
470.965	6759.98795
471.176	6843.903
471.387	7099.2392
471.598	6983.32887
471.808	6890.78342
472.019	7051.93105
472.23	6948.8195
472.441	6894.4769
472.651	7115.96688
472.862	6948.3875
473.073	7397.0059
473.283	7123.66953
473.494	7054.88734
473.705	7093.38044
473.915	7270.6653
474.126	7456.96099
474.337	7411.68993
474.547	7695.23373
474.758	7737.27443
474.968	7658.58624
475.179	7584.77847
475.389	7462.49412
475.6	7748.17861
475.81	7808.23888
476.021	8052.3061
476.231	7995.51673
476.442	8049.86179
476.652	7858.1558
476.863	7934.77333
477.073	7873.15601
477.284	8104.35391
477.494	8060.72204
477.704	8386.52602
477.915	8686.12222
478.125	8278.5144
478.335	8412.44774
478.546	8936.59458
478.756	8687.75489
478.966	8881.38875
479.177	8899.09542
479.387	8950.2939
479.597	8965.71788
479.807	9070.02218
480.018	8895.44947
480.228	9160.16695
480.438	9117.60995
480.648	9338.15808
480.858	9486.04734
481.068	9104.46529
481.279	9347.79884
481.489	9776.83114
481.699	9777.79633
481.909	9637.26536
482.119	10309.25513
482.329	10204.82104
482.539	10160.83903
482.749	10103.19422
482.959	10176.20698
483.169	10608.53519
483.379	10483.88997
483.589	10725.21587
483.799	10580.60628
484.009	10481.33954
484.219	10652.79394
484.429	10960.28743
484.639	10587.53831
484.849	10849.84408
485.059	11184.14915
485.268	11253.77
485.478	11245.76586
485.688	11030.04334
485.898	11017.85736
486.108	11383.08891
486.317	11339.06131
486.527	11446.19652
486.737	11906.2612
486.947	11764.97668
487.156	11958.59815
487.366	11817.37189
487.576	11607.03744
487.785	11626.0173
487.995	11741.83169
488.205	11726.85096
488.414	11928.12504
488.624	11740.48901
488.834	12097.41281
489.043	11776.96453
489.253	11788.38784
489.462	11978.38873
489.672	12343.00712
489.882	12384.65517
490.091	12509.98014
490.301	12369.69281
490.51	12430.34477
490.72	12597.78737
490.929	12659.2931
491.138	12807.79969
491.348	12646.65276
491.557	12894.38218
491.767	12843.53837
491.976	12957.47153
492.185	12791.15097
492.395	12719.32441
492.604	12984.32773
492.813	12968.81801
493.023	13236.1024
493.232	13132.32284
493.441	13068.66347
493.651	13131.69683
493.86	13040.99862
494.069	13269.10414
494.278	13207.13446
494.488	13336.15659
494.697	13505.07439
494.906	13418.86514
495.115	13724.06624
495.324	13494.45993
495.533	13650.62227
495.743	13844.6903
495.952	14137.70143
496.161	13860.15193
496.37	13964.1048
496.579	14166.68491
496.788	14225.35397
496.997	14478.15236
497.206	14073.75611
497.415	14280.53002
497.624	14376.64238
497.833	14513.8132
498.042	14754.29178
498.251	14791.6772
498.46	14803.70198
498.669	14771.67704
498.878	14759.43938
499.087	14918.99351
499.296	15248.07814
499.504	15034.81205
499.713	15025.08173
499.922	15096.33748
500.131	15257.01664
500.34	15440.30294
500.549	15274.59266
500.757	15283.56373
500.966	15418.1815
501.175	15236.01323
501.384	15495.87921
501.592	15434.36117
501.801	15447.21591
502.01	15470.58219
502.218	15547.19066
502.427	15538.08257
502.636	15559.35913
502.844	15876.1188
503.053	15460.5943
503.262	15675.68218
503.47	15590.96637
503.679	15585.35605
503.887	15703.38338
504.096	15848.31659
504.304	15727.99721
504.513	15737.45834
504.721	15691.43323
504.93	15690.48673
505.138	15811.18549
505.347	15738.0888
505.555	15764.47777
505.764	15786.86
505.972	15847.0364
506.18	15801.50999
506.389	15746.03743
506.597	15754.4472
506.806	15895.6569
507.014	16065.19773
507.222	15923.67456
507.431	15817.28841
507.639	15650.60833
507.847	16107.10105
508.055	16078.84792
508.264	16053.58142
508.472	16067.60328
508.68	15833.2002
508.888	16220.88176
509.096	16182.4804
509.305	16043.97929
509.513	15916.77847
509.721	16101.04006
509.929	16126.45738
510.137	16201.55959
510.345	16268.05185
510.553	16441.43928
510.762	16131.15682
510.97	16290.58294
511.178	16452.68804
511.386	16401.51603
511.594	16318.03971
511.802	16418.10037
512.01	16494.8703
512.218	16491.15722
512.426	16650.77881
512.634	16610.56929
512.842	16775.92664
513.049	16689.98506
513.257	16617.78879
513.465	16683.86625
513.673	16778.90636
513.881	16765.90173
514.089	16976.29583
514.297	16869.58147
514.504	16890.89736
514.712	16987.33624
514.92	16916.53814
515.128	17210.85595
515.336	17229.39988
515.543	17037.21463
515.751	17174.84248
515.959	17118.8934
516.166	17019.39862
516.374	17109.54027
516.582	17205.41885
516.789	17045.43089
516.997	17118.73927
517.205	17207.36275
517.412	17258.15201
517.62	17197.7226
517.827	17265.24429
518.035	17260.82037
518.243	17101.36955
518.45	16892.57186
518.658	17029.04572
518.865	17042.91537
519.073	17040.63818
519.28	16897.58063
519.488	17021.01857
519.695	16850.66188
519.902	16830.93669
520.11	16767.76546
520.317	17086.72842
520.525	17001.71066
520.732	16789.36757
520.939	17154.1623
521.147	16790.13297
521.354	16953.0484
521.561	16851.24531
521.769	16867.2673
521.976	16841.34674
522.183	17036.80873
522.391	16707.58518
522.598	17010.18539
522.805	16813.03125
523.012	17019.71665
523.219	16932.31764
523.427	16871.58956
523.634	16953.97079
523.841	17015.0822
524.048	17046.55761
524.255	17134.35385
524.462	17102.10654
524.669	17135.00756
524.877	17202.25766
525.084	17046.5845
525.291	17065.67236
525.498	17281.98104
525.705	17293.42715
525.912	17331.7778
526.119	17276.06806
526.326	17214.04859
526.533	17437.11613
526.74	17530.65105
526.947	17439.69862
527.153	17541.09036
527.36	17515.81667
527.567	17488.98683
527.774	17505.49598
527.981	17631.72309
528.188	17638.18266
528.395	17842.80619
528.602	17539.95426
528.808	17646.81596
529.015	17486.5858
529.222	17702.20814
529.429	17661.47628
529.635	17717.90347
529.842	17703.84382
530.049	17637.92139
530.256	17755.9424
530.462	17956.23476
530.669	17723.10395
530.876	17969.78124
531.082	17813.92629
531.289	17880.47074
531.495	17908.33372
531.702	18180.04876
531.909	18003.77904
532.115	18103.86331
532.322	18089.96342
532.528	17982.64464
532.735	18175.97449
532.941	18170.65234
533.148	18080.34746
533.354	17887.43013
533.561	18089.21609
533.767	18015.75347
533.974	18136.13638
534.18	18205.70446
534.387	18051.83046
534.593	18161.27834
534.799	17854.71686
535.006	18245.60338
535.212	18113.22889
535.418	18175.40409
535.625	18284.01243
535.831	18253.03133
536.037	18023.03928
536.244	18131.25989
536.45	17963.86593
536.656	18100.7545
536.862	18379.89295
537.068	18225.96461
537.275	18345.10881
537.481	18329.10535
537.687	18424.70273
537.893	18467.96198
538.099	18283.1643
538.305	18352.9515
538.512	18471.63832
538.718	18387.25963
538.924	18433.65034
539.13	18336.12545
539.336	18500.45533
539.542	18452.68315
539.748	18451.66068
539.954	18353.89273
540.16	18405.62008
540.366	18586.26543
540.572	18572.53624
540.778	18284.63755
540.984	18441.40043
541.19	18279.36943
541.396	18353.76438
541.602	18541.80077
541.807	18168.36433
542.013	18492.17948
542.219	18178.23717
542.425	18358.01719
542.631	18318.76922
542.837	18254.43669
543.042	18306.62769
543.248	18134.23747
543.454	18121.10361
543.66	18240.80774
543.865	18176.67443
544.071	18048.38739
544.277	18016.70447
544.483	17971.03938
544.688	18155.78953
544.894	18274.39497
545.1	18202.84452
545.305	18321.18185
545.511	18143.21884
545.716	18166.6691
545.922	18287.62207
546.128	18145.67024
546.333	17983.90871
546.539	18179.41077
546.744	18066.5924
546.95	18086.9492
547.155	18108.30567
547.361	18070.62042
547.566	18077.51798
547.772	18073.69852
547.977	18143.39281
548.182	18035.19961
548.388	18136.37651
548.593	18063.91596
548.799	17841.55822
549.004	17978.50501
549.209	18025.55663
549.415	18229.69119
549.62	18002.86744
549.825	18132.84905
550.031	17905.81024
550.236	18000.64635
550.441	18092.83663
550.646	18130.70634
550.852	18160.72596
551.057	18123.16372
551.262	18313.33513
551.467	18059.60147
551.672	18073.19982
551.878	18310.40589
552.083	18073.92418
552.288	18222.42701
552.493	17990.72967
552.698	18251.34547
552.903	18112.54555
553.108	18323.99296
553.313	18272.46323
553.518	18217.8655
553.723	18255.36193
553.928	18336.88065
554.133	18354.38669
554.338	18357.9168
554.543	18341.857
554.748	18331.77436
554.953	18248.7001
555.158	18199.21779
555.363	18409.31113
555.568	18047.84462
555.773	18441.33235
555.978	18432.7714
556.182	18361.03542
556.387	18257.40869
556.592	18364.35989
556.797	18474.27523
557.002	18629.08726
557.206	18437.82375
557.411	18377.15809
557.616	18259.63449
557.821	18602.08914
558.025	18391.84849
558.23	18470.50524
558.435	18616.98777
558.64	18489.98504
558.844	18454.71438
559.049	18146.20719
559.253	18391.5915
559.458	18354.64704
559.663	18424.25507
559.867	18239.86164
560.072	18315.93754
560.276	18451.75817
560.481	18262.11388
560.685	18282.59051
560.89	18350.28194
561.094	18259.80299
561.299	18175.68023
561.503	18159.78482
561.708	18238.04353
561.912	18244.93187
562.117	18024.75656
562.321	18142.91217
562.525	18378.63256
562.73	18181.83121
562.934	18068.43749
563.139	18116.07203
563.343	18264.8284
563.547	18200.66912
563.752	18004.40078
563.956	18244.59613
564.16	18150.29369
564.364	17946.11741
564.569	18026.32939
564.773	18082.53957
564.977	17977.92144
565.181	18065.83946
565.385	17901.29452
565.59	18020.74993
565.794	18070.8646
565.998	18046.87104
566.202	18074.92317
566.406	17972.26446
566.61	18061.63298
566.814	17970.15505
567.018	17863.12745
567.222	17921.57701
567.426	17800.11402
567.63	17839.6055
567.834	17872.98959
568.038	17926.49554
568.242	17761.48738
568.446	17614.9529
568.65	17776.80171
568.854	17740.66869
569.058	17904.53025
569.262	17828.74621
569.466	17773.98947
569.67	17648.25704
569.874	17490.78496
570.078	17835.21989
570.281	17792.19231
570.485	17825.0766
570.689	17614.67874
570.893	17550.57672
571.097	17511.59875
571.3	17332.47371
571.504	17577.20372
571.708	17514.85288
571.912	17503.02515
572.115	17327.67188
572.319	17131.10788
572.523	17292.93763
572.726	17347.76075
572.93	17354.39496
573.133	17505.14358
573.337	17295.00531
573.541	17247.97252
573.744	17230.47476
573.948	17119.15752
574.151	17213.47153
574.355	17175.87883
574.558	17202.97432
574.762	17302.81706
574.965	17125.79526
575.169	17246.83576
575.372	17099.86187
575.576	16962.42207
575.779	17188.63132
575.983	17120.03509
576.186	16974.62992
576.389	17088.57189
576.593	16992.42603
576.796	17115.57595
577	17088.5025
577.203	17151.14572
577.406	17036.02152
577.609	16926.77091
577.813	16963.5349
578.016	17007.66852
578.219	16993.65683
578.423	16929.94047
578.626	16842.5726
578.829	16650.53664
579.032	16839.11748
579.235	16881.20632
579.438	16887.1463
579.642	16825.19315
579.845	16864.73875
580.048	16755.23112
580.251	16650.53939
580.454	16869.94015
580.657	16691.90854
580.86	16690.62011
581.063	16648.3469
581.266	16770.69926
581.469	16686.10783
581.672	16692.45372
581.875	16693.19707
582.078	16690.37577
582.281	16694.05132
582.484	16588.34696
582.687	16864.6711
582.89	16741.86384
583.093	16406.96286
583.296	16611.7432
583.499	16949.93706
583.702	16856.45752
583.904	16546.03335
584.107	16759.59213
584.31	16742.36012
584.513	16596.77893
584.716	16807.2844
584.918	16630.25471
585.121	16980.87977
585.324	16631.81968
585.527	16681.14112
585.729	16660.68707
585.932	16651.1611
586.135	16735.25567
586.337	16671.00897
586.54	16791.1108
586.743	16790.56879
586.945	16649.92586
587.148	16593.28925
587.35	16766.51409
587.553	16775.71733
587.755	16596.56177
587.958	16792.10657
588.161	16446.44351
588.363	16446.19595
588.566	16561.55016
588.768	16829.52956
588.971	16664.83025
589.173	16554.46414
589.375	16468.63873
589.578	16564.66788
589.78	16458.43556
589.983	16451.19501
590.185	16591.71107
590.387	16198.96745
590.59	16164.2221
590.792	16025.49823
590.994	15962.47497
591.197	16023.39488
591.399	15989.77167
591.601	15920.05954
591.803	15687.27699
592.006	15551.79332
592.208	15609.35024
592.41	15572.43713
592.612	15400.07017
592.815	15367.73934
593.017	15233.52044
593.219	15217.68196
593.421	15103.55592
593.623	15282.66851
593.825	15171.4853
594.027	15084.64837
594.229	15044.58861
594.432	15053.45217
594.634	15062.14811
594.836	14899.22458
595.038	14904.19968
595.24	14808.72768
595.442	14809.94857
595.644	14837.00739
595.846	14722.43142
596.048	14756.66245
596.249	14607.11734
596.451	14508.05661
596.653	14666.47979
596.855	14299.63052
597.057	14416.22799
597.259	14378.79878
597.461	14466.02163
597.663	14229.30459
597.864	14399.72662
598.066	14344.01778
598.268	14316.48697
598.47	14154.23983
598.671	14256.35175
598.873	14175.18131
599.075	14149.82647
599.277	14269.79994
599.478	14141.32011
599.68	14298.08469
599.882	14186.61999
600.083	14287.73287
600.285	14256.83271
600.487	14188.48287
600.688	14292.57299
600.89	14398.40461
601.091	14336.79918
601.293	14369.35396
601.494	14343.33929
601.696	14410.91202
601.898	14464.28682
602.099	14503.14886
602.301	14624.4273
602.502	14649.84013
602.703	14691.41928
602.905	14524.90715
603.106	14675.95629
603.308	14631.06925
603.509	14656.75401
603.711	14656.50938
603.912	14669.77554
604.113	14663.27153
604.315	14808.13751
604.516	14733.34649
604.717	14755.09915
604.919	14693.73683
605.12	14654.168
605.321	15010.97843
605.522	15005.53336
605.724	14836.56263
605.925	14800.48727
606.126	15067.20035
606.327	15297.84845
606.528	15189.56345
606.729	15033.88486
606.931	15189.49988
607.132	15167.41366
607.333	15052.73164
607.534	15155.78134
607.735	15228.96325
607.936	15190.85988
608.137	15263.19223
608.338	15233.26817
608.539	15233.81597
608.74	15269.95811
608.941	15259.66278
609.142	15236.89454
609.343	15394.88897
609.544	15380.8452
609.745	15232.6961
609.946	15478.1999
610.147	15455.61072
610.348	15202.5299
610.549	15330.73583
610.75	15283.99871
610.95	15177.70935
611.151	15353.16634
611.352	15324.73875
611.553	15468.98491
611.754	15388.30123
611.954	15464.42122
612.155	15324.4166
612.356	15342.60002
612.557	15323.32344
612.757	15474.17093
612.958	15190.13119
613.159	15370.76104
613.359	15297.90176
613.56	15277.07535
613.761	15274.5812
613.961	15344.37575
614.162	15130.9409
614.362	15145.30932
614.563	15424.40305
614.764	15248.00609
614.964	15288.80379
615.165	15183.10843
615.365	15455.0967
615.566	15205.00078
615.766	15305.85324
615.967	15322.797
616.167	15030.96372
616.368	15285.29929
616.568	15179.559
616.768	15037.20188
616.969	15202.01022
617.169	15186.28582
617.37	14991.6174
617.57	15116.68984
617.77	15137.52356
617.971	15043.66391
618.171	14892.93651
618.371	15058.683
618.571	15001.0478
618.772	15017.21645
618.972	14868.08221
619.172	14957.39354
619.372	14799.94813
619.573	14862.61754
619.773	14858.72124
619.973	14803.03059
620.173	14849.02516
620.373	14807.12055
620.573	14666.66864
620.774	14971.18573
620.974	14787.18134
621.174	14684.71575
621.374	14632.8895
621.574	14850.07586
621.774	14690.94867
621.974	14822.39102
622.174	14635.93156
622.374	14711.40581
622.574	14638.53458
622.774	14716.46044
622.974	14567.63476
623.174	14789.5206
623.374	14686.15793
623.574	14880.76854
623.774	14648.94003
623.973	14671.07712
624.173	14751.63735
624.373	14553.86505
624.573	14655.67321
624.773	14537.1831
624.973	14619.57521
625.172	14521.65492
625.372	14623.9187
625.572	14553.43516
625.772	14524.8882
625.971	14523.84356
626.171	14570.07386
626.371	14588.48266
626.57	14311.15039
626.77	14690.31307
626.97	14454.46559
627.169	14391.05272
627.369	14501.8345
627.569	14606.90243
627.768	14364.32371
627.968	14304.5431
628.167	14397.59247
628.367	14416.15321
628.566	14472.83021
628.766	14367.12885
628.965	14475.53405
629.165	14363.01793
629.364	14296.65079
629.564	14192.58382
629.763	14120.33365
629.963	14198.77751
630.162	14295.41392
630.362	14127.17452
630.561	14132.37644
630.76	14137.40354
630.96	14065.38471
631.159	14123.86528
631.358	14063.15121
631.558	14019.58763
631.757	13944.6606
631.956	14013.10412
632.155	13792.81739
632.355	13737.22777
632.554	13851.04816
632.753	13792.13026
632.952	13747.07452
633.152	13734.99773
633.351	13775.49723
633.55	13813.97559
633.749	13725.38386
633.948	13783.28752
634.147	13726.43791
634.346	13699.80677
634.545	13542.2957
634.744	13547.8232
634.944	13476.32993
635.143	13634.67196
635.342	13546.63822
635.541	13546.99867
635.74	13495.30867
635.939	13461.78817
636.138	13449.18168
636.336	13379.12162
636.535	13476.97069
636.734	13518.11753
636.933	13656.4639
637.132	13394.14517
637.331	13375.69651
637.53	13450.68448
637.729	13359.82786
637.928	13675.12576
638.126	13615.38732
638.325	13415.55453
638.524	13373.56836
638.723	13303.44828
638.921	13334.7
639.12	13295.02781
639.319	13442.1311
639.518	13352.20862
639.716	13336.22754
639.915	13366.89605
640.114	13597.3435
640.312	13494.35046
640.511	13406.57026
640.71	13459.71014
640.908	13300.49298
641.107	13553.65464
641.305	13288.44405
641.504	13445.80465
641.702	13214.92714
641.901	13412.97814
642.099	13381.80754
642.298	13401.19755
642.496	13396.49991
642.695	13247.49895
642.893	13328.0059
643.092	13310.33972
643.29	13331.27354
643.489	13215.05962
643.687	13309.28748
643.885	13144.76861
644.084	13223.00729
644.282	13322.1394
644.48	13403.01191
644.679	13289.36216
644.877	13120.1472
645.075	13171.85466
645.274	12989.14092
645.472	13089.01013
645.67	13173.66957
645.868	13093.35759
646.067	13169.79594
646.265	13139.35412
646.463	13116.49742
646.661	13031.24001
646.859	12993.25804
647.057	13155.84912
647.256	13165.65379
647.454	12927.77257
647.652	13229.85696
647.85	12953.06167
648.048	13005.07595
648.246	12881.24503
648.444	12881.62565
648.642	12695.38317
648.84	12931.91271
649.038	12705.51849
649.236	12588.59023
649.434	12675.7811
649.632	12602.63999
649.83	12736.46368
650.028	12638.21422
650.226	12500.80282
650.423	12411.16886
650.621	12548.70258
650.819	12295.20671
651.017	12269.0432
651.215	12271.11948
651.413	12191.98519
651.61	12162.95082
651.808	12083.48981
652.006	12251.12821
652.204	12136.57916
652.401	12083.96348
652.599	11943.43825
652.797	12052.94622
652.995	11987.15556
653.192	11874.53798
653.39	11916.45367
653.588	11915.60526
653.785	11774.47911
653.983	11853.50913
654.18	11937.73528
654.378	11790.80313
654.576	11835.63092
654.773	11674.28231
654.971	11792.90138
655.168	11526.70893
655.366	11629.46296
655.563	11554.90628
655.761	11722.11899
655.958	11611.11543
656.156	11605.34685
656.353	11644.7373
656.55	11507.74815
656.748	11554.96085
656.945	11512.81431
657.143	11282.15374
657.34	11454.90665
657.537	11439.32754
657.735	11333.74899
657.932	11282.74812
658.129	11347.23609
658.326	11219.274
658.524	11484.4341
658.721	11320.02015
658.918	11150.62991
659.115	11079.16608
659.313	11126.49515
659.51	10992.48551
659.707	11177.78696
659.904	11002.77025
660.101	11001.46631
660.298	10984.37682
660.496	11010.80686
660.693	10910.73417
660.89	10997.17284
661.087	10937.26336
661.284	10956.71888
661.481	10809.01415
661.678	11013.84052
661.875	10939.69825
662.072	11039.97734
662.269	10904.6231
662.466	10935.52252
662.663	10935.63442
662.86	10967.3784
663.057	10988.70403
663.254	11149.87016
663.45	10959.45728
663.647	11026.49643
663.844	11024.29442
664.041	11064.9665
664.238	11203.33135
664.435	11135.90011
664.631	11011.73975
664.828	11118.86754
665.025	11069.97843
665.222	10969.02732
665.419	11132.17264
665.615	11209.4382
665.812	11046.34413
666.009	11014.97789
666.205	11290.96999
666.402	11059.62129
666.599	11109.06283
666.795	11176.79258
666.992	11123.20213
667.188	11194.96843
667.385	11172.43968
667.582	11297.3605
667.778	11216.52361
667.975	11220.69383
668.171	11243.22808
668.368	11183.20605
668.564	11287.24894
668.761	11278.49533
668.957	11338.93266
669.154	11389.63333
669.35	11296.50242
669.547	11375.16049
669.743	11300.30036
669.939	11444.43958
670.136	11353.76222
670.332	11302.5558
670.528	11246.90289
670.725	11417.0871
670.921	11397.85505
671.117	11342.6951
671.314	11310.74841
671.51	11247.30895
671.706	11398.02564
671.902	11233.05645
672.099	11391.42897
672.295	11297.36652
672.491	11292.97849
672.687	11146.27826
672.883	11230.3509
673.08	11414.168
673.276	11300.37194
673.472	11243.70731
673.668	11331.33423
673.864	11181.52719
674.06	11317.79248
674.256	11221.88468
674.452	11038.60613
674.648	11098.01976
674.844	11211.25204
675.04	11283.01948
675.236	11172.88721
675.432	11103.16149
675.628	11150.4061
675.824	10972.85561
676.02	11046.5326
676.216	10978.26837
676.412	11143.92786
676.608	11018.94615
676.804	11020.45984
676.999	11135.3234
677.195	10956.17662
677.391	11117.49082
677.587	11009.71142
677.783	10895.26278
677.978	10938.39137
678.174	10935.74632
678.37	10977.25479
678.566	10903.85606
678.761	10847.00541
678.957	10893.70216
679.153	10856.25222
679.348	10988.19901
679.544	10930.76403
679.74	10812.74137
679.935	10704.04909
680.131	10857.84775
680.327	10933.85019
680.522	10746.15706
680.718	10756.72792
680.913	10775.49406
681.109	10691.87436
681.304	10666.04414
681.5	10693.65421
681.695	10645.79733
681.891	10645.36639
682.086	10672.57637
682.282	10718.0997
682.477	10597.30415
682.672	10631.43774
682.868	10629.36548
683.063	10755.56171
683.259	10650.29094
683.454	10579.12801
683.649	10598.93409
683.845	10537.61645
684.04	10712.94121
684.235	10459.3183
684.43	10528.11404
684.626	10501.65833
684.821	10565.25973
685.016	10461.57128
685.211	10426.38962
685.407	10487.15537
685.602	10552.41369
685.797	10439.07032
685.992	10311.02208
686.187	10500.66865
686.382	10573.65693
686.577	10398.975
686.773	10449.14492
686.968	10403.71546
687.163	10404.7884
687.358	10284.39421
687.553	10365.77385
687.748	10413.32737
687.943	10359.81883
688.138	10173.64476
688.333	10234.17082
688.528	10166.22308
688.723	10198.11197
688.918	10012.00017
689.112	9930.04143
689.307	9939.87933
689.502	9972.08373
689.697	9776.60733
689.892	9817.2932
690.087	9706.11877
690.282	9784.41321
690.476	9609.2839
690.671	9556.26729
690.866	9467.12707
691.061	9569.0056
691.255	9475.80758
691.45	9426.5531
691.645	9441.11228
691.84	9301.28773
692.034	9192.79197
692.229	9204.18353
692.424	9098.84781
692.618	9207.38193
692.813	9133.98388
693.007	9123.1299
693.202	9051.08739
693.397	9064.18071
693.591	8917.52061
693.786	8959.47219
693.98	8907.53764
694.175	8920.00581
694.369	8801.01006
694.564	8866.63188
694.758	8806.15995
694.953	8765.80788
695.147	8818.22804
695.342	8644.78142
695.536	8618.72596
695.73	8555.73771
695.925	8416.60003
696.119	8452.60988
696.313	8324.99399
696.508	8520.93213
696.702	8394.67416
696.896	8312.00466
697.091	8311.68188
697.285	8446.28886
697.479	8363.51496
697.673	8199.21076
697.868	8336.48032
698.062	8372.49559
698.256	8311.28362
698.45	8197.91652
698.644	8272.52813
698.839	8283.52397
699.033	8198.03868
699.227	8229.896
699.421	8141.44954
699.615	8111.24213
699.809	8174.7346
700.003	8381.81899
700.197	8242.30315
700.391	8331.066
700.585	8307.84833
700.779	8141.32662
700.973	8210.60032
701.167	8250.80511
701.361	8248.76123
701.555	8253.63543
701.749	8179.90192
701.943	8341.38348
702.137	8267.51678
702.331	8182.79086
702.525	8169.86209
702.718	8230.94467
702.912	8287.81347
703.106	8229.10418
703.3	8198.14028
703.494	8273.42809
703.687	8168.614
703.881	8082.02977
704.075	8190.29815
704.269	8194.64233
704.462	8147.61396
704.656	8360.46763
704.85	8180.43113
705.043	8255.26036
705.237	8149.26168
705.431	8180.78736
705.624	8166.44377
705.818	8143.78844
706.012	8302.8184
706.205	8205.98479
706.399	8248.40503
706.592	8318.70597
706.786	8210.97693
706.979	8284.83888
707.173	8187.15827
707.366	8219.65317
707.56	8215.65656
707.753	8245.09239
707.947	8244.39763
708.14	8205.38378
708.333	8202.80093
708.527	8088.7573
708.72	8203.97008
708.914	8345.21007
709.107	8263.47971
709.3	8171.8863
709.494	8246.33173
709.687	8137.13532
709.88	8227.21018
710.073	8327.0026
710.267	8250.37805
710.46	8198.93391
710.653	8328.70898
710.846	8286.5669
711.04	8415.2003
711.233	8353.73139
711.426	8398.98915
711.619	8313.27713
711.812	8417.01163
712.005	8391.41469
712.198	8288.37298
712.391	8432.84631
712.585	8290.122
712.778	8256.88917
712.971	8420.79539
713.164	8537.93674
713.357	8469.23507
713.55	8391.33886
713.743	8438.4325
713.936	8536.486
714.129	8421.3688
714.322	8455.4881
714.514	8468.01247
714.707	8459.82631
714.9	8458.48846
715.093	8503.36306
715.286	8541.8677
715.479	8531.57838
715.672	8507.31588
715.864	8476.14521
716.057	8566.71963
716.25	8562.80526
716.443	8465.95583
716.636	8394.77217
716.828	8609.97167
717.021	8454.19395
717.214	8392.35883
717.406	8458.63788
717.599	8561.23815
717.792	8544.42564
717.984	8485.14263
718.177	8570.88061
718.37	8329.00438
718.562	8371.90845
718.755	8332.85828
718.947	8314.86479
719.14	8148.22512
719.333	8160.78216
719.525	7990.74168
719.718	7979.38967
719.91	7997.62331
720.103	7874.23507
720.295	7710.57655
720.487	7705.98811
720.68	7534.96621
720.872	7447.58828
721.065	7374.93054
721.257	7384.43706
721.449	7296.63641
721.642	7201.51501
721.834	7096.50489
722.026	6996.63257
722.219	6899.93228
722.411	6789.45485
722.603	6745.46781
722.796	6653.50295
722.988	6671.75928
723.18	6667.40671
723.372	6533.2016
723.565	6431.85399
723.757	6460.28253
723.949	6446.42515
724.141	6365.94317
724.333	6351.98479
724.525	6148.35853
724.717	6328.74483
724.91	6240.85928
725.102	6136.88721
725.294	6160.27822
725.486	6033.15792
725.678	6054.28945
725.87	5989.84611
726.062	5992.98041
726.254	5957.73089
726.446	5875.28371
726.638	5961.96462
726.83	5781.04711
727.022	5761.939
727.213	5806.70995
727.405	5741.72581
727.597	5760.62762
727.789	5766.52207
727.981	5704.36461
728.173	5764.49737
728.365	5618.9882
728.556	5726.47761
728.748	5498.86634
728.94	5596.42835
729.132	5601.35834
729.324	5618.11253
729.515	5540.62865
729.707	5462.97435
729.899	5576.54298
730.09	5583.7315
730.282	5582.20629
730.474	5539.56368
730.665	5566.73909
730.857	5535.6709
731.049	5563.94794
731.24	5561.19279
731.432	5606.13796
731.623	5562.41155
731.815	5546.40014
732.006	5525.19084
732.198	5502.44681
732.389	5549.34639
732.581	5602.05608
732.772	5533.17217
732.964	5511.75733
733.155	5480.03438
733.347	5668.83437
733.538	5461.95115
733.729	5440.46587
733.921	5537.94883
734.112	5469.54889
734.304	5619.8715
734.495	5546.28091
734.686	5598.15839
734.877	5627.93346
735.069	5654.02753
735.26	5703.31424
735.451	5720.10764
735.643	5719.96621
735.834	5767.9915
736.025	5840.04805
736.216	5907.0388
736.407	5879.10406
736.599	5971.41968
736.79	5939.13455
736.981	5981.50006
737.172	5983.15001
737.363	6066.05321
737.554	6064.00596
737.745	6100.00567
737.936	6181.87151
738.127	6233.28589
738.318	6219.04012
738.509	6304.01686
738.7	6206.05867
738.891	6429.20826
739.082	6320.32581
739.273	6400.32551
739.464	6514.32433
739.655	6505.49525
739.846	6535.75513
740.037	6584.33386
740.228	6552.71578
740.419	6753.92468
740.609	6653.40502
740.8	6817.93285
740.991	6847.01189
741.182	6743.3998
741.373	6829.08648
741.563	6922.07424
741.754	6921.05782
741.945	6874.77349
742.136	6975.04607
742.326	6978.3396
742.517	6948.74164
742.708	7058.0203
742.898	7084.61479
743.089	7125.23589
743.28	7217.12298
743.47	7181.53406
743.661	7160.90627
743.851	7089.49187
744.042	7247.40407
744.233	7157.68859
744.423	7233.38615
744.614	7252.66737
744.804	7341.426
744.995	7324.53335
745.185	7163.25707
745.376	7350.88517
745.566	7337.45962
745.756	7445.31885
745.947	7346.9593
746.137	7479.50318
746.328	7521.29065
746.518	7527.50254
746.708	7454.87537
746.899	7598.24756
747.089	7618.87774
747.279	7619.26999
747.47	7602.46303
747.66	7686.60098
747.85	7686.09312
748.04	7621.17196
748.231	7608.89866
748.421	7705.35672
748.611	7486.82753
748.801	7777.82321
748.991	7751.6104
749.182	7687.19198
749.372	7721.09037
749.562	7711.63866
749.752	7763.7647
749.942	7689.1686
750.132	7870.772
750.322	7866.65603
750.512	7781.45865
750.702	7796.80315
750.892	7748.88738
751.082	7786.47199
751.272	7711.58083
751.462	7776.6306
751.652	7778.84653
751.842	7735.84119
752.032	7843.95766
752.222	7760.11975
752.412	7760.65592
752.602	7758.43392
752.792	7814.55189
752.981	7815.49203
753.171	7698.92036
753.361	7755.25239
753.551	7757.0344
753.741	7834.99465
753.93	7827.535
754.12	7698.7044
754.31	7720.32784
754.5	7721.12817
754.689	7769.20944
754.879	7575.63978
755.069	7701.97996
755.258	7762.76325
755.448	7646.20196
755.638	7674.12305
755.827	7707.70307
756.017	7775.92425
756.206	7701.27258
756.396	7774.58116
756.586	7725.53434
756.775	7612.08945
756.965	7565.89856
757.154	7674.19504
757.344	7601.77672
757.533	7543.36384
757.723	7658.41753
757.912	7560.05985
758.101	7438.72974
758.291	7552.61535
758.48	7569.72566
758.67	7562.03745
758.859	7550.49127
759.048	7480.18628
759.238	7515.05747
759.427	7621.63838
759.616	7636.57859
759.806	7578.69764
759.995	7477.2902
760.184	7677.10366
760.373	7462.47098
760.563	7409.16936
760.752	7458.2251
760.941	7555.82574
761.13	7267.3249
761.319	7309.90313
761.509	7221.70497
761.698	7019.73586
761.887	7020.43991
762.076	7018.31306
762.265	6808.86844
762.454	6817.48989
762.643	6655.7712
762.832	6526.88917
763.021	6528.6614
763.21	6351.27866
763.399	6201.71655
763.588	6272.95298
763.777	6033.52071
763.966	5963.59825
764.155	5732.01269
764.344	5833.80558
764.533	5672.91153
764.722	5501.90957
764.911	5345.42018
765.1	5385.78203
765.288	5213.72902
765.477	5205.47105
765.666	4962.57857
765.855	4909.98552
766.044	4761.20765
766.232	4810.42002
766.421	4679.09651
766.61	4568.8393
766.799	4561.89785
766.987	4357.00302
767.176	4365.61312
767.365	4220.58409
767.553	4193.57621
767.742	4199.38659
767.931	4242.16733
768.119	4135.32628
768.308	3950.46883
768.497	4075.96431
768.685	4041.54534
768.874	3947.6123
769.062	3941.19309
769.251	3969.07197
769.439	3898.81946
769.628	3954.36005
769.816	3907.50065
770.005	3972.87296
770.193	4065.01434
770.382	4102.05283
770.57	4083.55126
770.758	4095.27702
770.947	4223.24325
771.135	4251.0726
771.323	4325.54423
771.512	4399.07111
771.7	4340.13567
771.888	4559.8708
772.077	4582.80533
772.265	4570.60145
772.453	4678.9764
772.642	4624.74717
772.83	4776.33811
773.018	4830.02215
773.206	4809.96847
773.394	4855.67973
773.583	4862.06484
773.771	5167.45807
773.959	5165.51436
774.147	5208.82239
774.335	5283.01203
774.523	5247.45222
774.711	5377.57828
774.899	5416.08104
775.087	5455.57296
775.275	5560.39152
775.463	5637.31166
775.651	5724.29981
775.839	5634.50261
776.027	5677.79985
776.215	5885.90308
776.403	5767.25574
776.591	5873.35464
776.779	5946.48403
776.967	5893.48486
777.155	5972.669
777.343	5978.14264
777.531	6063.93462
777.718	6099.40505
777.906	6162.01201
778.094	6163.88446
778.282	6167.62118
778.47	6177.12806
778.657	6189.96395
778.845	6141.80474
779.033	6173.84504
779.22	6260.86045
779.408	6231.03575
779.596	6202.05222
779.783	6262.39474
779.971	6175.49791
780.159	6233.456
780.346	6251.27614
780.534	6205.62184
780.722	6200.56312
780.909	6272.12687
781.097	6208.45321
781.284	6157.1126
781.472	6198.48282
781.659	6268.51194
781.847	6176.68053
782.034	6194.2398
782.222	6176.82483
782.409	6152.10505
782.597	6251.49999
782.784	6149.3022
782.971	6169.73939
783.159	6284.59126
783.346	6217.50649
783.533	6155.25
783.721	6165.56297
783.908	6033.64278
784.095	6111.1234
784.283	5999.14059
784.47	6106.598
784.657	5995.56883
784.844	6085.31813
785.032	6082.98185
785.219	5988.46424
785.406	6072.27741
785.593	6031.88872
785.78	6053.99432
785.968	5967.87651
786.155	6054.32136
786.342	5986.61683
786.529	5996.14793
786.716	6011.14425
786.903	5949.38489
787.09	5991.12126
787.277	5944.53543
787.464	5963.31705
787.651	5942.50258
787.838	5864.48862
788.025	5873.9827
788.212	5853.30749
788.399	5801.51534
788.586	5889.75924
788.773	5911.09448
788.96	5751.27322
789.147	5865.37858
789.334	5617.48051
789.521	5742.90318
789.707	5709.33421
789.894	5766.90427
790.081	5660.128
790.268	5680.18555
790.455	5718.25642
790.641	5709.59585
790.828	5708.41539
791.015	5610.30001
791.202	5621.16036
791.388	5594.01102
791.575	5514.34717
791.762	5450.36462
791.948	5468.44817
792.135	5553.32647
792.322	5467.83491
792.508	5611.47359
792.695	5389.02772
792.881	5385.59086
793.068	5434.68681
793.254	5274.40629
793.441	5341.93628
793.627	5232.9196
793.814	5278.63776
794	5329.4118
794.187	5239.50938
794.373	5280.35135
794.56	5222.43687
794.746	5201.70268
794.933	5293.7692
795.119	5143.51396
795.305	5203.45705
795.492	5129.45615
795.678	5100.63272
795.864	5151.7991
796.051	4981.70622
796.237	5074.48718
796.423	4906.9634
796.61	5047.67709
796.796	4986.4015
796.982	5157.37836
797.168	5013.46303
797.355	5037.5005
797.541	4996.359
797.727	5035.15593
797.913	4881.99329
798.099	4989.30667
798.285	4884.68158
798.471	4946.80485
798.658	4809.19182
798.844	4916.14008
799.03	4892.51994
799.216	4857.92034
799.402	4903.71589
799.588	4854.78904
799.774	4920.61799
799.96	4886.70637
800.146	4864.08224
800.332	4806.17702
800.518	4892.18549
800.704	4886.92087
800.89	4913.67753
801.075	4741.4901
801.261	4811.66658
801.447	4786.99906
801.633	4826.10949
801.819	4794.61963
802.005	4850.31624
802.19	4906.51475
802.376	4800.66727
802.562	4815.56606
802.748	4760.07781
802.934	4845.92894
803.119	4789.81319
803.305	4784.98826
803.491	4844.80958
803.676	4774.89848
803.862	4759.32076
804.048	4746.72823
804.233	4834.39939
804.419	4718.14829
804.605	4776.56355
804.79	4678.43345
804.976	4724.67207
805.161	4707.93523
805.347	4573.69276
805.532	4648.23021
805.718	4739.57256
805.903	4658.65177
806.089	4649.68211
806.274	4697.72312
806.46	4664.26311
806.645	4555.38679
806.831	4659.89758
807.016	4605.89107
807.201	4649.52071
807.387	4626.053
807.572	4578.28845
807.757	4580.79293
807.943	4627.5964
808.128	4588.10501
808.313	4718.40202
808.499	4618.96321
808.684	4607.27861
808.869	4604.8134
809.054	4599.39645
809.24	4701.98374
809.425	4558.09425
809.61	4611.81682
809.795	4604.01093
809.98	4511.74489
810.165	4710.64857
810.35	4646.44926
810.536	4580.76652
810.721	4591.56438
810.906	4409.77077
811.091	4604.12282
811.276	4466.42282
811.461	4640.46347
811.646	4469.51362
811.831	4579.8673
812.016	4475.08206
812.201	4558.94526
812.386	4436.07897
812.571	4449.13582
812.756	4446.29907
812.941	4490.90778
813.125	4389.44745
813.31	4390.88912
813.495	4399.34497
813.68	4413.89747
813.865	4400.49579
814.05	4382.53107
814.234	4336.6382
814.419	4324.11153
814.604	4316.85492
814.789	4249.942
814.973	4325.85835
815.158	4286.90123
815.343	4281.72305
815.528	4161.69903
815.712	4167.02301
815.897	4138.17255
816.081	4101.71712
816.266	4002.00154
816.451	4059.51355
816.635	4025.46497
816.82	3991.47085
817.004	3976.93352
817.189	3893.49459
817.374	3749.62232
817.558	3746.66179
817.743	3694.87464
817.927	3741.54579
818.111	3686.09296
818.296	3552.00899
818.48	3591.63756
818.665	3566.51452
818.849	3495.44335
819.034	3477.66143
819.218	3465.63876
819.402	3449.52628
819.587	3342.02915
819.771	3276.50497
819.955	3209.59982
820.14	3220.29015
820.324	3123.96699
820.508	3048.96655
820.692	3126.80895
820.877	3055.01618
821.061	3097.15962
821.245	2926.37227
821.429	2894.71814
821.613	3009.68037
821.798	2880.59643
821.982	2842.49909
822.166	2819.84853
822.35	2841.14802
822.534	2802.59734
822.718	2857.00894
822.902	2782.73558
823.086	2751.52344
823.27	2727.50307
823.454	2679.46524
823.638	2736.19873
823.822	2729.8543
824.006	2786.92447
824.19	2711.43038
824.374	2700.49892
824.558	2648.40173
824.742	2653.48805
824.926	2593.87014
825.11	2717.04957
825.294	2594.68128
825.477	2695.75865
825.661	2648.37318
825.845	2640.13875
826.029	2625.95294
826.213	2533.64923
826.396	2633.51755
826.58	2611.57007
826.764	2685.40496
826.948	2618.71914
827.131	2581.63982
827.315	2641.54632
827.499	2658.3766
827.682	2635.07304
827.866	2593.1987
828.05	2640.54511
828.233	2659.53826
828.417	2708.63254
828.6	2613.7559
828.784	2630.52571
828.967	2594.75166
829.151	2717.64288
829.335	2740.32478
829.518	2719.47842
829.701	2660.41173
829.885	2737.27037
830.068	2691.46537
830.252	2758.37013
830.435	2693.34945
830.619	2715.89663
830.802	2693.72869
830.985	2697.0768
831.169	2670.57748
831.352	2717.05148
831.535	2699.11581
831.719	2664.42043
831.902	2636.80591
832.085	2633.80656
832.269	2678.39729
832.452	2612.02642
832.635	2680.65304
832.818	2642.22382
833.002	2678.95685
833.185	2682.19388
833.368	2646.05165
833.551	2730.32364
833.734	2617.72111
833.917	2748.10007
834.1	2624.30013
834.284	2754.84218
834.467	2614.00094
834.65	2653.79586
834.833	2701.68989
835.016	2658.46079
835.199	2570.49621
835.382	2602.44465
835.565	2639.13152
835.748	2620.38205
835.931	2628.6338
836.114	2618.87608
836.297	2689.0031
836.479	2598.26445
836.662	2665.04781
836.845	2663.88056
837.028	2610.45098
837.211	2633.94845
837.394	2641.0929
837.577	2616.03788
837.759	2635.96836
837.942	2614.85604
838.125	2667.9986
838.308	2635.1447
838.49	2603.20796
838.673	2624.16223
838.856	2628.69969
839.039	2682.17701
839.221	2678.52742
839.404	2640.88085
839.587	2622.55029
839.769	2711.16022
839.952	2672.24277
840.134	2614.47552
840.317	2589.95363
840.499	2736.07311
840.682	2689.57914
840.865	2688.94374
841.047	2701.15462
841.23	2663.45547
841.412	2739.61511
841.595	2623.7859
841.777	2677.55514
841.959	2729.03733
842.142	2720.19521
842.324	2758.19249
842.507	2698.06502
842.689	2776.63179
842.871	2758.57456
843.054	2824.83357
843.236	2693.66034
843.418	2792.63596
843.601	2686.36932
843.783	2771.12551
843.965	2823.28393
844.147	2846.20984
844.33	2732.11299
844.512	2761.31295
844.694	2816.34491
844.876	2821.11145
845.059	2813.58034
845.241	2803.65273
845.423	2817.30365
845.605	2836.35363
845.787	2864.0014
845.969	2856.61928
846.151	2828.42587
846.333	2801.98988
846.515	2816.79132
846.697	2864.22302
846.879	2782.63852
847.061	2805.26736
847.243	2779.39631
847.425	2789.77373
847.607	2826.34857
847.789	2834.34892
847.971	2797.2411
848.153	2822.33969
848.335	2760.50278
848.517	2805.79507
848.699	2791.21169
848.881	2800.2309
849.062	2801.17527
849.244	2748.53521
849.426	2768.1507
849.608	2795.43524
849.789	2788.30166
849.971	2779.20127
850.153	2797.83277
850.335	2789.10228
850.516	2748.98279
850.698	2719.35558
850.88	2718.98619
851.061	2762.75437
851.243	2765.28214
851.425	2759.77313
851.606	2678.60469
851.788	2749.3107
851.969	2663.20914
852.151	2739.72281
852.333	2714.46823
852.514	2777.05684
852.696	2717.28573
852.877	2776.40352
853.059	2625.10989
853.24	2714.86637
853.422	2720.91129
853.603	2673.37754
853.784	2642.99508
853.966	2643.04875
854.147	2630.44936
854.329	2628.87783
854.51	2653.92094
854.691	2626.54298
854.873	2650.37449
855.054	2577.0947
855.235	2630.40057
855.416	2637.34674
855.598	2627.13813
855.779	2619.01907
855.96	2568.97066
856.141	2572.92663
856.323	2486.59962
856.504	2550.39906
856.685	2464.68891
856.866	2548.23558
857.047	2512.15239
857.228	2490.23763
857.409	2397.35256
857.591	2399.3863
857.772	2402.29521
857.953	2445.57807
858.134	2439.08038
858.315	2438.89621
858.496	2447.81046
858.677	2406.85174
858.858	2402.50004
859.039	2394.58593
859.22	2457.8855
859.401	2317.94417
859.582	2334.04772
859.762	2370.32567
859.943	2372.87034
860.124	2337.20994
860.305	2247.76664
860.486	2414.73411
860.667	2351.66668
860.848	2314.86234
861.028	2324.63175
861.209	2406.20237
861.39	2271.44006
861.571	2348.48152
861.751	2349.18172
861.932	2336.57936
862.113	2274.76504
862.293	2297.11422
862.474	2273.40811
862.655	2301.02118
862.835	2369.80038
863.016	2311.75524
863.197	2362.09705
863.377	2345.05636
863.558	2245.36445
863.738	2290.58026
863.919	2285.1506
864.099	2273.85562
864.28	2287.74858
864.46	2295.64009
864.641	2282.01489
864.821	2275.33247
865.002	2247.18703
865.182	2258.60013
865.363	2259.55811
865.543	2248.05818
865.723	2253.4871
865.904	2325.19092
866.084	2236.63531
866.264	2317.94417
866.445	2189.10712
866.625	2316.81001
866.805	2270.59272
866.986	2295.71854
867.166	2194.47952
867.346	2242.15922
867.526	2235.73775
867.707	2191.04881
867.887	2106.99761
868.067	2238.69685
868.247	2222.76585
868.427	2159.44618
868.607	2126.0266
868.788	2185.24822
868.968	2153.64774
869.148	2120.41603
869.328	2167.21891
869.508	2130.54789
869.688	2091.21505
869.868	2216.88033
870.048	2059.16778
870.228	2204.23462
870.408	2189.76824
870.588	2068.26259
870.768	2074.67267
870.948	2104.09311
871.128	2129.01746
871.307	2035.73701
871.487	2086.70821
871.667	2082.68124
871.847	2072.56254
872.027	2131.77814
872.207	2082.80849
872.387	2071.21905
872.566	2012.95139
872.746	2053.93171
872.926	2065.92663
873.106	2057.99156
873.285	1950.77899
873.465	2016.25942
873.645	1944.39206
873.824	2065.47766
874.004	1997.62098
874.184	2035.85537
874.363	1983.90358
874.543	2065.31889
874.723	1990.75643
874.902	1976.74804
875.082	1975.27652
875.261	2012.88896
875.441	1964.09516
875.62	1935.46389
875.8	1956.90406
875.979	1971.70028
876.159	1944.59017
876.338	1910.05223
876.518	1943.96333
876.697	1921.8998
876.876	1900.13837
877.056	1901.85434
877.235	1968.43119
877.415	1850.04725
877.594	1885.08629
877.773	1924.00815
877.953	1970.04455
878.132	1910.78356
878.311	1951.73512
878.49	1934.38144
878.67	1873.73756
878.849	1935.34688
879.028	1898.281
879.207	1849.95974
879.387	1908.08251
879.566	1889.61586
879.745	1843.77524
879.924	1832.45267
880.103	1817.97932
880.282	1883.47345
880.461	1864.33106
880.64	1868.39586
880.819	1826.0847
880.998	1798.30532
881.178	1796.50886
881.357	1856.5878
881.536	1858.45843
881.715	1835.52015
881.893	1768.22349
882.072	1819.09186
882.251	1769.85109
882.43	1762.85367
882.609	1862.78111
882.788	1769.51158
882.967	1741.81449
883.146	1792.67171
883.325	1717.06808
883.503	1695.22158
883.682	1740.97649
883.861	1751.60748
884.04	1739.13536
884.219	1691.79394
884.397	1752.50279
884.576	1700.42401
884.755	1703.45128
884.933	1678.13001
885.112	1708.05231
885.291	1695.38476
885.469	1706.92337
885.648	1740.47173
885.827	1615.2878
886.005	1728.6607
886.184	1658.35739
886.363	1716.3283
886.541	1689.99338
886.72	1695.49362
886.898	1688.70069
887.077	1696.21382
887.255	1625.7104
887.434	1673.57498
887.612	1619.56913
887.791	1660.62319
887.969	1648.8096
888.147	1686.9925
888.326	1609.4082
888.504	1676.29446
888.682	1704.13344
888.861	1696.44058
889.039	1728.65928
889.218	1627.5872
889.396	1599.87768
889.574	1685.30679
889.752	1610.49033
889.931	1635.45271
890.109	1625.67807
890.287	1655.58729
890.465	1583.52796
890.643	1679.34912
890.822	1594.07492
891	1630.20726
891.178	1652.04365
891.356	1651.25486
891.534	1637.06586
891.712	1604.81412
891.89	1621.74759
892.068	1615.97395
892.247	1566.20442
892.425	1633.78906
892.603	1549.39372
892.781	1585.14657
892.959	1597.72416
893.137	1630.99718
893.314	1593.12867
893.492	1583.90892
893.67	1533.24697
893.848	1600.57352
894.026	1572.04277
894.204	1550.40473
894.382	1481.93488
894.56	1616.2805
894.738	1613.34835
894.915	1534.01546
895.093	1471.2442
895.271	1495.0787
895.449	1537.58126
895.626	1542.08513
895.804	1510.75062
895.982	1499.50582
896.16	1532.5607
896.337	1487.74866
896.515	1503.54824
896.693	1436.71326
896.87	1424.21736
897.048	1465.21903
897.225	1437.19102
897.403	1401.8655
897.581	1414.54172
897.758	1365.23954
897.936	1435.09502
898.113	1421.4093
898.291	1404.7475
898.468	1389.98383
898.646	1394.35511
898.823	1320.55949
899.001	1342.83759
899.178	1268.77828
899.356	1276.6048
899.533	1258.22466
899.71	1272.31241
899.888	1197.83321
900.065	1218.87948
900.242	1207.31507
900.42	1180.76428
900.597	1162.57257
900.774	1144.7123
900.952	1099.8521
901.129	1136.3729
901.306	1077.46821
901.483	1125.15953
901.661	1105.44314
901.838	1052.152
902.015	1054.87787
902.192	1017.01886
902.369	982.59324
902.546	989.209
902.723	971.42676
902.901	915.34773
903.078	937.16204
903.255	939.47921
903.432	879.12056
903.609	965.64148
903.786	876.89354
903.963	881.93744
904.14	891.67932
904.317	835.01078
904.494	884.88965
904.671	803.20147
904.848	814.43459
905.024	862.21291
905.201	805.35699
905.378	808.31409
905.555	770.60394
905.732	840.83061
905.909	818.30322
906.086	825.98516
906.262	804.87887
906.439	822.20935
906.616	800.8507
906.793	778.46995
906.969	805.10274
907.146	756.90673
907.323	805.12606
907.5	811.1092
907.676	769.81484
907.853	842.15447
908.03	820.14102
908.206	804.23568
908.383	817.23172
908.559	840.44203
908.736	851.74192
908.912	839.54654
909.089	801.91342
909.266	789.24122
909.442	877.68786
909.619	811.25719
909.795	856.16527
909.972	843.05605
910.148	789.15475
910.324	808.48729
910.501	793.91146
910.677	829.9366
910.854	789.96625
911.03	796.26167
911.206	827.64897
911.383	844.75094
911.559	786.69173
911.735	833.01548
911.912	811.17128
912.088	819.89556
912.264	844.07965
912.44	762.64551
912.617	731.09569
912.793	821.96044
912.969	812.43404
913.145	826.48656
913.321	753.50315
913.498	745.29051
913.674	766.56952
913.85	719.0359
914.026	692.41354
914.202	735.67338
914.378	739.49791
914.554	680.82223
914.73	690.73518
914.906	725.88734
915.082	648.30657
915.258	680.28211
915.434	649.53769
915.61	701.0175
915.786	615.61307
915.962	662.66234
916.138	620.67361
916.314	622.21783
916.49	619.6443
916.665	630.45274
916.841	593.15028
917.017	596.42199
917.193	569.35498
917.369	640.58528
917.545	644.19269
917.72	571.46927
917.896	628.9777
918.072	569.45796
918.247	616.88965
918.423	602.96378
918.599	584.22729
918.775	555.44765
918.95	612.27726
919.126	550.50387
919.301	560.63736
919.477	531.62657
919.653	532.2132
919.828	537.62944
920.004	561.98016
920.179	529.11435
920.355	529.4022
920.53	538.13552
920.706	553.5652
920.881	577.08505
921.057	572.82425
921.232	529.59372
921.408	532.36384
921.583	548.66874
921.759	565.92703
921.934	553.83246
922.109	563.25187
922.285	459.11833
922.46	575.45595
922.635	549.57645
922.811	574.44891
922.986	563.38418
923.161	569.88504
923.336	549.53195
923.512	553.12934
923.687	548.77325
923.862	524.47191
924.037	589.03076
924.212	544.067
924.388	558.75538
924.563	562.82458
924.738	560.67792
924.913	596.93013
925.088	617.22544
925.263	624.85949
925.438	575.44799
925.613	593.68846
925.788	578.60272
925.963	572.48849
926.138	582.19145
926.313	606.3186
926.488	583.68067
926.663	598.35438
926.838	557.15764
927.013	588.8976
927.188	609.61311
927.363	602.98551
927.538	609.63945
927.713	559.6923
927.888	602.68998
928.062	612.16534
928.237	573.81078
928.412	562.06151
928.587	571.21613
928.761	595.78483
928.936	593.75754
929.111	620.78592
929.286	584.8355
929.46	588.17223
929.635	638.75193
929.81	571.09557
929.984	580.06495
930.159	589.20097
930.334	563.08919
930.508	518.4323
930.683	552.00659
930.857	527.15758
931.032	526.85454
931.206	539.45882
931.381	546.35807
931.556	536.89009
931.73	461.406
931.904	468.84209
932.079	496.15694
932.253	445.78668
932.428	478.06981
932.602	487.1003
932.777	455.9626
932.951	446.42546
933.125	437.57043
933.3	408.56006
933.474	410.34429
933.648	399.04641
933.823	367.68245
933.997	362.53869
934.171	389.25867
934.345	390.34608
934.52	348.47866
934.694	361.64708
934.868	323.9362
935.042	294.57074
935.217	316.2227
935.391	296.9343
935.565	245.72686
935.739	311.12587
935.913	251.48025
936.087	275.98227
936.261	244.87044
936.435	273.12299
936.609	215.10903
936.783	241.90123
936.957	180.58304
937.131	214.35785
937.305	213.47829
937.479	164.76016
937.653	152.02052
937.827	145.16086
938.001	131.42726
938.175	128.28461
938.349	169.65332
938.523	129.20896
938.697	132.99386
938.87	93.29988
939.044	126.89267
939.218	105.71047
939.392	98.78309
939.566	110.48176
939.739	117.08029
939.913	119.09046
940.087	68.99624
940.261	71.68535
940.434	101.33411
940.608	110.61464
940.782	95.07937
940.955	104.06723
941.129	122.84963
941.302	78.71151
941.476	76.45843
941.65	94.11532
941.823	69.42808
941.997	59.92243
942.17	87.41006
942.344	87.63057
942.517	63.27647
942.691	71.88731
942.864	107.04955
943.038	83.74561
943.211	72.90561
943.385	98.34666
943.558	76.14594
943.731	82.58531
943.905	105.11094
944.078	102.36453
944.251	91.74737
944.425	76.49341
944.598	94.0867
944.771	97.27186
944.945	80.38132
945.118	83.24082
945.291	89.05844
945.464	119.18882
945.638	73.33098
945.811	109.26329
945.984	100.6742
946.157	76.67932
946.33	95.12274
946.503	109.38766
946.677	100.10707
946.85	94.43317
947.023	57.5885
947.196	105.1229
947.369	134.16882
947.542	135.46095
947.715	80.82286
947.888	125.07821
948.061	79.38007
948.234	72.88063
948.407	87.17958
948.58	93.54499
948.753	132.91718
948.926	69.41486
949.099	95.89172
949.271	62.16949
949.444	106.53316
949.617	108.0446
949.79	98.44736
949.963	75.36529
950.136	88.26183
950.308	84.05903
950.481	88.55627
950.654	68.40274
950.827	64.7532
950.999	92.52367
951.172	102.60399
951.345	86.3995
951.517	88.1801
951.69	68.43661
951.863	94.52353
952.035	48.33024
952.208	61.60764
952.381	72.0047
952.553	95.30314
952.726	122.80759
952.898	91.2052
953.071	86.19208
953.243	90.71271
953.416	65.992
953.588	66.30001
953.761	78.24889
953.933	77.03261
954.106	60.81976
954.278	109.58655
954.45	108.81978
954.623	63.1959
954.795	93.41532
954.967	65.75555
955.14	129.3748
955.312	98.31678
955.484	80.34159
955.657	80.58063
955.829	74.01364
956.001	83.91521
956.173	96.62382
956.346	103.78414
956.518	70.76825
956.69	105.35868
956.862	97.68998
957.034	87.71914
957.207	74.67377
957.379	80.38132
957.551	81.91401
957.723	101.00226
957.895	101.3495
958.067	99.10002
958.239	79.82779
958.411	61.27663
958.583	87.6339
958.755	104.35153
958.927	85.05982
959.099	117.73844
959.271	96.11557
959.443	80.48405
959.615	102.58448
959.787	89.08553
959.959	78.81743
960.13	141.14255
960.302	101.66209
960.474	86.03434
960.646	86.04741
960.818	103.12452
960.99	80.39664
961.161	80.0425
961.333	80.9317
961.505	93.18798
961.677	114.03258
961.848	52.21997
962.02	42.06794
962.192	96.98149
962.363	60.93861
962.535	70.20873
962.707	131.7829
962.878	101.4807
963.05	116.76225
963.221	105.03094
963.393	85.80734
963.564	61.93861
963.736	95.63155
963.907	110.85955
964.079	78.68155
964.25	90.06203
964.422	108.34337
964.593	110.35312
964.765	92.74747
964.936	73.31146
965.108	96.36142
965.279	122.86825
965.45	107.70885
965.622	129.89023
965.793	141.70751
965.964	119.53363
966.136	115.9919
966.307	137.47032
966.478	122.52322
966.65	65.97185
966.821	96.90273
966.992	137.49115
967.163	117.71613
967.334	127.67133
967.506	75.08427
967.677	110.02998
967.848	106.70161
968.019	126.5761
968.19	35.37012
968.361	113.15895
968.532	127.42334
968.703	111.26086
968.874	125.66151
969.045	114.04987
969.216	96.99254
969.387	105.57449
969.558	139.25583
969.729	102.67691
969.9	119.44437
970.071	109.15138
970.242	124.76142
970.413	174.90763
970.584	121.2831
970.755	119.65918
970.926	129.24323
971.097	161.20917
971.267	127.623
971.438	109.81868
971.609	167.00509
971.78	100.44276
971.951	125.5734
972.121	139.62436
972.292	161.26631
972.463	142.60291
972.633	144.4784
972.804	157.99173
972.975	127.97318
973.145	163.52282
973.316	156.24346
973.487	142.98575
973.657	132.78513
973.828	163.86477
973.998	158.51089
974.169	151.85984
974.339	164.66068
974.51	112.56958
974.68	151.47822
974.851	144.03075
975.021	170.78548
975.192	200.58793
975.362	178.55472
975.533	142.24023
975.703	220.4978
975.874	193.47892
976.044	176.93598
976.214	214.07035
976.385	184.09595
976.555	210.57638
976.725	175.61837
976.896	181.88521
977.066	173.99243
977.236	175.217
977.406	171.78831
977.577	159.41225
977.747	187.5654
977.917	166.19642
978.087	196.02859
978.257	165.73624
978.427	162.90182
978.598	169.68211
978.768	192.44701
978.938	186.46022
979.108	173.11011
979.278	167.52684
979.448	147.91435
979.618	156.29628
979.788	174.73638
979.958	162.71486
980.128	222.82353
980.298	139.25583
980.468	138.12617
980.638	196.39397
980.808	166.07197
980.978	205.85695
981.148	141.04665
981.317	136.09128
981.487	134.4639
981.657	140.46574
981.827	172.44505
981.997	165.94218
982.167	167.78234
982.336	147.72405
982.506	153.24556
982.676	145.91124
982.846	188.75396
983.015	168.19835
983.185	123.06411
983.355	190.78983
983.524	139.37831
983.694	157.85133
983.864	142.2456
984.033	194.70744
984.203	171.09546
984.372	161.60809
984.542	121.40878
984.712	155.07686
984.881	174.11092
985.051	150.58871
985.22	175.69785
985.39	101.68139
985.559	144.22732
985.728	179.55528
985.898	142.79435
986.067	156.50239
986.237	160.44383
986.406	178.11374
986.576	124.71421
986.745	181.21369
986.914	138.62631
987.084	187.52305
987.253	170.47543
987.422	155.96641
987.591	131.46707
987.761	146.08392
987.93	182.11591
988.099	167.40861
988.268	162.7763
988.438	124.59292
988.607	198.73004
988.776	180.78647
988.945	182.26428
989.114	150.41039
989.283	129.09705
989.452	159.1824
989.621	178.90398
989.791	140.35914
989.96	178.63971
990.129	173.70967
990.298	160.07775
990.467	159.05847
990.636	180.8001
990.805	169.95064
990.974	222.09005
991.142	141.90451
991.311	138.62631
991.48	163.18707
991.649	164.05766
991.818	166.3209
991.987	203.72986
992.156	141.74978
992.325	188.11794
992.493	224.15837
992.662	192.50459
992.831	131.51429
993	137.95691
993.168	163.52282
993.337	144.84702
993.506	135.8932
993.675	176.68538
993.843	214.46978
994.012	155.08859
994.181	184.18013
994.349	169.96986
994.518	144.62862
994.686	178.42262
994.855	203.60258
995.024	180.68135
995.192	174.16376
995.361	160.94883
995.529	152.97344
995.698	168.32297
995.866	188.74686
996.035	165.77944
996.203	149.9513
996.371	198.82681
996.54	208.77782
996.708	145.47463
996.877	161.66302
997.045	192.50501
997.213	164.50527
997.382	145.88369
997.55	148.34515
997.718	179.61984
997.887	175.36201
998.055	172.10277
998.223	178.70034
998.391	170.04973
998.56	155.18879
998.728	125.71631
998.896	185.54384
999.064	145.43428
999.232	154.41114
999.401	143.03979
999.569	130.06485
999.737	148.79271
999.905	191.78273
1000.073	121.50688
1000.241	155.26553
1000.409	164.30006
1000.577	202.80376
1000.745	134.58092
1000.913	139.94327
1001.081	111.82037
1001.249	143.36471
1001.417	132.06369
1001.585	153.34588
1001.753	173.02431
1001.921	147.48347
1002.089	119.61835
1002.256	180.549
1002.424	160.91242
1002.592	148.77587
1002.76	165.78005
1002.928	161.36603
1003.096	159.66627
1003.263	167.23998
1003.431	93.08316
1003.599	128.6543
1003.767	198.44638
1003.934	158.28109
1004.102	157.81558
1004.27	152.21559
1004.437	149.67091
1004.605	125.88535
1004.773	159.06447
1004.94	193.59536
1005.108	158.00507
1005.275	161.45359
1005.443	136.3202
1005.61	136.14793
1005.778	113.6195
1005.945	172.95905
1006.113	156.6439
1006.28	121.63259
1006.448	174.09778
1006.615	96.2019
1006.783	153.38061
1006.95	126.5761
1007.118	138.39191
1007.285	131.10645
1007.452	136.18407
1007.62	107.34459
1007.787	145.40673
1007.954	98.6188
1008.122	132.74495
1008.289	134.56054
1008.456	128.42563
1008.623	126.21634
1008.791	123.22736
1008.958	143.33221
1009.125	124.19715
1009.292	126.64483
1009.459	92.40826
1009.627	116.99946
1009.794	127.98287
1009.961	120.28519
1010.128	100.42752
1010.295	91.53052
1010.462	106.46971
1010.629	135.7002
1010.796	179.92498
1010.963	107.8044
1011.13	112.81468
1011.297	97.89896
1011.464	80.48099
1011.631	93.78309
1011.798	67.09355
1011.965	122.95222
1012.132	110.3573
1012.299	120.87675
1012.466	115.16892
1012.633	117.64884
1012.799	88.06819
1012.966	100.35755
1013.133	129.82261
1013.3	122.12191
1013.467	87.63057
1013.633	135.02863
1013.8	104.61508
1013.967	98.48856
1014.134	64.05479
1014.3	90.08599
1014.467	110.1795
1014.634	105.67837
1014.8	106.14205
1014.967	99.53249
1015.134	101.56947
1015.3	87.14978
1015.467	129.20896
1015.633	83.0518
1015.8	150.15245
1015.966	163.85858
1016.133	111.62622
1016.3	106.89705
1016.466	133.55843
1016.632	77.9191
1016.799	88.07489
1016.965	145.35723
1017.132	105.36668
1017.298	62.40281
1017.465	104.6111
1017.631	102.80833
1017.797	88.96007
1017.964	97.42537
1018.13	127.86128
1018.296	101.54635
1018.463	141.61166
1018.629	92.4434
1018.795	81.93581
1018.961	90.41487
1019.128	83.83839
1019.294	97.20528
1019.46	67.21316
1019.626	98.67493
1019.792	112.07395
1019.959	98.76434
1020.125	73.57439
1020.291	126.64003
1020.457	101.82813
1020.623	94.31408
1020.789	95.53417
1020.955	87.52531
1021.121	67.96561
1021.287	108.14831
1021.453	115.40587
1021.619	95.54506
1021.785	47.31751
1021.951	61.26263
1022.117	63.29818
1022.283	72.33219
1022.449	104.01187
1022.615	91.53052
1022.781	85.34369
1022.946	83.0297
1023.112	121.3475
1023.278	110.22871
1023.444	80.92862
1023.61	93.79381
1023.775	70.44327
1023.941	72.41655
1024.107	97.34676
1024.273	83.61773
1024.438	97.15248
1024.604	120.44275
1024.77	104.9752
1024.935	87.13986
1025.101	85.05982
1025.267	84.15814
1025.432	68.09305
1025.598	79.39218
1025.763	70.13964
1025.929	88.86506
1026.095	66.30254
1026.26	47.42399
1026.426	84.52279
1026.591	101.44986
1026.757	93.67116
1026.922	81.38245
1027.087	34.24157
1027.253	80.71709
1027.418	111.75938
1027.584	41.94962
1027.749	59.49987
1027.914	56.2565
1028.08	99.08874
1028.245	28.20147
1028.41	67.88476
1028.576	60.8105
1028.741	91.29629
1028.906	58.03166
1029.072	96.46235
1029.237	85.62264
1029.402	92.63909
1029.567	53.22893
1029.732	51.78232
1029.898	40.17161
1030.063	49.00555
1030.228	54.3665
1030.393	86.97894
1030.558	71.86816
1030.723	73.2414
1030.888	85.74435
1031.053	65.99704
1031.218	69.17007
1031.383	42.5156
1031.548	88.17339
1031.713	64.30795
1031.878	54.24215
1032.043	35.47934
1032.208	29.99063
1032.373	57.71801
1032.538	61.2743
1032.703	53.91467
1032.868	100.70482
1033.033	51.374
1033.198	74.14535
1033.362	60.60985
1033.527	38.49722
1033.692	57.47003
1033.857	82.03524
1034.021	77.22706
1034.186	78.72952
1034.351	16.68603
1034.516	77.4744
1034.68	52.6715
1034.845	71.67442
1035.01	68.08527
1035.174	57.27467
1035.339	53.24112
1035.504	32.12282
1035.668	78.5876
1035.833	70.45402
1035.997	51.3563
1036.162	44.18763
1036.326	25.29633
1036.491	76.47591
1036.655	55.3739
1036.82	68.559
1036.984	87.61724
1037.149	57.0399
1037.313	55.81525
1037.478	45.30323
1037.642	72.67345
1037.807	66.3253
1037.971	43.07189
1038.135	32.006
1038.3	57.72242
1038.464	47.30848
1038.628	90.39083
1038.792	44.73862
1038.957	34.4588
1039.121	34.35085
1039.285	35.36064
1039.449	74.33807
1039.614	65.18352
1039.778	53.92084
1039.942	49.54253
1040.106	50.23303
1040.27	66.63571
1040.434	48.89361
1040.599	73.01754
1040.763	57.47222
1040.927	56.80524
1041.091	62.52189
1041.255	89.19745
1041.419	25.29439
1041.583	53.44863
1041.747	15.90644
1041.911	47.33017
1042.075	32.12405
1042.239	45.18961
1042.403	48.11928
1042.567	44.62843
1042.731	64.08409
1042.894	53.35099
1043.058	52.5837
1043.222	25.29633
1043.386	37.93177
1043.55	46.53772
1043.714	27.88181
1043.877	31.34778
1044.041	62.96001
1044.205	61.62174
1044.369	47.77245
1044.532	39.50612
1044.696	29.43792
1044.86	61.17873
1045.023	24.07286
1045.187	37.81264
1045.351	32.11668
1045.514	85.75415
1045.678	45.4082
1045.841	63.96972
