Data from 4_51 _Subt2__3__16-53-38-550.txt Node

Date: Tue Oct 07 16:53:38 EDT 2025
User: brett
Spectrometer: USB4F03499
Trigger mode: 4
Integration Time (sec): 2.950000E-3
Scans to average: 1
Electric dark correction enabled: true
Nonlinearity correction enabled: true
Boxcar width: 5
XAxis mode: Wavelengths
Number of Pixels in Spectrum: 3648
>>>>>Begin Spectral Data<<<<<
345.386	8.73702
345.605	15.4867
345.824	9.24354
346.044	-15.16452
346.263	-29.55079
346.482	-5.55853
346.701	-86.56081
346.92	33.58043
347.139	-33.55381
347.358	-26.00428
347.577	31.13418
347.796	76.10892
348.015	-9.79405
348.234	0.86761
348.453	-16.68221
348.672	-11.12727
348.891	36.66325
349.11	71.81972
349.329	14.87162
349.548	48.45015
349.767	12.20357
349.986	2.65681
350.205	-29.76355
350.424	-12.67121
350.643	-38.20748
350.862	-25.55628
351.08	-47.76329
351.299	-46.00264
351.518	-42.45151
351.737	-96.37029
351.956	-63.09547
352.174	-48.46528
352.393	-63.76817
352.612	-70.41257
352.831	-74.85523
353.049	-111.43176
353.268	-57.54871
353.487	-68.41559
353.705	-9.57849
353.924	-119.11504
354.143	-32.66804
354.361	-73.94628
354.58	27.14003
354.798	6.89924
355.017	-41.54238
355.236	22.69345
355.454	-41.75319
355.673	64.09363
355.891	-8.4397
356.11	26.67724
356.328	-56.40027
356.547	-22.67676
356.765	-18.47214
356.984	-12.47923
357.202	9.96547
357.42	32.42422
357.639	70.93148
357.857	15.96901
358.076	-83.92765
358.294	-60.65382
358.512	-100.12951
358.731	39.56545
358.949	-84.61574
359.167	-29.11111
359.386	16.68429
359.604	-61.52912
359.822	-59.09991
360.04	-7.33745
360.259	-6.67254
360.477	30.93038
360.695	-24.45474
360.913	26.0244
361.131	-111.90304
361.35	-79.06801
361.568	0.8811
361.786	-36.45094
362.004	-58.64802
362.222	-2.68176
362.44	66.95786
362.658	-4.90327
362.876	-12.67209
363.094	-10.89792
363.312	-21.33662
363.53	-27.97666
363.749	-39.97184
363.967	1.99141
364.184	-25.77628
364.402	54.49753
364.62	-57.29427
364.838	-28.65756
365.056	-25.55217
365.274	4.00651
365.492	-11.77798
365.71	27.15226
365.928	-28.90969
366.146	-31.13426
366.364	-43.34206
366.581	-38.90506
366.799	-49.78363
367.017	-39.13901
367.235	-59.80775
367.453	-8.47543
367.67	-53.8139
367.888	-15.8129
368.106	-119.66598
368.323	-51.55328
368.541	-95.92758
368.759	60.10888
368.977	-16.45646
369.194	-93.04228
369.412	6.22489
369.629	-5.9999
369.847	-54.85999
370.065	-19.55406
370.282	-102.52865
370.5	41.83089
370.717	-2.22882
370.935	10.88831
371.152	-91.67803
371.37	-31.56038
371.588	-63.74903
371.805	91.98913
372.022	-54.66908
372.24	-18.465
372.457	5.32951
372.675	-47.57123
372.892	-51.55629
373.11	22.462
373.327	-36.90814
373.544	-37.13025
373.762	-10.90356
373.979	20.90296
374.196	-59.74492
374.414	2.67153
374.631	-10.43929
374.848	-21.98945
375.066	-35.98274
375.283	-36.42976
375.5	-27.98647
375.717	-9.54561
375.935	-83.43828
376.152	-11.5486
376.369	2.43469
376.586	-31.10829
376.803	-31.99253
377.02	-33.54434
377.238	-33.98767
377.455	63.59458
377.672	21.987
377.889	25.32084
378.106	-128.44296
378.323	-37.11897
378.54	-35.12028
378.757	-47.09471
378.974	-33.99993
379.191	-82.80179
379.408	-54.43327
379.625	-90.59119
379.842	-37.3425
380.059	-4.90154
380.276	-74.59333
380.493	-56.8486
380.71	-88.5713
380.927	-39.76808
381.143	-74.80295
381.36	0.44838
381.577	-52.20545
381.794	25.356
382.011	-47.99879
382.228	-8.00928
382.444	-54.42477
382.661	1.31759
382.878	-17.12964
383.095	9.10017
383.311	-44.2239
383.528	-32.23336
383.745	-43.99802
383.962	73.00135
384.178	10.4375
384.395	-112.92147
384.612	-22.23059
384.828	-72.39945
385.045	-31.78008
385.261	10.0115
385.478	-4.01079
385.695	-14.6802
385.911	-73.27963
386.128	-52.87086
386.344	-31.55045
386.561	86.98797
386.777	-47.52865
386.994	57.57784
387.21	-2.45845
387.427	-25.32523
387.643	-42.84842
387.86	53.35502
388.076	91.45519
388.292	61.83201
388.509	-48.6473
388.725	-10.91226
388.942	-51.74765
389.158	-34.89602
389.374	-90.33353
389.591	-7.58131
389.807	13.53314
390.023	-18.69678
390.239	-47.34036
390.456	1.52916
390.672	-80.15344
390.888	25.78957
391.104	-14.90037
391.321	37.38881
391.537	-9.33596
391.753	-35.33685
391.969	-36.44566
392.185	27.36568
392.401	-48.20057
392.618	29.59139
392.834	-22.00645
393.05	25.34926
393.266	3.55794
393.482	-24.228
393.698	-88.34248
393.914	-4.4544
394.13	-82.56756
394.346	-91.24215
394.562	-43.55762
394.778	28.67768
394.994	-27.33596
395.21	-80.12309
395.426	-4.01271
395.642	-5.34474
395.858	15.99056
396.073	-37.32285
396.289	-91.86889
396.505	-37.11026
396.721	-5.34303
396.937	-7.56813
397.153	-16.00764
397.369	-5.12313
397.584	-45.53323
397.8	-23.77731
398.016	-70.5929
398.232	-17.11455
398.447	-27.32481
398.663	51.37594
398.879	14.44749
399.094	-20.20855
399.31	3.33653
399.526	-42.63458
399.741	-29.76191
399.957	10.43253
400.173	-40.41676
400.388	-13.12855
400.604	-14.45926
400.82	64.0128
401.035	57.77954
401.251	44.87022
401.466	45.10674
401.682	-4.48416
401.897	27.53139
402.113	30.86863
402.328	16.63691
402.544	34.87269
402.759	43.34115
402.974	6.43378
403.19	-13.33742
403.405	-94.95774
403.621	61.5854
403.836	30.21772
404.051	-26.86714
404.267	-8.44405
404.482	41.33359
404.697	-13.7767
404.913	-21.32772
405.128	-50.84135
405.343	66.2565
405.559	7.30264
405.774	-41.28642
405.989	31.52052
406.204	-60.79955
406.42	-10.89334
406.635	27.74467
406.85	80.22063
407.065	-28.1792
407.28	24.41397
407.495	-9.54763
407.71	-27.07259
407.926	4.66714
408.141	-10.65273
408.356	-67.42223
408.571	-11.78214
408.786	45.27543
409.001	45.94076
409.216	-64.74044
409.431	103.98798
409.646	-13.32262
409.861	4.19963
410.076	98.81802
410.291	71.87329
410.506	99.86154
410.721	82.96969
410.936	43.02166
411.15	48.56931
411.365	89.64815
411.58	139.01026
411.795	70.98263
412.01	121.86234
412.225	63.40428
412.439	53.4087
412.654	73.39496
412.869	131.16621
413.084	102.70686
413.299	109.58789
413.513	126.46283
413.728	113.1371
413.943	166.72642
414.157	154.00847
414.372	99.08911
414.587	97.55718
414.801	147.06902
415.016	159.25797
415.231	98.77341
415.445	142.49357
415.66	136.90634
415.874	114.91984
416.089	113.57685
416.304	139.33197
416.518	116.22287
416.733	131.73851
416.947	176.78564
417.162	187.42667
417.376	142.32029
417.59	249.93758
417.805	205.35718
418.019	138.75945
418.234	175.78281
418.448	197.25365
418.663	258.56666
418.877	191.98718
419.091	269.26074
419.306	222.73104
419.52	194.53775
419.734	298.98554
419.949	229.565
420.163	223.7606
420.377	242.08036
420.591	299.12775
420.806	330.72475
421.02	339.50993
421.234	235.81148
421.448	311.32267
421.663	296.24597
421.877	177.57166
422.091	293.66965
422.305	338.08935
422.519	304.36193
422.733	324.99174
422.947	239.72289
423.161	263.63674
423.376	260.90489
423.59	292.92327
423.804	315.37704
424.018	370.18261
424.232	311.9296
424.446	322.11627
424.66	370.68559
424.874	340.66102
425.088	339.28792
425.302	456.63824
425.515	384.85292
425.729	326.75323
425.943	275.32965
426.157	361.37816
426.371	415.08012
426.585	382.30985
426.799	355.40536
427.013	423.1363
427.226	347.83536
427.44	402.66505
427.654	398.43589
427.868	395.23424
428.081	466.99273
428.295	410.36579
428.509	403.16768
428.723	429.37049
428.936	351.61285
429.15	395.1129
429.364	411.05574
429.577	368.37099
429.791	312.46693
430.005	420.56502
430.218	337.12251
430.432	329.7282
430.645	392.27281
430.859	402.04588
431.073	411.41646
431.286	362.65382
431.5	419.44154
431.713	394.48735
431.927	420.58901
432.14	430.17819
432.354	381.79968
432.567	456.8938
432.781	419.01092
432.994	458.20006
433.207	324.83674
433.421	466.71604
433.634	462.88984
433.848	481.17734
434.061	436.9161
434.274	435.06007
434.488	420.66817
434.701	415.00633
434.914	505.86927
435.127	536.23082
435.341	461.18235
435.554	444.42922
435.767	504.89207
435.98	534.9949
436.194	452.04174
436.407	493.77593
436.62	526.93682
436.833	576.07402
437.046	663.66493
437.259	515.42882
437.473	579.01014
437.686	571.0267
437.899	589.31216
438.112	606.76804
438.325	604.26341
438.538	650.39993
438.751	664.69407
438.964	646.46832
439.177	698.32257
439.39	770.96482
439.603	793.91391
439.816	790.85185
440.029	800.37236
440.242	870.59707
440.455	973.37937
440.668	926.97213
440.881	870.55686
441.094	943.78014
441.306	978.78448
441.519	989.93832
441.732	1038.75874
441.945	1116.89436
442.158	1117.01408
442.37	1058.89074
442.583	1107.02676
442.796	1085.53055
443.009	1248.10148
443.222	1198.74211
443.434	1292.42728
443.647	1328.84876
443.86	1297.45188
444.072	1328.65914
444.285	1279.09842
444.498	1378.26782
444.71	1340.67537
444.923	1323.23518
445.136	1342.88112
445.348	1302.42985
445.561	1401.82612
445.773	1398.64534
445.986	1329.59022
446.198	1402.27675
446.411	1458.79925
446.623	1445.5414
446.836	1527.34731
447.048	1531.66384
447.261	1687.54446
447.473	1695.98993
447.686	1594.36807
447.898	1648.69896
448.11	1703.01439
448.323	1667.77076
448.535	1627.20844
448.748	1687.31934
448.96	1722.34806
449.172	1800.05071
449.385	1717.08025
449.597	1786.64141
449.809	1719.33476
450.021	1805.86457
450.234	1791.69924
450.446	1809.55844
450.658	1832.48938
450.87	1825.12078
451.083	1877.4733
451.295	1925.72917
451.507	1910.90638
451.719	1886.95659
451.931	1985.05398
452.143	2009.73731
452.356	2025.0671
452.568	1967.48402
452.78	2008.6399
452.992	2006.09048
453.204	1943.23375
453.416	2080.3944
453.628	2143.63061
453.84	2184.05947
454.052	2140.74953
454.264	2170.7267
454.476	2114.12055
454.688	2179.51563
454.9	2209.16474
455.112	2197.60573
455.324	2342.81397
455.536	2305.88415
455.747	2249.40209
455.959	2261.36553
456.171	2241.8486
456.383	2231.25385
456.595	2277.55736
456.807	2310.61037
457.018	2386.16839
457.23	2229.01929
457.442	2200.76914
457.654	2181.47808
457.865	2268.74044
458.077	2335.95316
458.289	2335.56397
458.501	2351.26964
458.712	2410.81626
458.924	2397.21244
459.136	2391.44565
459.347	2393.80759
459.559	2457.05843
459.77	2462.94174
459.982	2536.1893
460.194	2383.77281
460.405	2572.84603
460.617	2591.10742
460.828	2577.19357
461.04	2652.21573
461.251	2693.41932
461.463	2503.14362
461.674	2724.11092
461.886	2762.5846
462.097	2734.20706
462.309	2688.92234
462.52	2741.46771
462.731	2732.91657
462.943	2743.85988
463.154	2862.88977
463.366	2870.48327
463.577	2860.2633
463.788	3043.91847
464	2956.07181
464.211	3044.00132
464.422	3064.43162
464.634	3205.3187
464.845	3131.64272
465.056	3229.06439
465.267	3200.52683
465.478	3234.38189
465.69	3270.39244
465.901	3274.63691
466.112	3395.0549
466.323	3336.80171
466.534	3287.71436
466.745	3383.90048
466.957	3344.18128
467.168	3438.05525
467.379	3404.43686
467.59	3484.2779
467.801	3547.90503
468.012	3528.89865
468.223	3534.80864
468.434	3579.14972
468.645	3601.94751
468.856	3615.25303
469.067	3650.78262
469.278	3718.98778
469.489	3700.08138
469.7	3903.75098
469.911	3865.85111
470.122	3853.70418
470.333	4000.97825
470.543	3938.83954
470.754	3952.48904
470.965	4046.14095
471.176	4099.12263
471.387	4058.37768
471.598	4129.09634
471.808	4129.58325
472.019	4137.33051
472.23	4228.54384
472.441	4256.81784
472.651	4183.11042
472.862	4261.21153
473.073	4302.78545
473.283	4273.27331
473.494	4410.67408
473.705	4428.38112
473.915	4618.30425
474.126	4547.09036
474.337	4630.10558
474.547	4668.56161
474.758	4679.45508
474.968	4892.20753
475.179	4911.10365
475.389	4890.66603
475.6	5008.02517
475.81	4963.75951
476.021	5075.71262
476.231	5107.57343
476.442	5151.83132
476.652	5271.40274
476.863	5287.67038
477.073	5362.01057
477.284	5383.02769
477.494	5496.64347
477.704	5443.59527
477.915	5603.65141
478.125	5720.05584
478.335	5716.64722
478.546	5753.57409
478.756	5881.87583
478.966	5940.05218
479.177	5987.69765
479.387	6100.47344
479.597	6216.31437
479.807	6187.80731
480.018	6245.20022
480.228	6253.37547
480.438	6353.56862
480.648	6485.86624
480.858	6607.80575
481.068	6653.61572
481.279	6796.75184
481.489	6905.39949
481.699	6876.33405
481.909	7013.16476
482.119	7082.64674
482.329	7265.61499
482.539	7349.31402
482.749	7373.57059
482.959	7463.79619
483.169	7491.50065
483.379	7566.09265
483.589	7684.94078
483.799	7629.73286
484.009	7855.84685
484.219	7866.09866
484.429	7999.10124
484.639	7966.72329
484.849	8036.04894
485.059	8135.7181
485.268	8243.02332
485.478	8268.53164
485.688	8324.16394
485.898	8473.40728
486.108	8541.42484
486.317	8621.03332
486.527	8609.33827
486.737	8699.4348
486.947	8701.02935
487.156	8774.50419
487.366	8765.0133
487.576	8855.12836
487.785	8909.22651
487.995	8861.52068
488.205	8929.29172
488.414	8925.47743
488.624	9032.09364
488.834	8987.70372
489.043	9175.18001
489.253	9139.7198
489.462	9246.48654
489.672	9230.659
489.882	9382.67608
490.091	9441.63287
490.301	9345.33407
490.51	9532.29869
490.72	9584.46249
490.929	9562.86477
491.138	9611.72742
491.348	9602.54401
491.557	9673.86878
491.767	9683.54166
491.976	9734.73538
492.185	9676.8576
492.395	9854.5146
492.604	9768.10087
492.813	9801.01805
493.023	9944.78184
493.232	9979.47641
493.441	9913.14828
493.651	10045.39139
493.86	10082.02984
494.069	10199.5962
494.278	10169.43064
494.488	10276.02145
494.697	10293.48814
494.906	10364.48685
495.115	10468.11704
495.324	10424.56598
495.533	10598.37284
495.743	10649.75467
495.952	10700.92385
496.161	10877.61014
496.37	10860.79671
496.579	10931.60427
496.788	11100.96102
496.997	11057.00484
497.206	11216.88948
497.415	11155.16383
497.624	11321.97984
497.833	11328.60678
498.042	11421.43156
498.251	11436.35652
498.46	11514.87799
498.669	11630.4914
498.878	11603.38893
499.087	11637.8728
499.296	11652.83431
499.504	11818.16618
499.713	11718.26153
499.922	11809.49272
500.131	11885.3375
500.34	11873.97118
500.549	11897.80663
500.757	11886.48918
500.966	11913.05074
501.175	11958.57473
501.384	11970.98416
501.592	11997.07011
501.801	11995.30944
502.01	12105.15973
502.218	12121.04676
502.427	12140.34845
502.636	12054.22752
502.844	12093.30303
503.053	12064.59449
503.262	12226.05697
503.47	12202.10507
503.679	12120.12723
503.887	12217.138
504.096	12196.09929
504.304	12219.3879
504.513	12314.69817
504.721	12222.49587
504.93	12146.6553
505.138	12223.17975
505.347	12210.665
505.555	12164.5391
505.764	12212.82471
505.972	12130.35354
506.18	12091.05528
506.389	12183.69812
506.597	12206.7621
506.806	12256.01523
507.014	12249.48586
507.222	12354.29495
507.431	12325.59755
507.639	12314.56087
507.847	12350.14301
508.055	12408.10621
508.264	12437.30131
508.472	12320.30479
508.68	12456.55497
508.888	12389.72823
509.096	12463.60553
509.305	12440.03112
509.513	12474.53165
509.721	12459.87026
509.929	12542.00786
510.137	12540.55464
510.345	12547.55569
510.553	12505.41257
510.762	12564.44987
510.97	12507.8096
511.178	12659.58129
511.386	12570.99599
511.594	12662.99752
511.802	12626.19378
512.01	12702.21368
512.218	12719.33011
512.426	12837.01529
512.634	12849.91953
512.842	12863.19447
513.049	12921.7963
513.257	12951.43585
513.465	12970.37996
513.673	12984.46525
513.881	13003.5381
514.089	13074.35609
514.297	13022.3852
514.504	13125.71038
514.712	13126.1335
514.92	13180.66049
515.128	13289.024
515.336	13194.64317
515.543	13268.75211
515.751	13258.32182
515.959	13215.89708
516.166	13285.62432
516.374	13306.21043
516.582	13354.8246
516.789	13368.23253
516.997	13443.93214
517.205	13321.92161
517.412	13387.10792
517.62	13328.85922
517.827	13325.80576
518.035	13270.98303
518.243	13325.21015
518.45	13280.72944
518.658	13334.96941
518.865	13263.66496
519.073	13310.53653
519.28	13217.97885
519.488	13226.09649
519.695	13217.00541
519.902	13087.2532
520.11	13084.42985
520.317	13039.5181
520.525	13059.6646
520.732	13094.95482
520.939	13035.03314
521.147	13103.85925
521.354	13065.12817
521.561	13154.40209
521.769	13047.03689
521.976	13060.63171
522.183	13034.06706
522.391	13120.5723
522.598	13122.82116
522.805	13115.89491
523.012	13016.11825
523.219	13126.44766
523.427	13103.86819
523.634	13202.37343
523.841	13121.5508
524.048	13097.9249
524.255	13097.22804
524.462	13152.69443
524.669	13164.32197
524.877	13235.245
525.084	13289.79597
525.291	13236.98634
525.498	13320.80508
525.705	13317.77459
525.912	13461.48209
526.119	13454.89845
526.326	13452.82091
526.533	13555.89917
526.74	13615.97447
526.947	13675.55391
527.153	13659.70486
527.36	13708.14631
527.567	13685.23173
527.774	13764.84456
527.981	13875.76422
528.188	13845.14822
528.395	13864.82716
528.602	13882.42031
528.808	13956.93265
529.015	13953.88604
529.222	13964.86104
529.429	14029.58337
529.635	14028.49546
529.842	14078.49961
530.049	14069.19624
530.256	14079.78587
530.462	14053.89235
530.669	14093.17961
530.876	14090.37679
531.082	14140.11719
531.289	14179.63909
531.495	14216.27988
531.702	14252.38054
531.909	14193.15696
532.115	14315.92993
532.322	14335.14456
532.528	14357.26887
532.735	14351.66878
532.941	14365.4357
533.148	14447.44921
533.354	14303.15859
533.561	14392.97511
533.767	14340.04136
533.974	14431.8818
534.18	14416.50712
534.387	14366.59152
534.593	14481.33223
534.799	14444.91507
535.006	14439.41892
535.212	14402.68452
535.418	14321.932
535.625	14418.70895
535.831	14378.40118
536.037	14401.76729
536.244	14530.59558
536.45	14512.98458
536.656	14425.18733
536.862	14531.49032
537.068	14559.00604
537.275	14540.19721
537.481	14516.42953
537.687	14636.82766
537.893	14616.81209
538.099	14716.52095
538.305	14664.76513
538.512	14642.28303
538.718	14747.96268
538.924	14723.13582
539.13	14686.26731
539.336	14706.35808
539.542	14701.85139
539.748	14746.44312
539.954	14693.60709
540.16	14681.12053
540.366	14691.95093
540.572	14776.97392
540.778	14721.46271
540.984	14667.75754
541.19	14684.91875
541.396	14705.10339
541.602	14707.95073
541.807	14743.67074
542.013	14753.47308
542.219	14655.05481
542.425	14680.29509
542.631	14683.13357
542.837	14618.78623
543.042	14597.34503
543.248	14580.47961
543.454	14502.56058
543.66	14541.59504
543.865	14531.46528
544.071	14525.54909
544.277	14514.49356
544.483	14470.6267
544.688	14415.19765
544.894	14502.69311
545.1	14434.47686
545.305	14447.84234
545.511	14448.74596
545.716	14353.82492
545.922	14378.81269
546.128	14400.03483
546.333	14452.63564
546.539	14329.35005
546.744	14329.5335
546.95	14358.24567
547.155	14353.76157
547.361	14322.33665
547.566	14387.0537
547.772	14263.07159
547.977	14372.46611
548.182	14381.55701
548.388	14401.17893
548.593	14326.89254
548.799	14425.53565
549.004	14424.53287
549.209	14413.97446
549.415	14388.49325
549.62	14345.03555
549.825	14436.88131
550.031	14429.69377
550.236	14434.73917
550.441	14448.98439
550.646	14394.36077
550.852	14421.27668
551.057	14362.59621
551.262	14508.94892
551.467	14441.94862
551.672	14466.17915
551.878	14444.09084
552.083	14439.0096
552.288	14465.19241
552.493	14401.29925
552.698	14456.3658
552.903	14552.48335
553.108	14574.77374
553.313	14544.42812
553.518	14582.14033
553.723	14583.74268
553.928	14556.46868
554.133	14625.25041
554.338	14617.84583
554.543	14635.6229
554.748	14678.83285
554.953	14672.77721
555.158	14616.7978
555.363	14730.51667
555.568	14689.28512
555.773	14692.64449
555.978	14645.21196
556.182	14675.39998
556.387	14710.38962
556.592	14655.37289
556.797	14715.27998
557.002	14757.59296
557.206	14770.89193
557.411	14694.69292
557.616	14727.30858
557.821	14740.55534
558.025	14696.4176
558.23	14801.02516
558.435	14712.59048
558.64	14799.71223
558.844	14706.01895
559.049	14667.94479
559.253	14708.26934
559.458	14721.48964
559.663	14638.07786
559.867	14704.78876
560.072	14567.69346
560.276	14606.40692
560.481	14597.61346
560.685	14600.66729
560.89	14546.72613
561.094	14560.29992
561.299	14468.72887
561.503	14433.00676
561.708	14498.36725
561.912	14426.43107
562.117	14350.41142
562.321	14424.24711
562.525	14424.13658
562.73	14388.42543
562.934	14335.10879
563.139	14339.58938
563.343	14291.91401
563.547	14344.85598
563.752	14321.70388
563.956	14331.87454
564.16	14295.15689
564.364	14268.09694
564.569	14282.22736
564.773	14224.22554
564.977	14233.69952
565.181	14194.91298
565.385	14189.12802
565.59	14199.67645
565.794	14243.6435
565.998	14175.23685
566.202	14230.15019
566.406	14188.77875
566.61	14156.0616
566.814	14141.31215
567.018	14190.28715
567.222	14148.19268
567.426	14050.65968
567.63	14068.62792
567.834	14071.8254
568.038	13980.35374
568.242	13992.43517
568.446	13988.12635
568.65	13851.26283
568.854	13927.48142
569.058	13917.55455
569.262	13886.67276
569.466	13915.60285
569.67	13886.45714
569.874	13759.53726
570.078	13865.49956
570.281	13831.83842
570.485	13770.69796
570.689	13703.42316
570.893	13679.02109
571.097	13702.37001
571.3	13588.74356
571.504	13540.82602
571.708	13506.80463
571.912	13595.10668
572.115	13573.10699
572.319	13520.64347
572.523	13497.85546
572.726	13463.51043
572.93	13472.81414
573.133	13389.78398
573.337	13361.71452
573.541	13287.49462
573.744	13394.87116
573.948	13270.03566
574.151	13269.83998
574.355	13211.17104
574.558	13129.06701
574.762	13183.67318
574.965	13229.0496
575.169	13205.77287
575.372	13075.30845
575.576	13206.6261
575.779	13092.46585
575.983	13048.42081
576.186	13025.8438
576.389	13025.24695
576.593	13030.06014
576.796	12853.64827
577	12897.16047
577.203	12849.35816
577.406	12763.67613
577.609	12855.10861
577.813	12794.37375
578.016	12853.851
578.219	12853.98304
578.423	12723.06111
578.626	12660.48751
578.829	12682.2523
579.032	12739.76151
579.235	12620.1142
579.438	12688.42201
579.642	12613.92733
579.845	12648.7186
580.048	12597.89673
580.251	12589.41006
580.454	12544.84561
580.657	12604.94823
580.86	12545.98526
581.063	12613.43378
581.266	12485.28644
581.469	12603.4677
581.672	12527.91427
581.875	12523.22811
582.078	12519.68899
582.281	12524.86684
582.484	12505.81057
582.687	12532.49088
582.89	12543.64934
583.093	12528.78303
583.296	12550.08786
583.499	12581.96368
583.702	12515.38424
583.904	12462.93482
584.107	12443.67666
584.31	12480.00767
584.513	12448.2989
584.716	12573.47021
584.918	12501.90884
585.121	12506.21935
585.324	12505.42157
585.527	12534.44579
585.729	12496.42876
585.932	12544.70834
586.135	12514.11295
586.337	12551.3533
586.54	12547.74525
586.743	12498.70497
586.945	12554.21571
587.148	12472.88468
587.35	12476.77887
587.553	12475.1185
587.755	12425.08456
587.958	12376.06812
588.161	12427.1274
588.363	12435.7382
588.566	12329.81603
588.768	12406.21369
588.971	12240.41095
589.173	12332.8233
589.375	12360.05976
589.578	12197.30815
589.78	12214.0078
589.983	12154.42065
590.185	12047.89156
590.387	11993.66714
590.59	11923.91116
590.792	11880.42428
590.994	11762.32191
591.197	11761.65334
591.399	11651.82817
591.601	11637.89863
591.803	11486.16377
592.006	11487.96683
592.208	11373.25242
592.41	11307.33159
592.612	11326.95998
592.815	11149.19272
593.017	11072.81881
593.219	11012.27221
593.421	10976.42633
593.623	10960.14682
593.825	10814.11031
594.027	10813.53604
594.229	10808.388
594.432	10689.98559
594.634	10631.58915
594.836	10567.81123
595.038	10481.48649
595.24	10501.82479
595.442	10450.66631
595.644	10381.01108
595.846	10238.88213
596.048	10283.90793
596.249	10219.46035
596.451	10189.60196
596.653	10129.05263
596.855	10041.09635
597.057	10042.71679
597.259	9923.0137
597.461	9918.60131
597.663	9939.3207
597.864	9879.62398
598.066	9906.1006
598.268	9887.64924
598.47	9825.91962
598.671	9910.07635
598.873	9937.24469
599.075	9961.31461
599.277	9905.41674
599.478	9861.35938
599.68	9916.27727
599.882	9835.98246
600.083	9888.80692
600.285	9876.50273
600.487	9897.79742
600.688	9963.07164
600.89	10013.38966
601.091	9981.31563
601.293	9978.18795
601.494	10005.93075
601.696	10024.68453
601.898	10099.73937
602.099	10110.95526
602.301	10133.71091
602.502	10148.82921
602.703	10158.30384
602.905	10261.26499
603.106	10133.70915
603.308	10283.90997
603.509	10240.93604
603.711	10267.81554
603.912	10223.94329
604.113	10163.19827
604.315	10363.44891
604.516	10400.84966
604.717	10340.74924
604.919	10375.222
605.12	10383.7197
605.321	10587.45406
605.522	10470.06207
605.724	10491.05013
605.925	10507.954
606.126	10610.13234
606.327	10573.58901
606.528	10547.40272
606.729	10567.74029
606.931	10506.48774
607.132	10559.51779
607.333	10624.40608
607.534	10630.1636
607.735	10673.2783
607.936	10602.28856
608.137	10625.63233
608.338	10662.76039
608.539	10686.27505
608.74	10738.77069
608.941	10791.22901
609.142	10747.21471
609.343	10840.18542
609.544	10738.6246
609.745	10785.22077
609.946	10746.1432
610.147	10812.19403
610.348	10751.02777
610.549	10826.85505
610.75	10762.29379
610.95	10751.7101
611.151	10653.13014
611.352	10699.75249
611.553	10662.95216
611.754	10723.58287
611.954	10716.95081
612.155	10817.56921
612.356	10760.0088
612.557	10717.58581
612.757	10783.94102
612.958	10740.28646
613.159	10794.8596
613.359	10701.33557
613.56	10699.58386
613.761	10743.60162
613.961	10712.16666
614.162	10701.91035
614.362	10650.33979
614.563	10696.59188
614.764	10665.51737
614.964	10590.17847
615.165	10590.37638
615.365	10656.76824
615.566	10552.18914
615.766	10551.99926
615.967	10530.223
616.167	10470.84653
616.368	10436.65287
616.568	10402.68791
616.768	10399.7409
616.969	10462.8821
617.169	10360.58729
617.37	10377.17755
617.57	10338.69863
617.77	10338.90685
617.971	10402.81546
618.171	10346.51468
618.371	10280.9998
618.571	10258.39262
618.772	10328.29115
618.972	10282.74983
619.172	10210.66737
619.372	10238.2013
619.573	10170.80299
619.773	10211.26581
619.973	10129.58669
620.173	10071.10971
620.373	10101.17537
620.573	10148.21268
620.774	10151.50657
620.974	10132.69906
621.174	10012.20654
621.374	10000.96492
621.574	10057.1496
621.774	10029.67383
621.974	10037.84702
622.174	9974.86556
622.374	9993.34121
622.574	10011.7922
622.774	10001.07395
622.974	9986.10554
623.174	9996.10259
623.374	10021.9825
623.574	10002.95292
623.774	9922.91547
623.973	9976.22787
624.173	10034.10086
624.373	9899.47005
624.573	9878.05438
624.773	9958.86802
624.973	9911.56084
625.172	9999.52257
625.372	9921.55076
625.572	9794.3488
625.772	9821.40808
625.971	9795.81434
626.171	9845.35731
626.371	9820.53285
626.57	9789.85171
626.77	9824.90486
626.97	9749.39596
627.169	9770.11592
627.369	9695.28146
627.569	9702.59607
627.768	9674.94378
627.968	9624.7287
628.167	9596.00636
628.367	9570.89333
628.566	9598.84189
628.766	9546.5574
628.965	9604.39575
629.165	9487.15822
629.364	9517.0579
629.564	9442.4134
629.763	9521.66358
629.963	9462.41691
630.162	9404.28817
630.362	9388.254
630.561	9452.56087
630.76	9353.66197
630.96	9409.66443
631.159	9349.52203
631.358	9244.91926
631.558	9327.07882
631.757	9253.53727
631.956	9174.87987
632.155	9129.57841
632.355	9142.36822
632.554	9062.03807
632.753	9086.65632
632.952	9006.40235
633.152	8983.23649
633.351	8942.21725
633.55	8938.45964
633.749	8984.16335
633.948	9009.54162
634.147	8921.48307
634.346	8893.1223
634.545	8971.84152
634.744	8976.05843
634.944	9011.83448
635.143	8805.83442
635.342	8730.31193
635.541	8802.72433
635.74	8785.02046
635.939	8740.44558
636.138	8823.8864
636.336	8710.10128
636.535	8779.54432
636.734	8671.23306
636.933	8695.78212
637.132	8681.8035
637.331	8716.81596
637.53	8716.13596
637.729	8715.44728
637.928	8572.61861
638.126	8697.83579
638.325	8641.16159
638.524	8670.7675
638.723	8665.85598
638.921	8694.93613
639.12	8632.18022
639.319	8663.61825
639.518	8700.48912
639.716	8601.72212
639.915	8634.04674
640.114	8651.4111
640.312	8641.0368
640.511	8610.85967
640.71	8617.6234
640.908	8711.54886
641.107	8531.23925
641.305	8655.7804
641.504	8617.50855
641.702	8635.7796
641.901	8546.96767
642.099	8578.2324
642.298	8590.75606
642.496	8532.40255
642.695	8511.74378
642.893	8567.66269
643.092	8565.61475
643.29	8558.27107
643.489	8486.83427
643.687	8430.21037
643.885	8433.93547
644.084	8520.02494
644.282	8540.65099
644.48	8477.11527
644.679	8499.76693
644.877	8485.87141
645.075	8528.80068
645.274	8586.70174
645.472	8432.08219
645.67	8489.24104
645.868	8338.91457
646.067	8485.03867
646.265	8383.35291
646.463	8353.9044
646.661	8267.06
646.859	8326.60479
647.057	8322.09941
647.256	8290.98185
647.454	8267.03453
647.652	8225.24895
647.85	8199.02163
648.048	8130.6907
648.246	8067.95473
648.444	8079.14055
648.642	7992.45957
648.84	8044.82634
649.038	7957.79977
649.236	7922.47612
649.434	7926.97107
649.632	7857.72256
649.83	7763.88731
650.028	7764.51011
650.226	7780.84781
650.423	7670.88644
650.621	7668.34168
650.819	7645.12426
651.017	7628.12003
651.215	7536.13513
651.413	7528.23673
651.61	7500.68527
651.808	7462.75873
652.006	7447.28725
652.204	7404.33062
652.401	7299.81944
652.599	7304.14086
652.797	7256.96028
652.995	7305.50397
653.192	7256.98198
653.39	7231.87611
653.588	7124.55602
653.785	7150.01638
653.983	7015.34247
654.18	6992.6254
654.378	7055.6632
654.576	6947.00254
654.773	6956.78687
654.971	6940.56335
655.168	6958.32107
655.366	6866.46949
655.563	6808.4916
655.761	6932.23609
655.958	6806.45724
656.156	6677.47082
656.353	6812.08976
656.55	6783.28794
656.748	6733.19052
656.945	6682.52043
657.143	6635.32782
657.34	6686.42952
657.537	6684.09764
657.735	6584.04855
657.932	6522.62715
658.129	6527.41662
658.326	6483.19714
658.524	6444.90927
658.721	6365.57867
658.918	6422.01745
659.115	6385.90794
659.313	6323.4541
659.51	6334.01042
659.707	6295.38705
659.904	6340.71405
660.101	6336.59252
660.298	6285.56534
660.496	6267.04177
660.693	6323.50302
660.89	6292.63423
661.087	6363.20116
661.284	6274.97362
661.481	6289.30529
661.678	6384.74924
661.875	6427.10904
662.072	6329.48962
662.269	6302.54529
662.466	6249.76294
662.663	6247.45926
662.86	6209.56819
663.057	6347.32288
663.254	6237.89527
663.45	6281.06059
663.647	6212.57487
663.844	6285.6982
664.041	6286.12579
664.238	6284.20332
664.435	6262.9871
664.631	6267.70487
664.828	6280.44177
665.025	6319.55249
665.222	6279.82863
665.419	6327.91663
665.615	6331.69666
665.812	6337.73898
666.009	6324.89151
666.205	6301.82156
666.402	6450.67274
666.599	6388.49146
666.795	6391.14487
666.992	6394.56493
667.188	6452.56665
667.385	6442.20831
667.582	6463.51751
667.778	6558.37432
667.975	6517.45917
668.171	6452.19436
668.368	6498.47465
668.564	6519.92814
668.761	6503.40047
668.957	6495.7457
669.154	6517.729
669.35	6492.27081
669.547	6496.989
669.743	6554.52268
669.939	6514.05865
670.136	6554.6732
670.332	6522.33692
670.528	6579.91392
670.725	6526.75273
670.921	6497.8404
671.117	6467.19665
671.314	6480.18444
671.51	6495.73861
671.706	6448.0164
671.902	6376.88934
672.099	6393.47071
672.295	6409.28502
672.491	6432.11048
672.687	6431.91513
672.883	6463.66444
673.08	6339.73053
673.276	6407.21227
673.472	6366.18791
673.668	6362.70345
673.864	6240.17427
674.06	6279.74096
674.256	6287.88811
674.452	6357.22138
674.648	6294.23569
674.844	6263.05853
675.04	6233.26189
675.236	6217.41335
675.432	6242.42745
675.628	6134.31144
675.824	6129.60651
676.02	6149.59269
676.216	6155.50189
676.412	6179.03291
676.608	6127.78703
676.804	6071.48939
676.999	6038.36852
677.195	6053.22233
677.391	6006.23606
677.587	6012.69714
677.783	6020.96549
677.978	6023.86828
678.174	5938.15175
678.37	6007.81681
678.566	5972.41888
678.761	6008.20742
678.957	5964.5508
679.153	5986.79294
679.348	5983.82762
679.544	5992.27591
679.74	6015.45611
679.935	5964.55021
680.131	5994.05011
680.327	5984.9329
680.522	5954.218
680.718	5886.51778
680.913	5912.29042
681.109	5957.24333
681.304	5865.96989
681.5	5849.38718
681.695	5823.40173
681.891	5771.45033
682.086	5849.90319
682.282	5809.02221
682.477	5758.33048
682.672	5719.62729
682.868	5685.97998
683.063	5680.19595
683.259	5716.16208
683.454	5739.83737
683.649	5700.15502
683.845	5636.81892
684.04	5736.95062
684.235	5642.25868
684.43	5607.50224
684.626	5612.80815
684.821	5696.874
685.016	5580.44697
685.211	5686.87714
685.407	5636.98641
685.602	5603.28779
685.797	5547.54767
685.992	5556.90934
686.187	5543.72713
686.382	5478.60019
686.577	5382.44755
686.773	5353.51594
686.968	5470.54053
687.163	5419.32594
687.358	5435.50153
687.553	5408.82948
687.748	5422.2655
687.943	5332.99731
688.138	5308.61835
688.333	5260.43627
688.528	5215.75218
688.723	5150.957
688.918	5216.92765
689.112	5114.04042
689.307	5029.64604
689.502	5028.77511
689.697	4935.17569
689.892	4838.79872
690.087	4844.71591
690.282	4795.25083
690.476	4709.14491
690.671	4731.97513
690.866	4631.82641
691.061	4628.21632
691.255	4562.02042
691.45	4533.10605
691.645	4499.52098
691.84	4457.35001
692.034	4400.57908
692.229	4341.36109
692.424	4378.78951
692.618	4347.93591
692.813	4323.76122
693.007	4178.32028
693.202	4249.21791
693.397	4244.70449
693.591	4190.55993
693.786	4168.66798
693.98	4089.22954
694.175	4075.37025
694.369	4011.91154
694.564	4037.02325
694.758	4020.11966
694.953	3944.36928
695.147	3896.34388
695.342	3855.44721
695.536	3914.79697
695.73	3839.16793
695.925	3765.94122
696.119	3715.34692
696.313	3698.45107
696.508	3716.33502
696.702	3582.33766
696.896	3585.0339
697.091	3485.04654
697.285	3597.51178
697.479	3538.87697
697.673	3484.91863
697.868	3521.72509
698.062	3465.5303
698.256	3525.70224
698.45	3493.76917
698.644	3607.13807
698.839	3580.83476
699.033	3628.98897
699.227	3632.86879
699.421	3622.43311
699.615	3660.289
699.809	3667.76608
700.003	3647.04071
700.197	3739.80105
700.391	3757.94942
700.585	3712.15893
700.779	3777.47775
700.973	3774.77066
701.167	3725.39875
701.361	3793.48645
701.555	3735.50028
701.749	3730.61308
701.943	3600.47353
702.137	3738.88011
702.331	3744.64112
702.525	3738.70321
702.718	3695.98281
702.912	3671.95791
703.106	3611.21825
703.3	3719.39142
703.494	3646.43276
703.687	3684.67124
703.881	3670.43781
704.075	3722.96562
704.269	3765.24381
704.462	3664.28306
704.656	3687.50569
704.85	3654.52742
705.043	3737.70484
705.237	3753.09985
705.431	3715.05621
705.624	3692.91947
705.818	3748.0182
706.012	3752.57142
706.205	3835.51392
706.399	3787.2754
706.592	3753.5341
706.786	3765.69914
706.979	3705.20705
707.173	3855.42203
707.366	3844.89087
707.56	3810.16978
707.753	3848.70215
707.947	3848.18693
708.14	3819.37259
708.333	3856.2877
708.527	3818.93831
708.72	3836.97112
708.914	3888.08391
709.107	3884.918
709.3	3934.3631
709.494	3833.05097
709.687	3876.64474
709.88	3850.05673
710.073	3972.57741
710.267	4005.09988
710.46	3996.09443
710.653	3976.69338
710.846	3864.4905
711.04	3976.38684
711.233	4006.20388
711.426	3976.35035
711.619	4018.85175
711.812	4045.86677
712.005	4024.75117
712.198	4031.29463
712.391	4085.70411
712.585	4115.94083
712.778	4096.82454
712.971	4116.60967
713.164	4186.80447
713.357	4143.99965
713.55	4219.23216
713.743	4323.06093
713.936	4304.70106
714.129	4310.57793
714.322	4255.17979
714.514	4268.975
714.707	4374.33445
714.9	4355.60777
715.093	4371.34449
715.286	4441.36545
715.479	4381.95728
715.672	4457.45147
715.864	4395.4242
716.057	4316.02948
716.25	4341.89186
716.443	4400.30649
716.636	4391.85387
716.828	4368.76933
717.021	4368.60452
717.214	4416.98747
717.406	4434.28486
717.599	4379.48565
717.792	4340.03643
717.984	4431.35839
718.177	4372.89094
718.37	4415.66667
718.562	4266.66153
718.755	4319.90283
718.947	4367.60982
719.14	4221.23155
719.333	4161.82989
719.525	4144.01366
719.718	4100.86194
719.91	4036.5362
720.103	3982.16853
720.295	3844.35921
720.487	3738.6551
720.68	3666.08952
720.872	3588.40097
721.065	3507.93091
721.257	3437.10384
721.449	3298.76122
721.642	3316.83549
721.834	3271.01647
722.026	3083.61197
722.219	3050.4912
722.411	2992.54461
722.603	2946.67415
722.796	2922.47774
722.988	2861.74264
723.18	2810.15598
723.372	2751.6004
723.565	2705.7433
723.757	2629.63811
723.949	2619.15947
724.141	2553.01433
724.333	2518.25953
724.525	2467.77589
724.717	2462.85104
724.91	2471.42871
725.102	2511.43994
725.294	2389.73342
725.486	2324.65005
725.678	2399.81879
725.87	2304.64184
726.062	2282.50376
726.254	2215.88828
726.446	2189.89252
726.638	2228.56546
726.83	2164.85803
727.022	2036.02547
727.213	2097.11296
727.405	2082.28067
727.597	2092.35275
727.789	1998.82303
727.981	1994.84924
728.173	1993.43296
728.365	2070.33906
728.556	1984.64279
728.748	2027.48647
728.94	1991.76793
729.132	1981.13075
729.324	2135.90497
729.515	2139.892
729.707	2099.75935
729.899	2118.55851
730.09	2066.00426
730.282	2090.57612
730.474	2035.36728
730.665	2094.0073
730.857	2154.93183
731.049	2116.27285
731.24	2056.9608
731.432	2125.66826
731.623	2068.42471
731.815	2121.48867
732.006	2049.42284
732.198	2023.33165
732.389	2040.07482
732.581	2050.82691
732.772	2023.20528
732.964	2070.59298
733.155	2056.52055
733.347	2091.31069
733.538	2055.80314
733.729	2081.17277
733.921	2131.93216
734.112	2164.70299
734.304	2106.15398
734.495	2128.0742
734.686	2177.80032
734.877	2292.41786
735.069	2252.1226
735.26	2297.67796
735.451	2317.70652
735.643	2424.05677
735.834	2431.37595
736.025	2482.6459
736.216	2470.05011
736.407	2532.88128
736.599	2545.31818
736.79	2637.55368
736.981	2741.97337
737.172	2736.01571
737.363	2775.35864
737.554	2864.63971
737.745	2861.92389
737.936	2970.90559
738.127	2958.7241
738.318	3075.98261
738.509	2961.19026
738.7	3075.22914
738.891	3105.49317
739.082	3148.24278
739.273	3288.82925
739.464	3290.99662
739.655	3317.97584
739.846	3301.89605
740.037	3431.43389
740.228	3470.41065
740.419	3541.95018
740.609	3584.7151
740.8	3518.4766
740.991	3613.8479
741.182	3685.3102
741.373	3719.95151
741.563	3828.4267
741.754	3808.04453
741.945	3822.423
742.136	4006.69894
742.326	3844.60926
742.517	3927.72333
742.708	3958.31218
742.898	4084.76981
743.089	4069.47332
743.28	4146.33756
743.47	4185.67021
743.661	4197.24893
743.851	4336.11296
744.042	4214.00163
744.233	4174.03888
744.423	4242.18651
744.614	4237.26848
744.804	4336.37161
744.995	4288.26829
745.185	4354.9623
745.376	4428.78226
745.566	4518.00921
745.756	4499.74081
745.947	4531.42744
746.137	4643.36398
746.328	4665.72472
746.518	4605.77898
746.708	4699.45935
746.899	4676.10445
747.089	4765.53268
747.279	4736.39904
747.47	4760.68872
747.66	4790.40469
747.85	4822.58849
748.04	4779.66212
748.231	4825.01176
748.421	4828.94918
748.611	4890.11109
748.801	4866.65911
748.991	4857.61982
749.182	4870.29398
749.372	4822.6535
749.562	4817.86497
749.752	4932.63283
749.942	4912.16463
750.132	4949.75752
750.322	4983.12044
750.512	4957.08961
750.702	4958.6481
750.892	4963.97567
751.082	4937.39453
751.272	5000.92953
751.462	5067.29592
751.652	5058.10756
751.842	4968.80192
752.032	5066.60736
752.222	5054.49757
752.412	5047.27311
752.602	4963.30895
752.792	5020.25418
752.981	5009.5756
753.171	5027.33769
753.361	4959.52603
753.551	4971.60018
753.741	5021.55848
753.93	4970.78235
754.12	5011.3165
754.31	4911.37059
754.5	4991.08783
754.689	4970.56357
754.879	4957.72762
755.069	4838.69374
755.258	4985.29734
755.448	5016.23366
755.638	4928.79939
755.827	5014.09781
756.017	4939.27731
756.206	4966.80172
756.396	4874.7467
756.586	4943.0934
756.775	4906.55069
756.965	4898.67214
757.154	4887.90067
757.344	4846.7775
757.533	4829.35519
757.723	4789.71834
757.912	4809.55705
758.101	4847.19819
758.291	4752.97542
758.48	4798.05765
758.67	4742.58032
758.859	4724.58355
759.048	4835.58569
759.238	4756.78653
759.427	4738.81722
759.616	4795.45722
759.806	4711.48467
759.995	4669.88236
760.184	4623.80797
760.373	4657.00811
760.563	4670.78075
760.752	4576.33816
760.941	4540.31215
761.13	4463.96143
761.319	4383.0133
761.509	4417.40195
761.698	4213.27367
761.887	4234.14746
762.076	4049.95521
762.265	3968.01799
762.454	3762.13264
762.643	3707.81652
762.832	3610.75614
763.021	3482.93715
763.21	3412.36991
763.399	3215.82602
763.588	3099.58173
763.777	2984.36465
763.966	2838.59733
764.155	2787.05753
764.344	2704.42072
764.533	2580.96547
764.722	2490.13338
764.911	2387.43397
765.1	2232.36807
765.288	2155.45832
765.477	2033.68955
765.666	1939.81424
765.855	1930.16221
766.044	1785.76726
766.232	1637.40593
766.421	1627.47838
766.61	1470.0875
766.799	1419.14526
766.987	1327.12566
767.176	1318.58753
767.365	1247.33074
767.553	1149.50772
767.742	1097.00454
767.931	996.48377
768.119	934.18035
768.308	909.01277
768.497	930.25597
768.685	842.42563
768.874	810.0634
769.062	897.90744
769.251	788.22267
769.439	852.40554
769.628	837.82285
769.816	911.5393
770.005	892.35741
770.193	1004.6266
770.382	910.08713
770.57	1032.68458
770.758	1090.81827
770.947	1118.20968
771.135	1231.6054
771.323	1216.7509
771.512	1265.45583
771.7	1324.04816
771.888	1344.91651
772.077	1446.92904
772.265	1536.6083
772.453	1480.44424
772.642	1612.9116
772.83	1625.75346
773.018	1718.26921
773.206	1773.43591
773.394	1896.83013
773.583	1963.15829
773.771	1984.16259
773.959	2105.99111
774.147	2132.40317
774.335	2330.76961
774.523	2353.63142
774.711	2466.64462
774.899	2437.2122
775.087	2597.90406
775.275	2551.07108
775.463	2721.78618
775.651	2695.97758
775.839	2826.10511
776.027	2850.08873
776.215	2904.20331
776.403	2863.27839
776.591	2969.34473
776.779	2939.31816
776.967	3035.41561
777.155	3124.39299
777.343	3188.558
777.531	3177.54199
777.718	3157.86956
777.906	3135.29409
778.094	3196.2624
778.282	3156.80869
778.47	3216.26319
778.657	3261.96545
778.845	3229.17075
779.033	3271.28478
779.22	3233.0928
779.408	3309.21484
779.596	3268.3021
779.783	3291.78604
779.971	3370.61641
780.159	3247.27624
780.346	3345.24061
780.534	3327.61213
780.722	3360.27057
780.909	3408.30658
781.097	3309.13009
781.284	3374.3914
781.472	3288.49917
781.659	3298.14952
781.847	3379.11097
782.034	3256.10325
782.222	3343.12387
782.409	3257.94266
782.597	3235.8121
782.784	3271.23319
782.971	3225.38667
783.159	3181.18695
783.346	3219.62811
783.533	3172.40699
783.721	3133.77364
783.908	3152.76496
784.095	3158.9852
784.283	3183.37829
784.47	3155.63306
784.657	3079.78294
784.844	3204.21043
785.032	3114.95905
785.219	3126.61004
785.406	3101.99312
785.593	3125.08037
785.78	3056.18028
785.968	3118.752
786.155	3082.68648
786.342	3049.87621
786.529	3012.57453
786.716	3018.85778
786.903	2989.73729
787.09	2904.6378
787.277	2899.06825
787.464	2907.55247
787.651	2819.96763
787.838	2840.55509
788.025	2853.00988
788.212	2872.65992
788.399	2828.81186
788.586	2758.75414
788.773	2804.211
788.96	2849.0546
789.147	2843.78223
789.334	2759.2619
789.521	2810.85721
789.707	2711.8993
789.894	2766.59039
790.081	2714.74576
790.268	2700.71798
790.455	2642.91715
790.641	2517.72976
790.828	2623.81905
791.015	2575.49943
791.202	2610.59669
791.388	2593.0642
791.575	2582.60909
791.762	2436.49768
791.948	2474.7412
792.135	2403.14322
792.322	2360.54475
792.508	2327.02558
792.695	2319.88534
792.881	2325.88084
793.068	2360.95129
793.254	2308.4372
793.441	2266.60699
793.627	2202.39292
793.814	2211.37224
794	2199.79305
794.187	2128.02857
794.373	2157.54676
794.56	2204.13385
794.746	2180.10824
794.933	2208.02982
795.119	2089.0997
795.305	2071.6633
795.492	2065.02949
795.678	2071.37782
795.864	2053.10475
796.051	2154.02777
796.237	2076.53139
796.423	2044.18252
796.61	1970.28938
796.796	1985.78674
796.982	1929.04715
797.168	1931.43099
797.355	1945.56683
797.541	1952.9335
797.727	1915.0488
797.913	1884.98471
798.099	1849.99612
798.285	1926.87099
798.471	1946.08116
798.658	1925.21636
798.844	1881.15144
799.03	1858.70756
799.216	1827.74766
799.402	1959.47241
799.588	1872.24111
799.774	1869.21013
799.96	1806.21934
800.146	1845.52257
800.332	1801.15914
800.518	1806.59689
800.704	1772.8062
800.89	1746.80041
801.075	1716.40392
801.261	1732.36843
801.447	1709.20322
801.633	1706.63269
801.819	1750.06353
802.005	1653.52586
802.19	1754.86307
802.376	1682.15019
802.562	1641.62355
802.748	1727.51542
802.934	1713.61652
803.119	1622.89932
803.305	1761.5956
803.491	1690.00353
803.676	1587.01537
803.862	1673.02811
804.048	1539.72757
804.233	1685.87729
804.419	1640.13662
804.605	1668.62743
804.79	1698.55254
804.976	1566.97213
805.161	1625.86639
805.347	1567.31741
805.532	1569.26341
805.718	1518.27952
805.903	1623.38355
806.089	1602.2062
806.274	1489.78011
806.46	1591.31234
806.645	1545.50448
806.831	1576.64207
807.016	1553.07506
807.201	1548.85202
807.387	1608.26403
807.572	1511.10178
807.757	1564.63957
807.943	1579.94632
808.128	1531.84237
808.313	1546.49148
808.499	1466.57284
808.684	1537.33893
808.869	1547.64575
809.054	1524.26554
809.24	1501.83552
809.425	1601.69605
809.61	1535.62589
809.795	1520.82491
809.98	1455.19879
810.165	1518.65438
810.35	1492.42282
810.536	1538.01857
810.721	1495.52779
810.906	1523.80165
811.091	1463.25265
811.276	1519.26817
811.461	1394.15942
811.646	1417.38229
811.831	1450.8864
812.016	1418.09377
812.201	1364.03313
812.386	1444.51313
812.571	1367.54843
812.756	1373.39681
812.941	1371.10795
813.125	1334.47927
813.31	1417.63982
813.495	1337.97363
813.68	1336.92655
813.865	1366.94201
814.05	1323.34671
814.234	1333.75313
814.419	1375.87156
814.604	1310.92947
814.789	1287.96391
814.973	1185.35469
815.158	1276.87222
815.343	1246.79759
815.528	1131.61291
815.712	1141.45819
815.897	1124.7083
816.081	1052.41136
816.266	1036.13373
816.451	1032.62715
816.635	929.70278
816.82	891.80639
817.004	845.47674
817.189	843.89241
817.374	912.10271
817.558	778.8177
817.743	734.86049
817.927	739.79
818.111	728.84245
818.296	626.56995
818.48	697.35847
818.665	662.65099
818.849	554.1609
819.034	525.76283
819.218	577.54896
819.402	544.53439
819.587	546.53562
819.771	490.84648
819.955	430.07587
820.14	490.54863
820.324	462.16728
820.508	486.00107
820.692	473.3955
820.877	480.30706
821.061	369.65707
821.245	497.49868
821.429	429.75217
821.613	346.2477
821.798	379.67555
821.982	300.75534
822.166	354.57989
822.35	343.77978
822.534	347.75099
822.718	360.86502
822.902	317.15622
823.086	335.89766
823.27	263.54516
823.454	227.89948
823.638	263.90766
823.822	329.62582
824.006	353.93503
824.19	251.46079
824.374	354.06793
824.558	233.48403
824.742	233.76484
824.926	299.98266
825.11	210.74831
825.294	235.67847
825.477	252.00401
825.661	190.92643
825.845	248.01519
826.029	200.27299
826.213	234.26647
826.396	147.6894
826.58	290.29197
826.764	176.25061
826.948	174.04676
827.131	186.21204
827.315	229.96616
827.499	205.06163
827.682	259.44202
827.866	246.81102
828.05	198.83129
828.233	210.49176
828.417	277.92902
828.6	251.2587
828.784	236.87405
828.967	209.96001
829.151	248.32597
829.335	230.71934
829.518	232.4813
829.701	228.89876
829.885	210.68487
830.068	280.76844
830.252	243.12594
830.435	204.14743
830.619	240.97253
830.802	196.99717
830.985	252.27197
831.169	271.39902
831.352	245.02496
831.535	166.03371
831.719	218.20947
831.902	299.01347
832.085	268.56186
832.269	243.17503
832.452	248.97772
832.635	269.18617
832.818	266.34593
833.002	256.72132
833.185	273.14577
833.368	236.70764
833.551	253.02369
833.734	270.93525
833.917	270.56683
834.1	232.79819
834.284	220.1121
834.467	213.921
834.65	231.25964
834.833	280.77153
835.016	188.93747
835.199	287.14981
835.382	193.65185
835.565	152.1367
835.748	273.10356
835.931	231.29133
836.114	227.96917
836.297	190.56374
836.479	278.46552
836.662	241.68002
836.845	262.82934
837.028	250.58877
837.211	207.30145
837.394	230.7725
837.577	253.75644
837.759	201.51778
837.942	239.52733
838.125	215.98708
838.308	277.8969
838.49	233.15973
838.673	186.00603
838.856	187.92361
839.039	157.79833
839.221	364.53727
839.404	286.19459
839.587	292.10454
839.769	168.79766
839.952	368.93898
840.134	321.93446
840.317	252.54905
840.499	286.36418
840.682	326.0578
840.865	343.20761
841.047	255.43727
841.23	317.97239
841.412	311.76512
841.595	372.05801
841.777	301.40316
841.959	357.20845
842.142	365.10648
842.324	283.39994
842.507	328.40043
842.689	258.66959
842.871	242.91056
843.054	250.03005
843.236	332.3513
843.418	251.04053
843.601	332.95938
843.783	349.33781
843.965	330.43108
844.147	338.2075
844.33	291.05145
844.512	301.83169
844.694	395.03649
844.876	235.30189
845.059	288.95862
845.241	243.69303
845.423	299.3597
845.605	270.50266
845.787	303.74886
845.969	258.95597
846.151	293.66925
846.333	358.89326
846.515	323.59678
846.697	469.31821
846.879	337.60669
847.061	320.99627
847.243	345.23604
847.425	308.59769
847.607	355.42891
847.789	365.0831
847.971	353.95442
848.153	314.29861
848.335	351.27976
848.517	291.67988
848.699	379.20471
848.881	349.99699
849.062	274.23232
849.244	313.83897
849.426	312.76699
849.608	307.21914
849.789	244.18656
849.971	292.38327
850.153	356.16483
850.335	356.69324
850.516	281.47236
850.698	254.75681
850.88	353.18255
851.061	265.54887
851.243	315.55445
851.425	277.11193
851.606	266.96209
851.788	216.18298
851.969	278.69127
852.151	290.0271
852.333	292.77607
852.514	274.186
852.696	307.46721
852.877	319.76716
853.059	368.35466
853.24	303.10538
853.422	298.04433
853.603	270.18266
853.784	258.23746
853.966	230.5753
854.147	260.99811
854.329	282.2824
854.51	209.47753
854.691	195.30249
854.873	304.04793
855.054	287.49089
855.235	226.19063
855.416	170.07114
855.598	281.86182
855.779	274.34305
855.96	228.30477
856.141	263.16485
856.323	255.36823
856.504	227.18091
856.685	171.74905
856.866	247.94008
857.047	141.63926
857.228	286.29712
857.409	209.83723
857.591	223.63332
857.772	196.73338
857.953	234.37472
858.134	183.2789
858.315	124.52273
858.496	124.32648
858.677	147.40172
858.858	199.85381
859.039	178.97998
859.22	140.98221
859.401	102.18975
859.582	159.82859
859.762	133.89815
859.943	212.65191
860.124	108.16823
860.305	190.31371
860.486	38.41801
860.667	205.89167
860.848	162.33804
861.028	195.85826
861.209	173.64887
861.39	153.88204
861.571	201.26076
861.751	168.53785
861.932	142.62027
862.113	165.22493
862.293	103.33112
862.474	143.66989
862.655	97.29285
862.835	165.82582
863.016	243.01482
863.197	154.49213
863.377	226.93813
863.558	179.53312
863.738	207.58267
863.919	80.24842
864.099	206.28137
864.28	184.48554
864.46	210.09185
864.641	146.13489
864.821	188.81042
865.002	161.89541
865.182	121.30221
865.363	117.99665
865.543	142.68596
865.723	117.15145
865.904	159.12596
866.084	101.38475
866.264	115.13206
866.445	169.29873
866.625	135.77879
866.805	162.61032
866.986	113.1109
867.166	120.67346
867.346	133.97563
867.526	149.92947
867.707	145.92921
867.887	213.90407
868.067	136.20098
868.247	174.37975
868.427	119.98747
868.607	164.83611
868.788	125.80388
868.968	81.87026
869.148	95.38602
869.328	112.25361
869.508	126.03851
869.688	164.49354
869.868	214.82145
870.048	146.94699
870.228	178.9791
870.408	127.19196
870.588	112.3172
870.768	185.42289
870.948	173.8489
871.128	158.71625
871.307	46.01197
871.487	77.03457
871.667	107.6409
871.847	87.00345
872.027	154.71192
872.207	66.62714
872.387	172.54117
872.566	101.8994
872.746	160.11526
872.926	94.84675
873.106	133.27978
873.285	91.09086
873.465	121.27655
873.645	194.43633
873.824	139.48331
874.004	82.84385
874.184	148.56993
874.363	75.31132
874.543	132.77458
874.723	177.05046
874.902	36.51858
875.082	120.20503
875.261	100.41659
875.441	25.44851
875.62	108.87337
875.8	48.48894
875.979	59.36423
876.159	36.30651
876.338	155.13261
876.518	96.01401
876.697	15.26144
876.876	123.77715
877.056	144.87912
877.235	-6.65041
877.415	119.12532
877.594	11.28353
877.773	108.49447
877.953	29.25239
878.132	55.64963
878.311	91.18498
878.49	134.06412
878.67	102.25108
878.849	117.11652
879.028	28.7843
879.207	154.50406
879.387	69.14445
879.566	119.36817
879.745	43.63568
879.924	101.34292
880.103	58.04858
880.282	137.12745
880.461	27.25454
880.64	154.0945
880.819	94.27717
880.998	155.17831
881.178	137.62672
881.357	51.87292
881.536	119.85263
881.715	22.15774
881.893	56.97757
882.072	122.52242
882.251	40.10542
882.43	33.44879
882.609	109.4339
882.788	73.44582
882.967	76.11156
883.146	145.92202
883.325	9.50189
883.503	84.08725
883.682	23.68726
883.861	127.0075
884.04	95.88238
884.219	8.40947
884.397	43.67554
884.576	-9.10584
884.755	100.98401
884.933	-0.01844
885.112	-1.11707
885.291	35.93766
885.469	92.58369
885.648	75.475
885.827	19.49202
886.005	16.60993
886.184	36.79253
886.363	76.09566
886.541	13.50026
886.72	25.25729
886.898	30.80429
887.077	17.9368
887.255	32.57813
887.434	134.6415
887.612	96.81608
887.791	18.86257
887.969	73.89722
888.147	57.66972
888.326	16.17223
888.504	72.56958
888.682	65.23578
888.861	43.02368
889.039	-2.01671
889.218	7.96119
889.396	5.07548
889.574	70.54274
889.752	115.44447
889.931	96.39258
890.109	57.26987
890.287	39.27927
890.465	55.26615
890.643	47.49462
890.822	4.88099
891	78.16697
891.178	74.81107
891.356	29.50432
891.534	87.50168
891.712	57.04716
891.89	53.49114
892.068	85.72894
892.247	48.60711
892.425	53.26691
892.603	38.16237
892.781	61.47504
892.959	23.51131
893.137	71.71267
893.314	15.97215
893.492	46.82072
893.67	-28.14198
893.848	43.49235
894.026	160.25209
894.204	74.34127
894.382	7.75417
894.56	54.13229
894.738	32.37953
894.915	92.13245
895.093	47.25842
895.271	-2.21681
895.449	58.16514
895.626	-42.77897
895.804	5.53977
895.982	29.07562
896.16	33.06899
896.337	32.62019
896.515	80.18198
896.693	10.86443
896.87	-35.26461
897.048	50.40623
897.225	37.06034
897.403	3.76391
897.581	2.43489
897.758	-20.18601
897.936	-18.86049
898.113	13.97904
898.291	39.08499
898.468	105.14609
898.646	-50.97829
898.823	-27.27161
899.001	-14.19005
899.178	99.32178
899.356	-13.30976
899.533	99.55333
899.71	28.18648
899.888	63.73223
900.065	-2.87711
900.242	-36.79633
900.42	5.99308
900.597	57.29534
900.774	22.40924
900.952	21.96325
901.129	35.98288
901.306	-17.53341
901.483	-43.70035
901.661	6.43586
901.838	-56.56511
902.015	70.67566
902.192	22.64312
902.369	-15.10072
902.546	103.16698
902.723	15.75808
902.901	32.19555
903.078	78.65781
903.255	-22.40461
903.432	15.30644
903.609	44.85905
903.786	82.68933
903.963	-3.33894
904.14	-50.79925
904.317	-1.78756
904.494	5.54133
904.671	-36.4085
904.848	-15.33322
905.024	14.88214
905.201	45.12802
905.378	-11.32907
905.555	-17.98991
905.732	-57.05263
905.909	15.33929
906.086	-42.19035
906.262	-41.29491
906.439	64.92429
906.616	-57.92909
906.793	7.32549
906.969	55.35105
907.146	61.57447
907.323	19.32151
907.5	-46.84478
907.676	7.09313
907.853	-45.27751
908.03	13.30731
908.206	32.63855
908.383	37.98068
908.559	45.52969
908.736	46.63939
908.912	-64.78551
909.089	-63.69497
909.266	-14.24853
909.442	-115.03011
909.619	69.76579
909.795	-19.57729
909.972	-4.9275
910.148	-45.98953
910.324	35.76423
910.501	-14.24342
910.677	-45.77031
910.854	38.23232
911.03	-37.33676
911.206	54.02924
911.383	-28.88211
911.559	-89.45919
911.735	-2.66321
911.912	-19.76923
912.088	-31.09762
912.264	9.56508
912.44	-13.11448
912.617	-95.41585
912.793	68.29413
912.969	7.55621
913.145	-35.97465
913.321	6.66505
913.498	-32.41907
913.674	60.68873
913.85	-3.12319
914.026	-46.40914
914.202	47.54807
914.378	29.77099
914.554	-21.79263
914.73	-10.69248
914.906	-46.88607
915.082	-24.68807
915.258	11.98038
915.434	-38.6642
915.61	-14.45023
915.786	37.80989
915.962	-23.10846
916.138	-4.66358
916.314	-27.09871
916.49	-56.62893
916.665	-35.98175
916.841	-49.29124
917.017	-68.82496
917.193	31.56094
917.369	7.54523
917.545	0.8763
917.72	-66.41179
917.896	-35.1428
918.072	-30.47783
918.247	-13.58941
918.423	-52.22444
918.599	51.81398
918.775	-78.63223
918.95	-26.23889
919.126	14.44319
919.301	-70.17724
919.477	5.52952
919.653	-33.11281
919.828	-13.99682
920.004	-42.40591
920.179	36.66868
920.355	-43.95336
920.53	-14.67686
920.706	-22.88614
920.881	-78.11999
921.057	-21.55644
921.232	-21.32888
921.408	-6.00495
921.583	3.77058
921.759	-2.89246
921.934	-39.7462
922.109	17.1039
922.285	-20.87528
922.46	-11.97789
922.635	-114.14004
922.811	-17.97339
922.986	24.2265
923.161	-52.14925
923.336	-77.41723
923.512	-78.74294
923.687	13.11403
923.862	-40.18968
924.037	52.27831
924.212	0.23014
924.388	-4.88863
924.563	-90.30721
924.738	27.34637
924.913	-16.88599
925.088	-32.20081
925.263	6.6666
925.438	-85.67293
925.613	-36.42724
925.788	-69.46828
925.963	-29.32003
926.138	0.21409
926.313	-39.30813
926.488	0.65322
926.663	5.54019
926.838	-10.89763
927.013	12.20048
927.188	56.21173
927.363	44.87127
927.538	0.42375
927.713	49.76381
927.888	27.52507
928.062	35.53814
928.237	19.76979
928.412	26.21488
928.587	-10.01314
928.761	-33.99027
928.936	13.55602
929.111	19.56215
929.286	-19.34153
929.46	-33.53782
929.635	-11.32687
929.81	22.67106
929.984	-7.10632
930.159	15.32766
930.334	-13.98632
930.508	133.37254
930.683	1.99981
930.857	-31.53461
931.032	31.56902
931.206	33.34966
931.381	25.12554
931.556	-25.5428
931.73	-21.77052
931.904	23.78912
932.079	9.55801
932.253	-50.44274
932.428	-93.74486
932.602	-14.92173
932.777	-40.91831
932.951	-15.14339
933.125	-88.39943
933.3	-84.41137
933.474	-23.80637
933.648	8.21585
933.823	-99.26723
933.997	12.44301
934.171	-26.701
934.345	53.12993
934.52	-22.0062
934.694	-2.23935
934.868	-32.2149
935.042	9.7597
935.217	41.33525
935.391	32.43638
935.565	10.19991
935.739	-16.02517
935.913	21.98834
936.087	-89.25005
936.261	-60.88214
936.435	1.54964
936.609	-36.68676
936.783	-53.34327
936.957	-42.90649
937.131	-15.13182
937.305	-15.12807
937.479	-7.34397
937.653	56.97296
937.827	16.00852
938.001	-62.64789
938.175	-24.88889
938.349	-50.66034
938.523	-31.33628
938.697	-2.67447
938.87	-24.6777
939.044	-53.98488
939.218	-41.34776
939.392	-16.46343
939.566	9.76676
939.739	-113.4596
939.913	-54.68039
940.087	-0.91042
940.261	-148.38687
940.434	31.33931
940.608	-57.76314
940.782	-71.74503
940.955	-42.90396
941.129	-34.00507
941.302	-66.3996
941.476	24.89387
941.65	-91.65725
941.823	-33.5513
941.997	34.67876
942.17	-4.91205
942.344	-39.56865
942.517	-68.43121
942.691	-80.42747
942.864	-147.80352
943.038	-70.22815
943.211	-149.58998
943.385	-109.04262
943.558	-60.23411
943.731	-89.07854
943.905	-28.22983
944.078	-70.42365
944.251	-41.55751
944.425	-72.42395
944.598	-48.88234
944.771	-11.33085
944.945	63.41954
945.118	-28.45102
945.291	-54.42447
945.464	-35.55104
945.638	-4.89583
945.811	-13.11592
945.984	-57.75027
946.157	-21.56062
946.33	27.56873
946.503	-76.58074
946.677	-1.11485
946.85	-79.24895
947.023	-52.63235
947.196	20.45658
947.369	-40.89783
947.542	11.56052
947.715	-29.79265
947.888	-9.34485
948.061	-84.87345
948.234	-152.90275
948.407	-71.36061
948.58	-41.82004
948.753	3.09744
948.926	-68.03046
949.099	-5.56844
949.271	-26.02251
949.444	-69.7643
949.617	-6.24081
949.79	-14.46415
949.963	-29.54919
950.136	-101.43609
950.308	-4.44332
950.481	-31.1067
950.654	-67.51175
950.827	-26.88892
950.999	-109.86517
951.172	-66.85354
951.345	-64.6424
951.517	-83.72255
951.69	-52.22824
951.863	1.99973
952.035	-105.87759
952.208	16.68016
952.381	-1.11248
952.553	26.46992
952.726	14.45392
952.898	-11.11776
953.071	-85.94029
953.243	-25.78068
953.416	-85.03692
953.588	-10.88624
953.761	-5.77421
953.933	-15.55616
954.106	-45.32491
954.278	-11.33524
954.45	-74.84972
954.623	-52.43522
954.795	-38.88194
954.967	-110.75303
955.14	-3.77885
955.312	-2.89068
955.484	12.00625
955.657	-23.77714
955.829	-9.10947
956.001	30.46045
956.173	35.35522
956.346	-39.09357
956.518	-89.64818
956.69	51.59086
956.862	26.67147
957.034	53.59535
957.207	-33.97016
957.379	-4.22148
957.551	56.25939
957.723	-16.88503
957.895	1.54404
958.067	-33.32783
958.239	11.76717
958.411	-26.65865
958.583	34.4527
958.755	-14.89574
958.927	7.76902
959.099	-31.78081
959.271	-9.34703
959.443	4.44451
959.615	-35.56797
959.787	-36.22156
959.959	-11.11806
960.13	-122.07723
960.302	-77.99189
960.474	3.10912
960.646	1.55121
960.818	12.00887
960.99	-168.13969
961.161	-74.42174
961.333	-30.01731
961.505	-74.63333
961.677	-20.45856
961.848	-39.34967
962.02	-19.12541
962.192	-3.99457
962.363	-38.21445
962.535	-0.44533
962.707	-53.55327
962.878	-42.44953
963.05	-19.12263
963.221	-87.28191
963.393	-84.18366
963.564	-82.84962
963.736	40.06538
963.907	-61.99607
964.079	65.66924
964.25	-0.23027
964.422	-126.0328
964.593	-32.00745
964.765	-39.11348
964.936	-5.79772
965.108	-27.35657
965.279	-74.39718
965.45	3.98378
965.622	6.8775
965.793	8.88047
965.964	-68.38577
966.136	-62.63235
966.307	-5.11628
966.478	-11.3419
966.65	-50.4388
966.821	-98.54954
966.992	-26.89153
967.163	-120.07406
967.334	-45.56055
967.506	-56.21034
967.677	-28.0122
967.848	16.44802
968.019	-47.09704
968.19	-1.56276
968.361	-86.16242
968.532	-25.33993
968.703	10.2277
968.874	-28.22424
969.045	-1.33451
969.216	-14.22654
969.387	-30.88429
969.558	28.47415
969.729	-36.44322
969.9	-11.56083
970.071	-16.45396
970.242	-59.76309
970.413	-25.79099
970.584	-34.89795
970.755	-97.45939
970.926	-55.32101
971.097	-88.58258
971.267	-81.48408
971.438	-58.40696
971.609	-77.91433
971.78	-48.43409
971.951	-40.21883
972.121	-59.05323
972.292	-34.2022
972.463	-3.78301
972.633	14.44
972.804	65.62714
972.975	-84.31644
973.145	23.77898
973.316	-31.0961
973.487	-104.71381
973.657	-67.70001
973.828	-27.31634
973.998	-3.55536
974.169	24.89767
974.339	-17.9899
974.51	-42.17238
974.68	-7.34246
974.851	-85.23084
975.021	-57.73817
975.192	-44.43128
975.362	-24.66208
975.533	-16.24417
975.703	20.43781
975.874	-114.55114
976.044	14.65344
976.214	-49.13633
976.385	-41.17491
976.555	-123.23248
976.725	24.88438
976.896	-37.16676
977.066	-15.61025
977.236	15.97146
977.406	-0.03447
977.577	-1.14093
977.747	-51.33167
977.917	-20.46794
978.087	-32.46394
978.257	-26.21094
978.427	8.21765
978.598	1.32403
978.768	30.46553
978.938	-42.44799
979.108	-94.14303
979.278	-19.34428
979.448	-56.43742
979.618	-46.44685
979.788	-48.66268
979.958	-32.67447
980.128	-31.34099
980.298	-35.98717
980.468	6.66396
980.638	2.43872
980.808	-48.65001
980.978	-54.42312
981.148	-89.66508
981.317	-94.53948
981.487	-16.45596
981.657	-24.89624
981.827	-9.79026
981.997	17.33381
982.167	4.65947
982.336	-25.09488
982.506	-76.1367
982.676	-21.11755
982.846	-62.40835
983.015	-12.6789
983.185	-44.89338
983.355	43.59579
983.524	-76.8417
983.694	-51.54488
983.864	-14.46265
984.033	-64.85095
984.203	-51.76181
984.372	61.82166
984.542	60.7086
984.712	26.22035
984.881	-12.88543
985.051	-29.31233
985.22	-38.85826
985.39	-41.07685
985.559	-24.42969
985.728	-4.66238
985.898	13.34081
986.067	-68.39229
986.237	-8.22767
986.406	-4.90106
986.576	-54.45247
986.745	33.37883
986.914	-60.01343
987.084	-65.56084
987.253	-39.80681
987.422	-50.03572
987.591	-86.43996
987.761	-81.77054
987.93	-67.55148
988.099	-77.31237
988.268	22.22804
988.438	-60.42605
988.607	8.21385
988.776	25.78862
988.945	-48.65548
989.114	-36.91194
989.283	-40.23912
989.452	-37.12874
989.621	-119.44806
989.791	-36.24561
989.96	22.25401
990.129	-67.78202
990.298	-54.01127
990.467	-28.0213
990.636	-8.02172
990.805	-22.91684
990.974	-96.0806
991.142	-14.22763
991.311	-82.3608
991.48	3.99024
991.649	-35.31468
991.818	-59.47204
991.987	-93.13645
992.156	-1.33709
992.325	-93.44666
992.493	-59.53096
992.662	38.6839
992.831	-0.90977
993	-34.88891
993.168	6.87439
993.337	-55.2992
993.506	-90.56633
993.675	-31.56206
993.843	21.56005
994.012	-39.7879
994.181	-29.9842
994.349	-73.02407
994.518	-25.10022
994.686	38.02305
994.855	-29.31844
995.024	57.38701
995.192	-20.88303
995.361	31.12173
995.529	-28.86733
995.698	-67.87096
995.866	-63.24231
996.035	-23.53793
996.203	19.78101
996.371	49.82459
996.54	-59.31757
996.708	17.5651
996.877	-55.32901
997.045	-14.68342
997.213	-37.34187
997.382	-1.57562
997.55	-33.13705
997.718	13.77094
997.887	-115.63136
998.055	-45.7752
998.223	-5.57504
998.391	-66.3731
998.56	-8.67459
998.728	-67.49326
998.896	-15.57061
999.064	22.22593
999.232	-60.20807
999.401	11.32467
999.569	-103.87521
999.737	15.09768
999.905	8.20626
1000.073	48.25615
1000.241	-51.54023
1000.409	-9.78832
1000.577	-44.4251
1000.745	24.45029
1000.913	-7.10909
1001.081	-18.21025
1001.249	-63.73223
1001.417	-57.50039
1001.585	47.14745
1001.753	-23.33245
1001.921	-27.55568
1002.089	4.43833
1002.256	-41.98208
1002.424	2.21262
1002.592	-4.67573
1002.76	17.32935
1002.928	3.10161
1003.096	-22.44323
1003.263	19.56518
1003.431	-6.67804
1003.599	5.992
1003.767	17.99929
1003.934	-36.45018
1004.102	-36.90239
1004.27	-51.12447
1004.437	-4.23762
1004.605	-34.02303
1004.773	-1.57022
1004.94	11.10711
1005.108	-66.42157
1005.275	-60.18655
1005.443	-80.16514
1005.61	-22.66618
1005.778	-14.88841
1005.945	-95.45937
1006.113	3.34182
1006.28	-112.94791
1006.448	-26.65926
1006.615	-32.44701
1006.783	-105.69825
1006.95	0.66133
1007.118	24.46924
1007.285	-113.42466
1007.452	-85.27391
1007.62	23.33395
1007.787	12.21252
1007.954	6.65703
1008.122	-53.98789
1008.289	-42.66904
1008.456	-60.18679
1008.623	-36.2042
1008.791	-20.21929
1008.958	2.00185
1009.125	1.33497
1009.292	-36.22381
1009.459	55.01478
1009.627	-32.89618
1009.794	-40.00281
1009.961	-57.98984
1010.128	-44.00524
1010.295	-32.45372
1010.462	21.81547
1010.629	-99.47932
1010.796	-53.32211
1010.963	-55.56153
1011.13	-44.23078
1011.297	24.25429
1011.464	-14.00068
1011.631	-31.78524
1011.798	43.6357
1011.965	11.34819
1012.132	12.23228
1012.299	-81.93137
1012.466	38.04295
1012.633	-36.21823
1012.799	14.45709
1012.966	-55.06598
1013.133	76.11907
1013.3	-79.92571
1013.467	-27.77549
1013.633	11.77873
1013.8	-25.99811
1013.967	0.44287
1014.134	-29.33156
1014.3	-77.69576
1014.467	-72.83657
1014.634	-60.65089
1014.8	-25.12477
1014.967	-58.21948
1015.134	-49.10209
1015.3	-4.67225
1015.467	-51.98027
1015.633	52.52101
1015.8	-26.90109
1015.966	-38.89614
1016.133	-48.67295
1016.3	2.43937
1016.466	-45.09708
1016.632	-33.77434
1016.799	-10.8935
1016.965	-19.78971
1017.132	-40.87969
1017.298	-36.66286
1017.465	39.34889
1017.631	7.54238
1017.797	-51.10897
1017.964	5.54352
1018.13	51.83875
1018.296	-5.11882
1018.463	-28.68693
1018.629	-58.89312
1018.795	-88.62869
1018.961	-77.09509
1019.128	-26.91443
1019.294	-88.38645
1019.46	-48.22716
1019.626	14.2262
1019.792	11.55722
1019.959	-133.79205
1020.125	-105.02313
1020.291	-51.77469
1020.457	-14.4575
1020.623	-54.86082
1020.789	-30.66908
1020.955	-43.56949
1021.121	-51.78919
1021.287	-6.6778
1021.453	-37.56969
1021.619	-62.64228
1021.785	-6.46424
1021.951	-81.70662
1022.117	-0.68624
1022.283	17.32634
1022.449	-48.45582
1022.615	-14.46889
1022.781	-88.33768
1022.946	1.76732
1023.112	30.6906
1023.278	-108.33247
1023.444	-12.89447
1023.61	-82.84972
1023.775	-47.54841
1023.941	-23.55557
1024.107	-71.71862
1024.273	65.62497
1024.438	-4.91022
1024.604	-72.60812
1024.77	-4.91514
1024.935	-31.34592
1025.101	-46.20921
1025.267	6.41405
1025.432	28.64624
1025.598	-83.25218
1025.763	34.42871
1025.929	-8.47727
1026.095	-47.9916
1026.26	10.88911
1026.426	-56.86942
1026.591	-60.86345
1026.757	4.01555
1026.922	-83.71286
1027.087	-54.2068
1027.253	-45.10113
1027.418	-76.60309
1027.584	-57.97016
1027.749	-37.55519
1027.914	-95.22392
1028.08	11.33623
1028.245	-45.766
1028.41	15.78367
1028.576	-36.45047
1028.741	-44.665
1028.906	-29.56927
1029.072	-34.67422
1029.237	-1.80677
1029.402	-9.14472
1029.567	-22.9137
1029.732	-17.36434
1029.898	-38.01562
1030.063	9.75488
1030.228	-38.44515
1030.393	11.75917
1030.558	-22.00306
1030.723	-122.05745
1030.888	-46.01936
1031.053	-66.89456
1031.218	-109.03425
1031.383	-4.22961
1031.548	-53.56068
1031.713	-42.68228
1031.878	-16.90811
1032.043	50.08089
1032.208	-58.44771
1032.373	-10.67898
1032.538	8.66894
1032.703	-9.99954
1032.868	9.34065
1033.033	-45.0883
1033.198	-32.89427
1033.362	-37.55114
1033.527	-63.71766
1033.692	-50.63312
1033.857	-12.45637
1034.021	-27.33806
1034.186	52.71415
1034.351	-62.6432
1034.516	-69.28678
1034.68	-38.90486
1034.845	-70.19968
1035.01	-30.01833
1035.174	-12.26187
1035.339	-53.12596
1035.504	-34.7004
1035.668	-63.34175
1035.833	-93.94764
1035.997	32.00529
1036.162	-61.33614
1036.326	-69.9962
1036.491	-70.20704
1036.655	-6.9151
1036.82	-15.79136
1036.984	-143.11277
1037.149	-14.45161
1037.313	-61.98329
1037.478	4.22672
1037.642	-58.19635
1037.807	31.3701
1037.971	-25.77973
1038.135	2.89182
1038.3	-94.12817
1038.464	-21.33304
1038.628	-20.44205
1038.792	36.93609
1038.957	-64.40792
1039.121	-56.6754
1039.285	-35.13569
1039.449	-60.89771
1039.614	-50.4712
1039.778	-43.13032
1039.942	-44.23859
1040.106	-58.00278
1040.27	-44.46262
1040.434	-67.78492
1040.599	-43.13457
1040.763	-4.90869
1040.927	17.34841
1041.091	-35.57316
1041.255	-92.63366
1041.419	-115.44366
1041.583	-52.45517
1041.747	-90.87443
1041.911	-47.58859
1042.075	-91.11155
1042.239	-13.34663
1042.403	-93.7636
1042.567	-71.7934
1042.731	-50.68922
1042.894	-41.12821
1043.058	-46.67226
1043.222	-102.17094
1043.386	-26.6929
1043.55	-36.23761
1043.714	20.2454
1043.877	-40.22808
1044.041	-107.00557
1044.205	-90.36012
1044.369	-63.73736
1044.532	-24.22473
1044.696	-46.87682
1044.86	-25.33345
1045.023	-2.21433
1045.187	-51.25929
1045.351	-47.42849
1045.514	-56.67967
1045.678	27.37948
1045.841	20.97137
