# Source: MESSENGER MASCS VIRS
# Product: VIRSND_OB2_12094_055036_DAT
# Type: DDR
# Target: MERCURY
# Observation: 2012-04-03T05:50:37 to 2012-04-03T06:15:11
# Units: wavelength_nm=dimensionless
#
wavelength_nm,reflectance
300.0000,1.012993e-03
304.5098,2.572313e-03
309.0196,2.132758e-03
313.5294,5.741812e-03
318.0392,1.897160e-03
322.5490,4.901431e-03
327.0588,3.934454e-03
331.5686,7.159573e-03
336.0784,6.804975e-03
340.5882,3.526267e-03
345.0980,6.680914e-03
349.6078,4.743420e-03
354.1176,3.552379e-03
358.6275,3.246210e-03
363.1373,6.215993e-03
367.6471,6.413517e-03
372.1569,7.199534e-03
376.6667,6.638444e-03
381.1765,5.364791e-03
385.6863,3.257262e-03
390.1961,3.323960e-03
394.7059,4.973095e-03
399.2157,1.243065e-03
403.7255,5.561242e-03
408.2353,4.957577e-03
412.7451,5.724501e-03
417.2549,1.937802e-03
421.7647,5.536315e-03
426.2745,4.443490e-03
430.7843,7.347545e-03
435.2941,5.599174e-03
439.8039,5.135484e-03
444.3137,4.593321e-03
448.8235,6.672288e-03
453.3333,4.026710e-03
457.8431,3.537556e-03
462.3529,2.340410e-03
466.8627,7.375637e-03
471.3725,5.156858e-03
475.8824,3.491753e-03
480.3922,3.955254e-03
484.9020,4.098861e-03
489.4118,4.639138e-03
493.9216,4.361377e-03
498.4314,3.687650e-03
502.9412,1.814195e-03
507.4510,7.800476e-03
511.9608,3.367664e-03
516.4706,4.578276e-03
520.9804,6.947377e-03
525.4902,3.976802e-03
530.0000,2.828684e-03
534.5098,3.828073e-03
539.0196,6.490985e-03
543.5294,2.618250e-03
548.0392,7.624111e-03
552.5490,4.044318e-03
557.0588,3.491379e-03
561.5686,5.248133e-04
566.0784,3.453655e-03
570.5882,6.360553e-03
575.0980,4.307445e-03
579.6078,2.467416e-03
584.1176,4.776901e-03
588.6275,7.338922e-03
593.1373,4.267824e-03
597.6471,3.610753e-03
602.1569,4.279468e-03
606.6667,2.675239e-03
611.1765,1.236872e-03
615.6863,3.915784e-03
620.1961,5.277190e-03
624.7059,4.263281e-03
629.2157,7.152342e-04
633.7255,4.189197e-03
638.2353,3.569025e-03
642.7451,4.932123e-03
647.2549,5.885671e-03
651.7647,3.677892e-03
656.2745,5.172688e-03
660.7843,2.626636e-03
665.2941,5.148292e-03
669.8039,3.159661e-03
674.3137,6.305898e-03
678.8235,8.026344e-03
683.3333,4.609418e-03
687.8431,1.150205e-02
692.3529,6.777162e-03
696.8627,3.103295e-03
701.3725,4.992398e-03
705.8824,3.323919e-03
710.3922,4.929448e-03
714.9020,7.382406e-03
719.4118,4.300666e-03
723.9216,3.000315e-03
728.4314,2.646334e-03
732.9412,5.841899e-03
737.4510,3.645425e-03
741.9608,8.049367e-03
746.4706,6.116112e-03
750.9804,6.093392e-03
755.4902,3.217673e-03
760.0000,6.129791e-03
764.5098,1.028380e-02
769.0196,7.155062e-03
773.5294,4.659506e-03
778.0392,4.783474e-03
782.5490,1.031153e-02
787.0588,8.420009e-04
791.5686,6.486005e-03
796.0784,1.940378e-03
800.5882,3.094380e-03
805.0980,5.730685e-03
809.6078,2.932721e-03
814.1176,3.458720e-03
818.6275,3.774681e-03
823.1373,5.545449e-03
827.6471,2.783730e-03
832.1569,3.901844e-03
836.6667,8.705186e-03
841.1765,3.965902e-03
845.6863,3.819214e-03
850.1961,4.462586e-03
854.7059,4.330210e-03
859.2157,7.335951e-03
863.7255,5.178028e-03
868.2353,6.663842e-03
872.7451,2.832028e-03
877.2549,1.724899e-03
881.7647,8.463179e-03
886.2745,5.107811e-03
890.7843,2.093253e-03
895.2941,4.293279e-03
899.8039,5.063054e-03
904.3137,4.072239e-03
908.8235,4.097800e-03
913.3333,2.647868e-03
917.8431,3.441459e-03
922.3529,3.357789e-03
926.8627,2.638129e-03
931.3725,6.709600e-03
935.8824,4.409417e-03
940.3922,3.881956e-03
944.9020,5.164106e-03
949.4118,4.281764e-03
953.9216,4.088072e-03
958.4314,4.632252e-03
962.9412,5.455169e-03
967.4510,1.395843e-03
971.9608,4.253816e-03
976.4706,4.301139e-03
980.9804,1.920557e-03
985.4902,4.589037e-03
990.0000,5.526895e-03
994.5098,5.482453e-03
999.0196,9.029873e-04
1003.5294,3.524633e-03
1008.0392,1.980316e-03
1012.5490,8.633765e-03
1017.0588,5.401392e-03
1021.5686,2.238575e-03
1026.0784,5.698832e-03
1030.5882,4.612278e-03
1035.0980,5.677220e-03
1039.6078,4.721352e-03
1044.1176,2.692481e-03
1048.6275,6.311443e-03
1053.1373,5.181084e-03
1057.6471,4.711684e-03
1062.1569,3.229619e-03
1066.6667,6.935679e-03
1071.1765,4.055974e-03
1075.6863,2.463039e-03
1080.1961,6.376986e-03
1084.7059,6.275003e-03
1089.2157,2.710568e-03
1093.7255,3.322241e-03
1098.2353,6.784386e-03
1102.7451,2.579771e-03
1107.2549,4.242327e-03
1111.7647,3.422531e-03
1116.2745,3.853014e-03
1120.7843,5.530103e-03
1125.2941,6.440820e-03
1129.8039,3.524643e-03
1134.3137,3.047835e-03
1138.8235,6.775575e-03
1143.3333,1.829776e-03
1147.8431,4.538057e-03
1152.3529,3.144351e-03
1156.8627,4.730552e-03
1161.3725,1.575526e-03
1165.8824,3.809043e-03
1170.3922,3.159278e-03
1174.9020,3.941457e-03
1179.4118,2.495552e-03
1183.9216,2.526761e-03
1188.4314,6.777657e-03
1192.9412,8.151836e-03
1197.4510,3.559112e-03
1201.9608,4.457006e-03
1206.4706,5.307181e-03
1210.9804,5.267457e-03
1215.4902,2.744453e-03
1220.0000,1.805059e-03
1224.5098,1.767301e-03
1229.0196,2.674732e-03
1233.5294,2.420591e-04
1238.0392,3.786249e-03
1242.5490,3.906802e-03
1247.0588,2.882323e-03
1251.5686,4.830505e-03
1256.0784,3.168644e-03
1260.5882,2.645899e-03
1265.0980,5.072539e-03
1269.6078,3.504291e-03
1274.1176,2.315129e-03
1278.6275,5.788804e-03
1283.1373,2.423647e-03
1287.6471,5.622800e-03
1292.1569,7.382812e-03
1296.6667,6.938700e-03
1301.1765,6.020117e-03
1305.6863,5.523218e-03
1310.1961,5.763213e-03
1314.7059,1.258406e-03
1319.2157,2.454381e-03
1323.7255,2.558651e-03
1328.2353,3.133899e-03
1332.7451,1.602311e-03
1337.2549,2.554733e-03
1341.7647,1.573215e-03
1346.2745,3.039961e-03
1350.7843,3.466891e-03
1355.2941,3.642517e-03
1359.8039,3.498717e-03
1364.3137,1.515397e-03
1368.8235,3.422820e-03
1373.3333,5.680809e-03
1377.8431,4.516715e-03
1382.3529,9.493565e-04
1386.8627,9.747972e-04
1391.3725,4.643207e-03
1395.8824,1.891423e-03
1400.3922,2.378839e-03
1404.9020,1.496438e-03
1409.4118,2.506883e-03
1413.9216,4.433436e-03
1418.4314,6.499322e-03
1422.9412,2.604657e-03
1427.4510,5.591316e-03
1431.9608,5.438108e-03
1436.4706,2.269492e-03
1440.9804,1.536121e-03
1445.4902,2.419700e-03
1450.0000,3.078371e-03
