Data from 3_57 pm cloudy_Subt2__7__16-00-08-308.txt Node

Date: Tue Oct 07 16:00:08 EDT 2025
User: brett
Spectrometer: USB4F03499
Trigger mode: 4
Integration Time (sec): 1.000000E-2
Scans to average: 10
Electric dark correction enabled: true
Nonlinearity correction enabled: true
Boxcar width: 0
XAxis mode: Wavelengths
Number of Pixels in Spectrum: 3648
>>>>>Begin Spectral Data<<<<<
345.386	-0.37311
345.605	-0.37311
345.824	-0.37311
346.044	-1.94075
346.263	-4.06703
346.482	-0.82056
346.701	-10.55587
346.92	13.50658
347.139	-2.05216
347.358	-10.44507
347.577	14.28926
347.796	3.20818
348.015	-8.20744
348.234	-3.39477
348.453	14.62681
348.672	-10.33298
348.891	0.18653
349.11	-6.52693
349.329	141.87942
349.548	201.71734
349.767	201.23342
349.986	221.01192
350.205	220.15029
350.424	207.99203
350.643	217.21902
350.862	210.42312
351.08	216.98413
351.299	207.69167
351.518	203.49725
351.737	206.64181
351.956	214.4521
352.174	204.74215
352.393	226.84264
352.612	229.57446
352.831	213.59387
353.049	222.67611
353.268	230.97437
353.487	216.15233
353.705	226.06685
353.924	228.97603
354.143	231.32762
354.361	238.94837
354.58	240.00559
354.798	229.63383
355.017	225.02923
355.236	234.50269
355.454	240.89355
355.673	244.17885
355.891	259.15191
356.11	249.82584
356.328	258.27297
356.547	254.03819
356.765	251.70122
356.984	245.46043
357.202	263.65965
357.42	242.45532
357.639	260.29557
357.857	251.66265
358.076	263.90079
358.294	262.33603
358.512	270.52351
358.731	267.23836
358.949	261.50723
359.167	261.98043
359.386	269.56453
359.604	260.02105
359.822	254.94737
360.04	278.20294
360.259	282.75966
360.477	283.57382
360.695	280.00691
360.913	281.47873
361.131	273.55571
361.35	269.05017
361.568	281.57071
361.786	281.63853
362.004	286.7951
362.222	287.35181
362.44	279.05226
362.658	284.09322
362.876	289.94863
363.094	278.6078
363.312	272.62099
363.53	276.24167
363.749	282.13982
363.967	283.70252
364.184	278.60987
364.402	283.99612
364.62	292.58335
364.838	284.75835
365.056	284.94927
365.274	301.85604
365.492	295.09895
365.71	295.62235
365.928	299.52015
366.146	292.85045
366.364	304.12582
366.581	298.11224
366.799	311.71311
367.017	306.9271
367.235	333.17469
367.453	332.63607
367.67	332.83399
367.888	328.57661
368.106	355.12307
368.323	343.91542
368.541	353.12622
368.759	356.83744
368.977	354.05411
369.194	372.66965
369.412	379.00733
369.629	363.32561
369.847	372.48571
370.065	381.70653
370.282	395.85445
370.5	385.60834
370.717	387.55194
370.935	396.22232
371.152	407.78454
371.37	428.8069
371.588	410.59333
371.805	423.68837
372.022	420.93208
372.24	428.40011
372.457	439.60204
372.675	438.06727
372.892	442.41986
373.11	442.05
373.327	451.23562
373.544	424.38434
373.762	451.25826
373.979	438.02503
374.196	446.28784
374.414	431.91983
374.631	461.3379
374.848	452.18673
375.066	430.00487
375.283	452.66513
375.5	455.90066
375.717	455.58158
375.935	462.87274
376.152	454.80787
376.369	460.0192
376.586	453.62188
376.803	466.30618
377.02	454.7404
377.238	452.41979
377.455	466.84512
377.672	466.33004
377.889	448.45064
378.106	470.08018
378.323	478.92409
378.54	467.17411
378.757	480.28809
378.974	444.10302
379.191	478.6862
379.408	491.39309
379.625	486.73429
379.842	468.78245
380.059	486.43404
380.276	483.99661
380.493	489.03691
380.71	502.63077
380.927	482.73118
381.143	484.99081
381.36	512.13242
381.577	506.0782
381.794	502.55729
382.011	507.43722
382.228	519.78129
382.444	526.0188
382.661	486.46078
382.878	506.90288
383.095	521.23437
383.311	527.66582
383.528	523.18819
383.745	515.61997
383.962	535.87454
384.178	532.85439
384.395	528.53385
384.612	555.0851
384.828	540.26222
385.045	537.05006
385.261	552.71286
385.478	548.22574
385.695	540.76063
385.911	546.85677
386.128	528.67462
386.344	563.22751
386.561	561.18642
386.777	543.2325
386.994	543.31288
387.21	545.02736
387.427	547.19779
387.643	540.11055
387.86	544.7975
388.076	546.70222
388.292	562.10634
388.509	528.16031
388.725	545.69601
388.942	567.29309
389.158	546.70916
389.374	575.12595
389.591	568.2328
389.807	539.90857
390.023	562.64565
390.239	559.04157
390.456	579.78256
390.672	589.97141
390.888	560.16865
391.104	566.02584
391.321	584.15548
391.537	602.51122
391.753	588.40637
391.969	602.96436
392.185	629.94025
392.401	634.91531
392.618	607.49604
392.834	633.39435
393.05	645.03958
393.266	638.99386
393.482	650.54146
393.698	639.83353
393.914	641.68389
394.13	692.65179
394.346	678.49215
394.562	673.46626
394.778	658.0111
394.994	711.02818
395.21	704.25597
395.426	699.03305
395.642	717.71876
395.858	737.12329
396.073	703.90261
396.289	702.80018
396.505	744.79369
396.721	739.93924
396.937	774.78526
397.153	750.67355
397.369	751.60878
397.584	771.70095
397.8	766.39153
398.016	770.71592
398.232	798.76635
398.447	777.28708
398.663	796.46472
398.879	793.26391
399.094	803.69629
399.31	820.6027
399.526	817.71689
399.741	845.94595
399.957	843.7679
400.173	839.27973
400.388	853.89334
400.604	852.56228
400.82	873.14896
401.035	907.49974
401.251	896.60224
401.466	920.3979
401.682	951.29823
401.897	968.9413
402.113	990.69344
402.328	988.0129
402.544	1024.63217
402.759	1030.49921
402.974	1068.44757
403.19	1063.18927
403.405	1158.73443
403.621	1184.67831
403.836	1192.52519
404.051	1251.48555
404.267	1268.34687
404.482	1257.79057
404.697	1270.20164
404.913	1281.1297
405.128	1387.74166
405.343	1351.01095
405.559	1354.27469
405.774	1414.63283
405.989	1450.07883
406.204	1490.45279
406.42	1467.566
406.635	1518.21422
406.85	1511.66601
407.065	1564.38628
407.28	1604.20324
407.495	1621.29752
407.71	1591.80769
407.926	1633.83377
408.141	1755.86375
408.356	1727.94319
408.571	1722.11291
408.786	1719.08995
409.001	1747.9776
409.216	1823.54852
409.431	1845.66004
409.646	1806.51766
409.861	1818.98877
410.076	1808.51466
410.291	1828.70518
410.506	1926.86303
410.721	1848.54083
410.936	1903.35495
411.15	1889.95816
411.365	1909.00835
411.58	1959.28371
411.795	1920.89403
412.01	2021.03851
412.225	1988.32708
412.439	1934.60691
412.654	1990.71967
412.869	1980.04141
413.084	2005.12221
413.299	2042.63667
413.513	1975.20454
413.728	2026.67373
413.943	2099.8096
414.157	2103.97407
414.372	2116.07701
414.587	2124.1329
414.801	2241.47935
415.016	2193.26603
415.231	2230.12228
415.445	2235.5679
415.66	2241.58109
415.874	2306.6103
416.089	2259.99994
416.304	2357.66309
416.518	2329.46964
416.733	2341.29763
416.947	2300.27309
417.162	2354.01187
417.376	2403.85763
417.59	2448.50023
417.805	2476.55
418.019	2416.46101
418.234	2414.95718
418.448	2384.28297
418.663	2451.64489
418.877	2481.09917
419.091	2478.16871
419.306	2489.95615
419.52	2533.98368
419.734	2470.59679
419.949	2594.68903
420.163	2623.63835
420.377	2508.2047
420.591	2571.38355
420.806	2594.73593
421.02	2564.38384
421.234	2635.66103
421.448	2624.60369
421.663	2638.8469
421.877	2636.5047
422.091	2611.65216
422.305	2573.90142
422.519	2614.43537
422.733	2743.78815
422.947	2633.90943
423.161	2653.14424
423.376	2672.42989
423.59	2693.90074
423.804	2678.69225
424.018	2715.41314
424.232	2718.25394
424.446	2812.17762
424.66	2755.00809
424.874	2739.75736
425.088	2687.13714
425.302	2714.74864
425.515	2817.33127
425.729	2869.45751
425.943	2857.95279
426.157	2842.94228
426.371	2799.83683
426.585	2837.09048
426.799	2859.06931
427.013	2987.80294
427.226	2985.87468
427.44	2797.30055
427.654	2822.1512
427.868	2853.72785
428.081	2901.68002
428.295	2853.61864
428.509	2867.0373
428.723	2835.12919
428.936	2891.24702
429.15	2792.77593
429.364	2885.14662
429.577	2769.02354
429.791	2800.52377
430.005	2985.73571
430.218	2911.73304
430.432	2768.53047
430.645	2803.80048
430.859	2867.39992
431.073	2888.29326
431.286	2976.62243
431.5	2982.19726
431.713	2830.0297
431.927	2810.96207
432.14	2891.4895
432.354	2874.74407
432.567	2861.83301
432.781	2926.75106
432.994	2939.52056
433.207	3004.68432
433.421	3023.53699
433.634	2969.21534
433.848	3039.65157
434.061	2937.25095
434.274	2845.85929
434.488	2897.38698
434.701	2852.22
434.914	2900.68668
435.127	2980.27038
435.341	3007.89136
435.554	2975.52178
435.767	3118.76648
435.98	3093.49502
436.194	2979.06584
436.407	2981.33231
436.62	3238.4576
436.833	3224.96158
437.046	3127.78069
437.259	3031.48962
437.473	3173.42638
437.686	3212.82066
437.899	3110.3456
438.112	3220.84864
438.325	3149.65316
438.538	3186.68555
438.751	3432.61338
438.964	3274.22224
439.177	3283.71301
439.39	3264.14584
439.603	3503.04795
439.816	3403.34278
440.029	3567.56903
440.242	3653.377
440.455	3712.23076
440.668	3660.13946
440.881	3475.34132
441.094	3482.17511
441.306	3674.22323
441.519	3838.26254
441.732	3794.39208
441.945	3867.04532
442.158	3703.52731
442.37	3638.04353
442.583	3880.36136
442.796	4004.90592
443.009	3961.29245
443.222	3772.45106
443.434	3664.32333
443.647	4020.65082
443.86	4161.54547
444.072	4246.45894
444.285	4105.16589
444.498	4168.60542
444.71	4068.93648
444.923	4099.09348
445.136	4097.57604
445.348	3987.57815
445.561	4057.12057
445.773	4062.767
445.986	3890.24022
446.198	4246.84137
446.411	4244.30795
446.623	4313.21532
446.836	4264.95709
447.048	4280.8603
447.261	4478.94312
447.473	4445.0437
447.686	4296.77136
447.898	4340.97023
448.11	4604.42958
448.323	4672.13031
448.535	4541.34286
448.748	4356.95146
448.96	4385.13314
449.172	4389.11633
449.385	4256.88122
449.597	4513.75863
449.809	4551.50265
450.021	4664.69126
450.234	4700.67177
450.446	4445.04276
450.658	4495.1706
450.87	4536.70014
451.083	4695.46513
451.295	4677.82844
451.507	4676.99073
451.719	4578.01625
451.931	4752.34265
452.143	4719.00408
452.356	4624.70543
452.568	4712.69375
452.78	4770.81622
452.992	4825.21564
453.204	4994.24153
453.416	4754.34379
453.628	4646.82902
453.84	4743.34641
454.052	4756.99051
454.264	4960.95005
454.476	4902.03058
454.688	5134.49348
454.9	5147.23802
455.112	4871.40015
455.324	4788.65572
455.536	4965.6848
455.747	5106.99546
455.959	5050.28015
456.171	5133.90806
456.383	4998.96461
456.595	4838.65316
456.807	4894.41956
457.018	4853.50313
457.23	5064.36417
457.442	4965.92746
457.654	5134.70467
457.865	5081.20094
458.077	4935.23863
458.289	4913.4252
458.501	5018.37125
458.712	5273.24954
458.924	5426.13268
459.136	5140.73905
459.347	5042.82955
459.559	5092.76146
459.77	5342.66669
459.982	5413.79853
460.194	5394.38701
460.405	5121.48622
460.617	5143.79614
460.828	5396.91911
461.04	5364.51879
461.251	5270.91794
461.463	5684.00749
461.674	5572.37797
461.886	5445.00333
462.097	5303.47993
462.309	5497.0947
462.52	5339.51161
462.731	5724.54394
462.943	5336.12765
463.154	5241.13918
463.366	5369.11442
463.577	5537.43937
463.788	5707.57446
464	5712.27449
464.211	5737.16453
464.422	6078.47002
464.634	5986.84714
464.845	5907.47822
465.056	6022.40464
465.267	5983.52604
465.478	5711.47373
465.69	5963.91202
465.901	5960.24399
466.112	5976.54897
466.323	6010.82929
466.534	6200.95655
466.745	6220.34393
466.957	6243.96076
467.168	6185.62651
467.379	6168.60023
467.59	6020.7153
467.801	5872.06166
468.012	6152.68194
468.223	6222.08831
468.434	6130.71952
468.645	6476.67687
468.856	6665.67938
469.067	6428.03828
469.278	6447.66947
469.489	6577.68483
469.7	6303.90469
469.911	6221.88714
470.122	6720.77487
470.333	6896.49267
470.543	6453.25039
470.754	6694.39413
470.965	6715.56675
471.176	6747.09257
471.387	6996.61509
471.598	6822.99653
471.808	6773.05508
472.019	6876.9825
472.23	6890.25872
472.441	6720.35581
472.651	6919.67146
472.862	6831.79278
473.073	7146.48605
473.283	6988.15244
473.494	6969.59398
473.705	6938.394
473.915	7046.45365
474.126	7320.26148
474.337	7275.75137
474.547	7412.06943
474.758	7580.8571
474.968	7429.92074
475.179	7511.8489
475.389	7396.75616
475.6	7554.69699
475.81	7680.92551
476.021	7868.70039
476.231	7912.72188
476.442	7827.34991
476.652	7571.81826
476.863	7772.54066
477.073	7740.13705
477.284	8003.22628
477.494	7937.5608
477.704	8357.18642
477.915	8472.76499
478.125	8043.80364
478.335	8284.08238
478.546	8612.58127
478.756	8425.29223
478.966	8656.29776
479.177	8652.91812
479.387	8806.42005
479.597	8731.1049
479.807	8797.82142
480.018	8706.63066
480.228	8981.28377
480.438	8998.69395
480.648	9156.76448
480.858	9204.07444
481.068	8918.37813
481.279	9252.26099
481.489	9624.46223
481.699	9520.61986
481.909	9473.55669
482.119	10022.46847
482.329	10004.68837
482.539	9928.04051
482.749	9771.90409
482.959	10034.40748
483.169	10344.3029
483.379	10296.07603
483.589	10438.56496
483.799	10379.42061
484.009	10272.18119
484.219	10418.46475
484.429	10658.98549
484.639	10434.35102
484.849	10736.98522
485.059	10903.00353
485.268	11046.38539
485.478	11080.77237
485.688	10761.58984
485.898	10877.65541
486.108	11093.56927
486.317	11180.16208
486.527	11299.58698
486.737	11519.48212
486.947	11514.07213
487.156	11654.24841
487.366	11590.16882
487.576	11343.26597
487.785	11450.86977
487.995	11430.33581
488.205	11623.01453
488.414	11722.84621
488.624	11742.89933
488.834	11766.0821
489.043	11622.85617
489.253	11525.38095
489.462	11814.62048
489.672	11994.39899
489.882	12102.15993
490.091	12174.61458
490.301	12149.6883
490.51	12217.12225
490.72	12305.50234
490.929	12446.52073
491.138	12556.90154
491.348	12414.68997
491.557	12442.16291
491.767	12553.15989
491.976	12589.29235
492.185	12544.58763
492.395	12565.70065
492.604	12783.69971
492.813	12765.04165
493.023	12959.40096
493.232	12883.5156
493.441	12857.3854
493.651	13045.76622
493.86	12764.5452
494.069	13021.93391
494.278	13029.99989
494.488	13197.21404
494.697	13169.58915
494.906	13124.57797
495.115	13329.68582
495.324	13199.75604
495.533	13441.18538
495.743	13536.17592
495.952	13746.19761
496.161	13709.89396
496.37	13824.07987
496.579	13897.58495
496.788	13977.03705
496.997	14212.79979
497.206	14012.08755
497.415	14100.71983
497.624	14161.80675
497.833	14313.63384
498.042	14360.42591
498.251	14525.92699
498.46	14480.04219
498.669	14513.42964
498.878	14424.45216
499.087	14553.75873
499.296	14858.71424
499.504	14828.19038
499.713	14735.57912
499.922	14884.27366
500.131	14898.53723
500.34	15011.36764
500.549	15012.24173
500.757	14873.85131
500.966	15097.34246
501.175	14985.51423
501.384	15249.74644
501.592	15148.75372
501.801	15154.60088
502.01	15307.98975
502.218	15167.75745
502.427	15347.62634
502.636	15294.25173
502.844	15323.71566
503.053	15317.75193
503.262	15336.76485
503.47	15313.70353
503.679	15398.94132
503.887	15379.66536
504.096	15395.85517
504.304	15411.1872
504.513	15570.46576
504.721	15437.93187
504.93	15448.6415
505.138	15553.70001
505.347	15517.95596
505.555	15486.0718
505.764	15589.83065
505.972	15561.68687
506.18	15509.16238
506.389	15494.49891
506.597	15484.43857
506.806	15602.09194
507.014	15675.93856
507.222	15551.66789
507.431	15642.37985
507.639	15552.37609
507.847	15764.55572
508.055	15755.082
508.264	15740.00297
508.472	15765.18065
508.68	15688.81045
508.888	15895.876
509.096	15823.99534
509.305	15833.05631
509.513	15814.36417
509.721	15867.37603
509.929	15869.85964
510.137	15844.44897
510.345	15943.02668
510.553	15883.71634
510.762	15951.93039
510.97	15948.95014
511.178	16029.25501
511.386	16167.5708
511.594	16107.54146
511.802	16151.72985
512.01	16129.23512
512.218	16161.50216
512.426	16360.41184
512.634	16288.48001
512.842	16415.31314
513.049	16383.09339
513.257	16277.60757
513.465	16436.59469
513.673	16515.69077
513.881	16571.11666
514.089	16551.91376
514.297	16520.30136
514.504	16519.16157
514.712	16689.24485
514.92	16731.61126
515.128	16837.30634
515.336	16711.72372
515.543	16719.71365
515.751	16784.68857
515.959	16753.68672
516.166	16619.12643
516.374	16829.41024
516.582	16880.04773
516.789	16795.58264
516.997	16796.16592
517.205	16774.06989
517.412	16851.0483
517.62	16861.96267
517.827	16893.05889
518.035	16839.96623
518.243	16785.9265
518.45	16659.68238
518.658	16667.83621
518.865	16688.82164
519.073	16801.76998
519.28	16606.73343
519.488	16693.53776
519.695	16525.90984
519.902	16566.41329
520.11	16555.67581
520.317	16805.21973
520.525	16648.62517
520.732	16454.35562
520.939	16640.78829
521.147	16453.5386
521.354	16588.80583
521.561	16550.02674
521.769	16540.3361
521.976	16487.13159
522.183	16607.85295
522.391	16469.89779
522.598	16625.84539
522.805	16553.26192
523.012	16560.00962
523.219	16603.7796
523.427	16690.82728
523.634	16690.20434
523.841	16689.48272
524.048	16614.42235
524.255	16858.27129
524.462	16775.68087
524.669	16626.98412
524.877	16868.67296
525.084	16724.72874
525.291	16772.59643
525.498	16882.18624
525.705	16893.7265
525.912	17013.08971
526.119	16921.58245
526.326	16953.57075
526.533	16986.00216
526.74	17162.0231
526.947	17083.36869
527.153	17160.97415
527.36	17215.47058
527.567	17077.52891
527.774	17207.62549
527.981	17151.91746
528.188	17159.95276
528.395	17273.32668
528.602	17271.46632
528.808	17286.15895
529.015	17225.82998
529.222	17379.33766
529.429	17263.10261
529.635	17385.42601
529.842	17378.89179
530.049	17302.30243
530.256	17296.36606
530.462	17555.66303
530.669	17482.38156
530.876	17456.74966
531.082	17443.89668
531.289	17515.66428
531.495	17563.70797
531.702	17677.30246
531.909	17615.06308
532.115	17784.41914
532.322	17614.57885
532.528	17632.84526
532.735	17732.73612
532.941	17704.54325
533.148	17653.28411
533.354	17686.56673
533.561	17789.18648
533.767	17740.99742
533.974	17680.63243
534.18	17797.70149
534.387	17703.003
534.593	17781.91315
534.799	17787.92496
535.006	17788.37127
535.212	17743.58149
535.418	17861.39007
535.625	17943.22007
535.831	17835.89885
536.037	17784.32404
536.244	17834.48951
536.45	17573.88214
536.656	17699.33011
536.862	17900.3182
537.068	17865.09007
537.275	17922.09982
537.481	17964.32956
537.687	17998.19203
537.893	18031.92223
538.099	17987.43346
538.305	18001.83879
538.512	18080.16957
538.718	18011.37354
538.924	17973.85616
539.13	17907.37463
539.336	18011.11899
539.542	18002.2862
539.748	18156.77469
539.954	17997.43043
540.16	18159.3796
540.366	18108.77339
540.572	18094.15989
540.778	18090.33167
540.984	18042.61184
541.19	18027.32188
541.396	17918.96298
541.602	18096.32234
541.807	17959.81839
542.013	18079.21326
542.219	17863.53057
542.425	17957.77917
542.631	17855.95776
542.837	17799.27779
543.042	17882.64271
543.248	17876.57844
543.454	17828.98594
543.66	17842.69301
543.865	17732.54274
544.071	17886.01435
544.277	17761.55111
544.483	17741.34615
544.688	17787.51203
544.894	17879.63447
545.1	17892.38366
545.305	17787.07164
545.511	17838.61928
545.716	17819.58505
545.922	17742.13572
546.128	17739.9731
546.333	17749.95316
546.539	17795.1861
546.744	17714.88175
546.95	17770.5828
547.155	17684.59681
547.361	17819.51315
547.566	17579.46768
547.772	17736.24934
547.977	17751.25732
548.182	17598.75849
548.388	17733.94409
548.593	17743.79572
548.799	17640.20931
549.004	17643.56329
549.209	17680.19973
549.415	17785.34009
549.62	17637.51626
549.825	17687.15205
550.031	17574.6494
550.236	17764.90311
550.441	17846.28206
550.646	17732.53515
550.852	17792.9414
551.057	17715.4887
551.262	17834.58177
551.467	17744.92806
551.672	17741.59152
551.878	17848.3965
552.083	17726.46769
552.288	17782.14177
552.493	17750.0393
552.698	17761.24009
552.903	17813.50114
553.108	17900.98764
553.313	17897.21363
553.518	17814.21595
553.723	17883.38326
553.928	17870.79768
554.133	17923.14926
554.338	17849.72427
554.543	18033.2337
554.748	17873.0146
554.953	17959.51743
555.158	18014.83224
555.363	18028.166
555.568	17860.2194
555.773	18091.18439
555.978	18079.05433
556.182	17927.91468
556.387	17939.99812
556.592	17905.09347
556.797	18077.95193
557.002	18043.71245
557.206	18001.60207
557.411	18034.55253
557.616	17967.6782
557.821	18198.68165
558.025	18071.32877
558.23	18015.45112
558.435	18107.78802
558.64	18038.18779
558.844	18097.42476
559.049	18065.5295
559.253	18067.90164
559.458	17987.78721
559.663	18075.89098
559.867	17980.19275
560.072	17928.48545
560.276	17916.59015
560.481	17961.34354
560.685	17957.05052
560.89	17815.86066
561.094	17856.23044
561.299	17769.66765
561.503	17706.05499
561.708	17917.67431
561.912	17814.73272
562.117	17777.91906
562.321	17654.33779
562.525	17875.68903
562.73	17833.34821
562.934	17804.75685
563.139	17723.25351
563.343	17811.45146
563.547	17708.20426
563.752	17767.36957
563.956	17723.99298
564.16	17702.60719
564.364	17653.4588
564.569	17653.45041
564.773	17689.73507
564.977	17608.12761
565.181	17778.29056
565.385	17646.96333
565.59	17742.22882
565.794	17593.62233
565.998	17622.00536
566.202	17552.92495
566.406	17636.03398
566.61	17624.88086
566.814	17604.02578
567.018	17556.33855
567.222	17621.10232
567.426	17435.04005
567.63	17506.19101
567.834	17497.98735
568.038	17480.29444
568.242	17421.07656
568.446	17402.17115
568.65	17424.30281
568.854	17396.60015
569.058	17509.32556
569.262	17451.28614
569.466	17428.52523
569.67	17427.24736
569.874	17285.45254
570.078	17402.52654
570.281	17328.83595
570.485	17328.44845
570.689	17289.95168
570.893	17194.40503
571.097	17243.6141
571.3	17134.69588
571.504	17311.27779
571.708	17134.94382
571.912	17188.43242
572.115	17073.49476
572.319	16929.41732
572.523	17106.84484
572.726	17013.23754
572.93	16999.98111
573.133	17009.28001
573.337	16992.16096
573.541	17005.09673
573.744	16898.6595
573.948	16920.24003
574.151	16918.56544
574.355	16896.22165
574.558	16823.39477
574.762	16944.96047
574.965	16750.49883
575.169	16920.16299
575.372	16786.39607
575.576	16811.41275
575.779	16743.97479
575.983	16811.11564
576.186	16658.4407
576.389	16715.16875
576.593	16669.30488
576.796	16717.83453
577	16546.47649
577.203	16700.37272
577.406	16628.42972
577.609	16534.35357
577.813	16658.12546
578.016	16566.46428
578.219	16586.96777
578.423	16442.69787
578.626	16519.60668
578.829	16483.26568
579.032	16472.84426
579.235	16618.15567
579.438	16522.92699
579.642	16421.74972
579.845	16363.59847
580.048	16492.41373
580.251	16331.59825
580.454	16479.02848
580.657	16365.43934
580.86	16391.43951
581.063	16246.55808
581.266	16329.11698
581.469	16380.40118
581.672	16317.14289
581.875	16351.89686
582.078	16356.69239
582.281	16293.53754
582.484	16327.95336
582.687	16428.08385
582.89	16373.65431
583.093	16297.76701
583.296	16251.99119
583.499	16569.37546
583.702	16359.26845
583.904	16268.9436
584.107	16412.23749
584.31	16316.90076
584.513	16285.66898
584.716	16409.38053
584.918	16318.83536
585.121	16400.47009
585.324	16326.13639
585.527	16327.58736
585.729	16454.25878
585.932	16355.74662
586.135	16363.39314
586.337	16343.26197
586.54	16393.7193
586.743	16394.64685
586.945	16297.96395
587.148	16302.24918
587.35	16366.75884
587.553	16293.10762
587.755	16310.85453
587.958	16273.797
588.161	16221.28031
588.363	16304.7656
588.566	16269.0403
588.768	16349.45582
588.971	16252.76157
589.173	16214.30477
589.375	16189.69896
589.578	16196.92782
589.78	16106.15721
589.983	16102.87579
590.185	16107.8121
590.387	15906.18151
590.59	15958.7024
590.792	15834.93153
590.994	15698.32197
591.197	15703.11255
591.399	15555.60563
591.601	15532.94561
591.803	15342.33286
592.006	15347.7108
592.208	15349.9495
592.41	15249.56251
592.612	15187.43516
592.815	15141.38936
593.017	15171.86501
593.219	14968.57021
593.421	14890.50161
593.623	14886.18057
593.825	14881.13924
594.027	14801.63021
594.229	14718.46965
594.432	14628.17093
594.634	14728.22064
594.836	14506.86751
595.038	14657.15934
595.24	14472.83391
595.442	14513.90876
595.644	14438.45662
595.846	14378.38609
596.048	14401.36147
596.249	14227.62108
596.451	14230.1669
596.653	14249.09165
596.855	14182.82283
597.057	14147.05113
597.259	14125.50261
597.461	14086.19662
597.663	14106.7873
597.864	13983.35125
598.066	14065.98727
598.268	14009.7776
598.47	13970.61204
598.671	13867.64277
598.873	13936.34109
599.075	13986.01436
599.277	14068.89171
599.478	13995.45038
599.68	13977.38318
599.882	14041.632
600.083	14055.17127
600.285	14000.32128
600.487	14024.06861
600.688	13996.32179
600.89	14108.22716
601.091	14144.64991
601.293	14091.7081
601.494	14150.10472
601.696	14127.82975
601.898	14172.70264
602.099	14272.5996
602.301	14293.54745
602.502	14329.00723
602.703	14369.18806
602.905	14332.81628
603.106	14479.68506
603.308	14369.61165
603.509	14538.4169
603.711	14326.59812
603.912	14446.18495
604.113	14416.79574
604.315	14415.82447
604.516	14483.29902
604.717	14469.63666
604.919	14524.29319
605.12	14504.5589
605.321	14613.04339
605.522	14548.01807
605.724	14569.90897
605.925	14579.02919
606.126	14700.81543
606.327	14778.98099
606.528	14779.1089
606.729	14686.45434
606.931	14837.36942
607.132	14879.04452
607.333	14711.31163
607.534	14818.3679
607.735	14925.17217
607.936	14860.43382
608.137	14955.53502
608.338	14923.35689
608.539	14923.70916
608.74	14907.32536
608.941	14897.23483
609.142	14897.47033
609.343	15023.42022
609.544	15104.34829
609.745	15021.77877
609.946	15073.03236
610.147	14991.42515
610.348	15038.40992
610.549	15014.66671
610.75	15047.11097
610.95	15048.73329
611.151	15079.14421
611.352	15070.76068
611.553	15094.22055
611.754	15021.2721
611.954	15134.37946
612.155	15009.13826
612.356	15094.04879
612.557	15029.26965
612.757	15137.11798
612.958	15014.56485
613.159	15048.16336
613.359	15024.77955
613.56	15042.06649
613.761	15065.43534
613.961	15037.0871
614.162	14940.97536
614.362	14963.82985
614.563	15056.47448
614.764	15059.10077
614.964	14921.03498
615.165	14974.57691
615.365	14961.00927
615.566	14955.30644
615.766	14935.3143
615.967	15040.29075
616.167	14764.34704
616.368	14754.31553
616.568	14856.73858
616.768	14856.92979
616.969	14900.00619
617.169	14881.22749
617.37	14756.29011
617.57	14825.87062
617.77	14796.56413
617.971	14734.21772
618.171	14705.69115
618.371	14708.67916
618.571	14622.15719
618.772	14700.1824
618.972	14687.15515
619.172	14601.21843
619.372	14521.47046
619.573	14518.31789
619.773	14560.19532
619.973	14552.07346
620.173	14536.59426
620.373	14493.32619
620.573	14475.62545
620.774	14510.91762
620.974	14416.18513
621.174	14423.24355
621.374	14485.257
621.574	14492.1746
621.774	14403.92435
621.974	14451.18206
622.174	14402.8788
622.374	14429.99962
622.574	14382.69339
622.774	14378.43522
622.974	14327.30287
623.174	14456.10242
623.374	14426.45591
623.574	14479.54157
623.774	14364.78825
623.973	14481.22057
624.173	14388.05388
624.373	14423.70586
624.573	14358.50275
624.773	14325.26067
624.973	14298.55039
625.172	14331.13954
625.372	14272.22279
625.572	14322.07974
625.772	14268.59089
625.971	14183.33456
626.171	14241.47349
626.371	14345.38038
626.57	14087.06255
626.77	14324.6892
626.97	14176.98993
627.169	14147.42185
627.369	14234.69783
627.569	14250.47962
627.768	14081.25866
627.968	14092.28407
628.167	14193.20147
628.367	14127.25856
628.566	14064.40492
628.766	14072.92089
628.965	14028.06123
629.165	14095.23247
629.364	14029.58043
629.564	13946.74226
629.763	13980.08542
629.963	13920.89395
630.162	13927.78391
630.362	13948.28318
630.561	13845.93879
630.76	13788.66856
630.96	13765.66097
631.159	13785.28849
631.358	13833.3136
631.558	13725.60275
631.757	13665.77183
631.956	13657.52147
632.155	13603.05379
632.355	13598.12859
632.554	13586.28371
632.753	13492.01253
632.952	13489.52993
633.152	13528.00402
633.351	13436.46241
633.55	13484.28898
633.749	13390.21271
633.948	13478.53898
634.147	13436.58529
634.346	13364.0529
634.545	13349.03941
634.744	13298.21888
634.944	13253.73075
635.143	13300.52028
635.342	13224.33649
635.541	13252.86743
635.74	13251.82736
635.939	13210.92657
636.138	13246.19447
636.336	13179.59579
636.535	13144.84472
636.734	13246.54984
636.933	13265.26833
637.132	13215.39975
637.331	13124.65881
637.53	13182.0943
637.729	13100.51854
637.928	13207.48007
638.126	13292.17846
638.325	13042.27957
638.524	13126.76707
638.723	13129.643
638.921	13118.63714
639.12	13105.76209
639.319	13173.83865
639.518	13130.72469
639.716	13069.34166
639.915	13051.94349
640.114	13148.1542
640.312	13146.85104
640.511	13173.55155
640.71	13158.6127
640.908	13088.76956
641.107	13140.03929
641.305	13119.76557
641.504	13099.20866
641.702	13080.13813
641.901	13068.85648
642.099	13136.38335
642.298	13038.37084
642.496	13147.72081
642.695	13021.01576
642.893	13042.70847
643.092	13076.45792
643.29	13067.15312
643.489	12935.50662
643.687	12981.55443
643.885	13005.75596
644.084	12991.70459
644.282	12970.07563
644.48	13077.70627
644.679	13046.91659
644.877	12953.16941
645.075	12995.41547
645.274	12950.29253
645.472	12942.71859
645.67	12890.7786
645.868	12931.30643
646.067	12861.01016
646.265	12911.81126
646.463	12839.82924
646.661	12822.52867
646.859	12869.72437
647.057	12817.6298
647.256	12802.02766
647.454	12811.04136
647.652	12823.07984
647.85	12786.60445
648.048	12775.89258
648.246	12699.73583
648.444	12596.25637
648.642	12623.86168
648.84	12569.64759
649.038	12454.44755
649.236	12433.40849
649.434	12412.41245
649.632	12358.87295
649.83	12430.26522
650.028	12271.11984
650.226	12247.60963
650.423	12191.84715
650.621	12213.52216
650.819	12090.76188
651.017	12061.258
651.215	12090.49176
651.413	12038.52504
651.61	11894.86529
651.808	11901.31056
652.006	11882.17881
652.204	11868.30574
652.401	11867.9394
652.599	11779.96881
652.797	11745.82443
652.995	11701.9844
653.192	11611.41996
653.39	11728.09745
653.588	11731.28278
653.785	11597.44975
653.983	11586.46108
654.18	11549.47792
654.378	11544.81391
654.576	11537.00679
654.773	11438.83121
654.971	11505.39956
655.168	11441.67035
655.366	11483.23516
655.563	11364.61681
655.761	11417.31596
655.958	11383.14579
656.156	11345.80591
656.353	11287.7153
656.55	11275.75691
656.748	11368.40824
656.945	11216.20194
657.143	11230.26917
657.34	11217.4124
657.537	11213.34256
657.735	11142.68679
657.932	11029.72592
658.129	11028.70525
658.326	10941.86338
658.524	11093.89379
658.721	10983.0018
658.918	10907.35108
659.115	10830.87375
659.313	10884.00425
659.51	10782.74908
659.707	10850.90739
659.904	10782.60804
660.101	10859.39584
660.298	10844.27371
660.496	10767.23697
660.693	10800.72731
660.89	10756.65211
661.087	10725.1671
661.284	10778.45547
661.481	10785.36051
661.678	10795.1535
661.875	10795.85809
662.072	10772.99909
662.269	10852.64398
662.466	10852.75901
662.663	10809.79274
662.86	10802.49071
663.057	10771.00111
663.254	10861.74274
663.45	10876.3985
663.647	10748.60138
663.844	10853.40649
664.041	10797.00406
664.238	10901.23486
664.435	10824.75893
664.631	10803.87178
664.828	10885.32682
665.025	10855.12604
665.222	10816.3352
665.419	10877.09244
665.615	10949.82996
665.812	10894.24087
666.009	10952.96605
666.205	10967.62428
666.402	10966.628
666.599	10894.01225
666.795	10943.44655
666.992	11008.47149
667.188	11009.61804
667.385	10967.41894
667.582	11109.74297
667.778	11041.20397
667.975	11108.51813
668.171	11060.33451
668.368	11039.95137
668.564	11069.82996
668.761	11134.54868
668.957	11090.03806
669.154	11077.78772
669.35	11058.32996
669.547	11077.7737
669.743	11166.48383
669.939	11210.38842
670.136	11113.42277
670.332	11177.8863
670.528	11084.1714
670.725	11133.86052
670.921	11196.26551
671.117	11124.28962
671.314	11109.9504
671.51	11168.7702
671.706	11142.43775
671.902	11135.92885
672.099	11164.85661
672.295	11003.72322
672.491	11073.29741
672.687	10988.86178
672.883	10993.75557
673.08	11049.20939
673.276	11086.78913
673.472	11114.31897
673.668	11010.14857
673.864	11016.92973
674.06	11013.23007
674.256	11022.76376
674.452	10877.74959
674.648	10960.66859
674.844	10939.34975
675.04	11021.93239
675.236	10920.36203
675.432	10888.01275
675.628	10848.31263
675.824	10808.36127
676.02	10841.02427
676.216	10865.90056
676.412	10870.06186
676.608	10799.07896
676.804	10806.39528
676.999	10840.80386
677.195	10682.41336
677.391	10796.51543
677.587	10722.86669
677.783	10756.53724
677.978	10771.2419
678.174	10797.709
678.37	10685.8863
678.566	10727.26501
678.761	10679.6595
678.957	10672.65595
679.153	10612.78153
679.348	10658.86651
679.544	10661.23006
679.74	10701.65284
679.935	10580.86234
680.131	10625.68759
680.327	10614.45143
680.522	10578.22014
680.718	10606.59293
680.913	10556.21694
681.109	10499.44638
681.304	10553.0857
681.5	10587.87589
681.695	10545.62456
681.891	10483.52541
682.086	10479.95084
682.282	10463.90539
682.477	10475.29654
682.672	10427.89356
682.868	10436.73861
683.063	10463.20685
683.259	10486.18827
683.454	10410.69533
683.649	10358.89796
683.845	10326.98555
684.04	10404.65057
684.235	10355.30581
684.43	10374.13817
684.626	10343.74672
684.821	10337.90955
685.016	10261.85376
685.211	10351.29372
685.407	10247.80162
685.602	10275.98175
685.797	10222.53178
685.992	10208.87325
686.187	10303.01999
686.382	10228.27443
686.577	10207.51597
686.773	10197.68705
686.968	10148.32075
687.163	10154.40876
687.358	10121.4539
687.553	10140.57291
687.748	10154.58917
687.943	10115.04278
688.138	10041.38807
688.333	10056.56877
688.528	10002.28952
688.723	9931.27879
688.918	9953.51521
689.112	9783.89105
689.307	9747.48608
689.502	9661.61841
689.697	9672.55404
689.892	9675.16223
690.087	9565.25423
690.282	9536.58833
690.476	9449.70482
690.671	9465.57504
690.866	9314.41043
691.061	9322.30484
691.255	9225.62978
691.45	9249.80602
691.645	9196.92933
691.84	9133.57157
692.034	9119.38791
692.229	9044.22122
692.424	8987.12216
692.618	8958.97956
692.813	8895.20475
693.007	8901.19141
693.202	8833.75211
693.397	8881.42707
693.591	8796.20117
693.786	8795.3036
693.98	8717.34293
694.175	8749.12709
694.369	8659.16612
694.564	8684.98941
694.758	8561.61617
694.953	8552.2942
695.147	8532.48541
695.342	8485.93195
695.536	8387.38862
695.73	8383.34488
695.925	8369.21514
696.119	8357.49701
696.313	8236.45999
696.508	8214.46044
696.702	8255.45725
696.896	8117.79019
697.091	8133.45163
697.285	8146.76023
697.479	8150.28364
697.673	8105.90725
697.868	8080.10278
698.062	8109.0357
698.256	8003.45621
698.45	8039.67158
698.644	8042.36352
698.839	8074.78132
699.033	8045.81236
699.227	8090.21745
699.421	8052.47738
699.615	8103.59344
699.809	8086.16379
700.003	8140.17543
700.197	8110.42808
700.391	8171.29608
700.585	8068.81943
700.779	8150.94796
700.973	8123.71769
701.167	8109.85476
701.361	8130.80363
701.555	8104.39201
701.749	8034.47972
701.943	8171.35809
702.137	8103.0815
702.331	8065.00759
702.525	8072.31038
702.718	8075.76924
702.912	8034.06558
703.106	8074.81574
703.3	8017.78338
703.494	8074.15229
703.687	7998.69568
703.881	8037.66049
704.075	8038.65964
704.269	7974.98356
704.462	8065.84586
704.656	8036.08669
704.85	8008.35314
705.043	7992.7016
705.237	7959.69208
705.431	8031.51311
705.624	8010.94571
705.818	8007.43151
706.012	8041.57189
706.205	8083.86384
706.399	8002.13296
706.592	8079.98397
706.786	8022.03539
706.979	8118.04058
707.173	8007.78908
707.366	8062.50092
707.56	8041.12804
707.753	8075.11798
707.947	8042.34993
708.14	8114.84634
708.333	8002.79329
708.527	8094.72839
708.72	8057.46893
708.914	8083.10785
709.107	8065.77978
709.3	8067.32491
709.494	8038.15974
709.687	8021.90335
709.88	8136.18632
710.073	8089.27426
710.267	8091.85989
710.46	8065.26467
710.653	8183.93552
710.846	8125.09929
711.04	8161.34784
711.233	8137.04451
711.426	8151.73331
711.619	8136.03571
711.812	8182.49844
712.005	8267.28752
712.198	8217.68955
712.391	8218.66314
712.585	8173.16431
712.778	8206.22831
712.971	8287.10936
713.164	8235.81857
713.357	8255.37669
713.55	8260.30389
713.743	8275.16017
713.936	8323.4478
714.129	8317.37557
714.322	8292.02643
714.514	8327.63586
714.707	8296.46162
714.9	8303.51017
715.093	8351.6539
715.286	8313.64539
715.479	8304.43205
715.672	8362.41696
715.864	8355.20064
716.057	8345.6156
716.25	8350.07339
716.443	8364.73445
716.636	8291.6563
716.828	8393.52306
717.021	8343.60071
717.214	8423.07598
717.406	8422.2034
717.599	8359.94691
717.792	8369.16872
717.984	8243.17771
718.177	8262.77906
718.37	8192.82206
718.562	8224.09531
718.755	8150.9922
718.947	8076.63025
719.14	8032.11024
719.333	7961.53305
719.525	7907.35079
719.718	7773.71442
719.91	7767.5484
720.103	7707.01625
720.295	7562.94093
720.487	7577.83116
720.68	7470.03673
720.872	7379.07136
721.065	7261.54606
721.257	7241.75254
721.449	7102.28326
721.642	7047.60558
721.834	6946.39333
722.026	6890.28038
722.219	6740.14161
722.411	6685.87042
722.603	6605.99177
722.796	6604.38381
722.988	6500.40725
723.18	6444.45922
723.372	6406.38035
723.565	6347.94532
723.757	6270.79521
723.949	6321.62047
724.141	6219.27299
724.333	6260.55731
724.525	6133.86038
724.717	6175.8661
724.91	6094.05334
725.102	6024.07937
725.294	6019.37282
725.486	5936.74346
725.678	5960.87781
725.87	5920.6425
726.062	5856.78324
726.254	5849.47357
726.446	5773.44548
726.638	5781.08766
726.83	5645.04017
727.022	5701.21117
727.213	5629.21915
727.405	5650.58243
727.597	5617.27571
727.789	5610.78657
727.981	5558.13294
728.173	5557.69935
728.365	5545.97912
728.556	5522.22524
728.748	5454.83987
728.94	5473.72673
729.132	5461.62391
729.324	5459.97149
729.515	5417.0586
729.707	5421.93623
729.899	5447.70413
730.09	5466.712
730.282	5431.32968
730.474	5472.41704
730.665	5394.99363
730.857	5464.01378
731.049	5413.35185
731.24	5457.7892
731.432	5437.45105
731.623	5433.45759
731.815	5458.91475
732.006	5450.91173
732.198	5405.80605
732.389	5453.33902
732.581	5376.21287
732.772	5385.03259
732.964	5385.35904
733.155	5387.47399
733.347	5431.80873
733.538	5396.85602
733.729	5401.42563
733.921	5433.12006
734.112	5387.92857
734.304	5470.33079
734.495	5478.32138
734.686	5492.07764
734.877	5498.74839
735.069	5501.54231
735.26	5542.8936
735.451	5603.12686
735.643	5565.07531
735.834	5658.65839
736.025	5677.99964
736.216	5681.29745
736.407	5735.30021
736.599	5747.70088
736.79	5746.23002
736.981	5834.01164
737.172	5867.1227
737.363	5913.45719
737.554	5939.37142
737.745	5967.12345
737.936	6022.43797
738.127	6068.52073
738.318	6058.06712
738.509	6174.81123
738.7	6166.95754
738.891	6233.59904
739.082	6229.37845
739.273	6244.92644
739.464	6329.56855
739.655	6363.52806
739.846	6358.00873
740.037	6453.48212
740.228	6450.27641
740.419	6518.96362
740.609	6502.32519
740.8	6560.39873
740.991	6577.89819
741.182	6636.40469
741.373	6639.83563
741.563	6747.69243
741.754	6689.40725
741.945	6759.91917
742.136	6789.11122
742.326	6836.95652
742.517	6858.83756
742.708	6888.43768
742.898	6947.48857
743.089	6935.68441
743.28	6927.13106
743.47	6964.65549
743.661	6969.68983
743.851	7028.39555
744.042	7012.37367
744.233	7082.93977
744.423	7122.80442
744.614	7103.46663
744.804	7116.50685
744.995	7097.90306
745.185	7003.96405
745.376	7190.05657
745.566	7234.15866
745.756	7241.1
745.947	7243.07341
746.137	7288.17353
746.328	7321.0959
746.518	7346.31289
746.708	7304.3209
746.899	7382.57936
747.089	7368.19417
747.279	7363.35077
747.47	7418.75561
747.66	7437.9551
747.85	7451.20703
748.04	7423.13162
748.231	7439.04821
748.421	7528.84101
748.611	7447.41026
748.801	7513.55305
748.991	7506.80228
749.182	7500.18602
749.372	7547.45971
749.562	7570.92615
749.752	7572.76209
749.942	7529.55846
750.132	7576.83479
750.322	7568.85517
750.512	7553.28644
750.702	7585.25136
750.892	7541.06652
751.082	7612.48646
751.272	7572.65279
751.462	7602.24196
751.652	7593.09303
751.842	7617.38462
752.032	7576.88267
752.222	7655.21352
752.412	7608.20358
752.602	7619.62688
752.792	7687.6275
752.981	7621.75712
753.171	7598.0512
753.361	7602.10234
753.551	7602.01618
753.741	7587.9806
753.93	7588.7254
754.12	7574.59042
754.31	7554.20783
754.5	7571.22731
754.689	7513.14197
754.879	7576.87568
755.069	7495.00356
755.258	7568.39028
755.448	7536.6083
755.638	7553.46065
755.827	7513.49345
756.017	7547.74439
756.206	7473.22463
756.396	7537.60023
756.586	7502.5474
756.775	7499.91121
756.965	7476.74142
757.154	7499.93583
757.344	7431.92896
757.533	7454.4999
757.723	7439.04335
757.912	7466.4518
758.101	7417.70689
758.291	7431.00746
758.48	7369.96797
758.67	7408.77566
758.859	7342.00908
759.048	7424.34646
759.238	7375.22628
759.427	7333.54716
759.616	7343.65539
759.806	7316.99071
759.995	7337.24131
760.184	7326.34194
760.373	7249.6535
760.563	7283.82215
760.752	7239.84518
760.941	7234.19795
761.13	7141.20688
761.319	7085.52998
761.509	7040.57046
761.698	6969.82104
761.887	6919.95176
762.076	6817.43234
762.265	6697.94777
762.454	6640.61371
762.643	6500.03311
762.832	6419.95705
763.021	6313.27102
763.21	6168.03276
763.399	6079.30319
763.588	5987.40138
763.777	5936.49729
763.966	5794.73358
764.155	5654.0707
764.344	5585.94509
764.533	5470.87358
764.722	5359.34315
764.911	5249.74438
765.1	5169.33985
765.288	5085.1554
765.477	4979.39497
765.666	4866.52628
765.855	4823.96752
766.044	4735.52225
766.232	4632.5922
766.421	4530.94554
766.61	4483.18914
766.799	4402.41246
766.987	4337.68599
767.176	4257.20191
767.365	4196.96206
767.553	4138.43382
767.742	4114.44401
767.931	4024.92783
768.119	4030.75566
768.308	3946.54382
768.497	3914.63268
768.685	3915.32774
768.874	3889.00033
769.062	3846.04023
769.251	3823.90709
769.439	3831.3012
769.628	3858.5263
769.816	3843.15277
770.005	3892.55768
770.193	3922.22575
770.382	3969.72631
770.57	3959.88067
770.758	4061.23564
770.947	4113.51757
771.135	4133.26643
771.323	4182.33859
771.512	4288.47511
771.7	4301.73647
771.888	4392.88058
772.077	4369.35483
772.265	4453.55259
772.453	4520.80215
772.642	4566.55923
772.83	4591.95693
773.018	4670.91314
773.206	4698.40392
773.394	4778.28218
773.583	4838.82938
773.771	4982.33724
773.959	5002.46633
774.147	5065.1561
774.335	5149.89877
774.523	5155.69572
774.711	5258.22768
774.899	5328.48877
775.087	5352.67572
775.275	5427.63046
775.463	5460.57076
775.651	5522.8375
775.839	5540.47282
776.027	5636.0416
776.215	5638.83193
776.403	5733.1239
776.591	5734.23974
776.779	5789.46129
776.967	5765.79225
777.155	5859.23437
777.343	5856.52062
777.531	5937.5
777.718	5910.54364
777.906	5973.31722
778.094	5948.16804
778.282	6044.17216
778.47	6019.79347
778.657	6035.72429
778.845	5991.10285
779.033	6026.96379
779.22	6010.60148
779.408	6079.73121
779.596	6060.99589
779.783	6116.01313
779.971	6048.28406
780.159	6072.17476
780.346	6074.37393
780.534	6105.83656
780.722	6072.36135
780.909	6108.21461
781.097	6087.43376
781.284	6063.87502
781.472	6076.66673
781.659	6059.54585
781.847	6060.02991
782.034	6104.91141
782.222	6045.91345
782.409	6071.72064
782.597	5996.21238
782.784	5991.94035
782.971	6034.03488
783.159	6024.77393
783.346	6008.2505
783.533	6019.91898
783.721	6006.11448
783.908	5979.72709
784.095	5960.58789
784.283	5927.747
784.47	5953.9603
784.657	5977.16273
784.844	5900.7321
785.032	5891.57491
785.219	5904.29003
785.406	5922.89263
785.593	5909.22985
785.78	5900.8957
785.968	5834.96673
786.155	5861.4022
786.342	5823.26536
786.529	5845.27867
786.716	5820.75293
786.903	5814.45569
787.09	5777.61436
787.277	5840.45215
787.464	5800.12355
787.651	5811.56278
787.838	5755.84881
788.025	5726.37689
788.212	5702.1835
788.399	5705.1235
788.586	5721.57704
788.773	5733.23916
788.96	5694.04021
789.147	5681.34078
789.334	5568.49215
789.521	5625.65569
789.707	5597.56105
789.894	5574.23247
790.081	5539.98007
790.268	5577.58435
790.455	5518.39639
790.641	5532.02872
790.828	5512.93468
791.015	5444.23921
791.202	5483.75213
791.388	5415.0841
791.575	5397.46946
791.762	5350.0656
791.948	5369.36091
792.135	5388.66747
792.322	5271.74521
792.508	5327.3484
792.695	5287.16059
792.881	5256.31308
793.068	5273.36049
793.254	5184.49215
793.441	5188.12559
793.627	5131.91254
793.814	5123.7202
794	5153.65158
794.187	5079.49477
794.373	5134.86694
794.56	5070.44246
794.746	5086.87957
794.933	5058.39704
795.119	5046.34257
795.305	5045.7062
795.492	5014.65651
795.678	4972.31469
795.864	4993.54746
796.051	4959.60803
796.237	4942.7133
796.423	4890.59188
796.61	4955.03293
796.796	4923.42159
796.982	4916.47017
797.168	4907.59553
797.355	4896.40075
797.541	4851.05815
797.727	4878.9336
797.913	4845.65543
798.099	4821.23137
798.285	4776.23569
798.471	4842.76498
798.658	4788.36413
798.844	4768.4938
799.03	4794.47638
799.216	4809.67603
799.402	4781.98351
799.588	4768.41691
799.774	4770.06225
799.96	4759.11419
800.146	4726.35226
800.332	4750.24142
800.518	4692.21078
800.704	4715.39775
800.89	4759.97196
801.075	4717.41669
801.261	4701.12946
801.447	4694.094
801.633	4689.83355
801.819	4705.96282
802.005	4709.34812
802.19	4739.17973
802.376	4685.35446
802.562	4698.14572
802.748	4681.07455
802.934	4671.69391
803.119	4631.97031
803.305	4649.4613
803.491	4698.75409
803.676	4661.68189
803.862	4625.37312
804.048	4710.33337
804.233	4608.82647
804.419	4620.11455
804.605	4550.11196
804.79	4581.87256
804.976	4556.2912
805.161	4560.1388
805.347	4553.11288
805.532	4566.39881
805.718	4547.64117
805.903	4557.30333
806.089	4538.51423
806.274	4533.1133
806.46	4532.36766
806.645	4529.54236
806.831	4521.32347
807.016	4530.69569
807.201	4545.86296
807.387	4554.5027
807.572	4507.02269
807.757	4497.36377
807.943	4465.19458
808.128	4521.91519
808.313	4489.00664
808.499	4503.62346
808.684	4475.21819
808.869	4485.20283
809.054	4475.11132
809.24	4508.23601
809.425	4443.68712
809.61	4511.6231
809.795	4424.54423
809.98	4476.36888
810.165	4486.98763
810.35	4459.77943
810.536	4493.41242
810.721	4435.78613
810.906	4400.29563
811.091	4456.1557
811.276	4401.44345
811.461	4452.7422
811.646	4406.65591
811.831	4433.37969
812.016	4386.19327
812.201	4395.58906
812.386	4348.75538
812.571	4391.32896
812.756	4314.78838
812.941	4357.42588
813.125	4318.21944
813.31	4304.13728
813.495	4323.45847
813.68	4277.46492
813.865	4296.69258
814.05	4268.66664
814.234	4252.75986
814.419	4237.79729
814.604	4217.42337
814.789	4226.02508
814.973	4178.9883
815.158	4112.5103
815.343	4085.14416
815.528	4083.82755
815.712	4039.09202
815.897	4020.36904
816.081	3994.05171
816.266	3965.6707
816.451	3927.6139
816.635	3936.12805
816.82	3797.97785
817.004	3812.50926
817.189	3779.07901
817.374	3738.11672
817.558	3685.02327
817.743	3670.46366
817.927	3604.12637
818.111	3552.42544
818.296	3515.74298
818.48	3475.87299
818.665	3464.15239
818.849	3429.96553
819.034	3364.32556
819.218	3312.65416
819.402	3282.8126
819.587	3229.68049
819.771	3210.47748
819.955	3163.62493
820.14	3122.99415
820.324	3092.81085
820.508	3014.05289
820.692	3043.31433
820.877	2948.31932
821.061	2928.26702
821.245	2912.52783
821.429	2876.40192
821.613	2843.64164
821.798	2832.78739
821.982	2778.03426
822.166	2792.87846
822.35	2771.46987
822.534	2760.43791
822.718	2737.43239
822.902	2755.33321
823.086	2709.74128
823.27	2677.3722
823.454	2689.20354
823.638	2674.7113
823.822	2678.56709
824.006	2668.62581
824.19	2633.75722
824.374	2642.08544
824.558	2590.7781
824.742	2596.60798
824.926	2566.78462
825.11	2594.21733
825.294	2548.28696
825.477	2574.14331
825.661	2542.50435
825.845	2560.58036
826.029	2560.78223
826.213	2530.46303
826.396	2537.12387
826.58	2558.49894
826.764	2529.52349
826.948	2527.8492
827.131	2535.33622
827.315	2510.49427
827.499	2557.02949
827.682	2532.63208
827.866	2557.13358
828.05	2561.40774
828.233	2554.35804
828.417	2563.86871
828.6	2564.5597
828.784	2599.49616
828.967	2588.23159
829.151	2629.23791
829.335	2599.94049
829.518	2595.91312
829.701	2575.99125
829.885	2592.6055
830.068	2618.45243
830.252	2619.16494
830.435	2598.54365
830.619	2654.38648
830.802	2596.83206
830.985	2601.75129
831.169	2616.72179
831.352	2593.72301
831.535	2603.38089
831.719	2596.37429
831.902	2594.6229
832.085	2566.56145
832.269	2566.23322
832.452	2585.67729
832.635	2611.68637
832.818	2567.26297
833.002	2581.92962
833.185	2600.61696
833.368	2581.33127
833.551	2595.62695
833.734	2582.50549
833.917	2593.0195
834.1	2590.66076
834.284	2576.42294
834.467	2564.89362
834.65	2596.4745
834.833	2569.73946
835.016	2565.66817
835.199	2533.58162
835.382	2578.49369
835.565	2525.72846
835.748	2589.44125
835.931	2556.15735
836.114	2549.10013
836.297	2578.63466
836.479	2555.73094
836.662	2529.17457
836.845	2567.55981
837.028	2532.10269
837.211	2549.16686
837.394	2526.03732
837.577	2545.32485
837.759	2562.77319
837.942	2567.00381
838.125	2558.4378
838.308	2565.26578
838.49	2546.17697
838.673	2626.40437
838.856	2541.50499
839.039	2603.61433
839.221	2568.67632
839.404	2580.32628
839.587	2554.6716
839.769	2608.43901
839.952	2563.73285
840.134	2600.86177
840.317	2560.57116
840.499	2595.68882
840.682	2580.37484
840.865	2607.99453
841.047	2590.61191
841.23	2637.6547
841.412	2642.57607
841.595	2606.62826
841.777	2614.0318
841.959	2665.76565
842.142	2637.63986
842.324	2675.17034
842.507	2643.31695
842.689	2656.57862
842.871	2661.79376
843.054	2700.17709
843.236	2691.1086
843.418	2681.35066
843.601	2691.42107
843.783	2666.46819
843.965	2704.24333
844.147	2702.8775
844.33	2691.67187
844.512	2724.73962
844.694	2698.86626
844.876	2732.14709
845.059	2708.79113
845.241	2713.30981
845.423	2695.45634
845.605	2733.48602
845.787	2715.09991
845.969	2741.07992
846.151	2718.57897
846.333	2734.5427
846.515	2713.79898
846.697	2770.7538
846.879	2717.45852
847.061	2728.56921
847.243	2689.34205
847.425	2728.98189
847.607	2723.88694
847.789	2725.9352
847.971	2721.47044
848.153	2740.35981
848.335	2704.15606
848.517	2730.6565
848.699	2711.15716
848.881	2721.0237
849.062	2703.45949
849.244	2718.30831
849.426	2679.63696
849.608	2719.14877
849.789	2693.46055
849.971	2709.12954
850.153	2681.76732
850.335	2727.7901
850.516	2714.17607
850.698	2715.55513
850.88	2692.58488
851.061	2703.07225
851.243	2667.16649
851.425	2686.85176
851.606	2651.77619
851.788	2671.48497
851.969	2629.28081
852.151	2632.69437
852.333	2620.76781
852.514	2637.37885
852.696	2625.9721
852.877	2627.97869
853.059	2618.28054
853.24	2642.82198
853.422	2636.58008
853.603	2613.48676
853.784	2585.05717
853.966	2596.78998
854.147	2581.26349
854.329	2539.08116
854.51	2555.79242
854.691	2547.17506
854.873	2578.2462
855.054	2529.52956
855.235	2549.87012
855.416	2532.19144
855.598	2496.67177
855.779	2501.28666
855.96	2479.15256
856.141	2486.24263
856.323	2478.59728
856.504	2466.08081
856.685	2411.77666
856.866	2445.27896
857.047	2415.32589
857.228	2393.89276
857.409	2391.53791
857.591	2383.9334
857.772	2385.37534
857.953	2386.97784
858.134	2366.8492
858.315	2353.87483
858.496	2347.89366
858.677	2334.05117
858.858	2328.84709
859.039	2289.22965
859.22	2330.53312
859.401	2305.50599
859.582	2292.74382
859.762	2309.73653
859.943	2288.13226
860.124	2306.0897
860.305	2265.15423
860.486	2295.44776
860.667	2240.65239
860.848	2285.51167
861.028	2270.39601
861.209	2239.18692
861.39	2256.57007
861.571	2253.3094
861.751	2269.66276
861.932	2260.09509
862.113	2270.30001
862.293	2264.49814
862.474	2218.3917
862.655	2250.22827
862.835	2236.21638
863.016	2257.92017
863.197	2224.71266
863.377	2243.77211
863.558	2234.79799
863.738	2241.89729
863.919	2182.51572
864.099	2245.64628
864.28	2216.75044
864.46	2215.52106
864.641	2228.25047
864.821	2221.13863
865.002	2165.72351
865.182	2231.95254
865.363	2199.99233
865.543	2193.11914
865.723	2234.08888
865.904	2217.10891
866.084	2216.49909
866.264	2205.14291
866.445	2190.94838
866.625	2209.99787
866.805	2188.85301
866.986	2216.85065
867.166	2169.80233
867.346	2180.67963
867.526	2154.67466
867.707	2181.10265
867.887	2140.35043
868.067	2172.04403
868.247	2137.7668
868.427	2150.96811
868.607	2100.46953
868.788	2125.1595
868.968	2142.42605
869.148	2108.55333
869.328	2094.24404
869.508	2092.86672
869.688	2072.38512
869.868	2084.97373
870.048	2050.56683
870.228	2097.36014
870.408	2066.70094
870.588	2064.09454
870.768	2054.56548
870.948	2029.64436
871.128	2035.48397
871.307	2038.43036
871.487	2006.73822
871.667	2036.08159
871.847	2007.35992
872.027	1991.97134
872.207	2000.8268
872.387	1987.6117
872.566	1963.94873
872.746	2004.65616
872.926	1989.82016
873.106	1978.99975
873.285	1947.02253
873.465	1972.33298
873.645	1956.18778
873.824	1957.30684
874.004	1931.34285
874.184	1929.85486
874.363	1915.70623
874.543	1931.23402
874.723	1913.14262
874.902	1918.91178
875.082	1931.40944
875.261	1924.51902
875.441	1906.35193
875.62	1890.50668
875.8	1880.16532
875.979	1913.73225
876.159	1874.08652
876.338	1874.60932
876.518	1880.37324
876.697	1888.59104
876.876	1873.48472
877.056	1883.04722
877.235	1905.91327
877.415	1855.72238
877.594	1893.93534
877.773	1869.49143
877.953	1842.67303
878.132	1854.66369
878.311	1842.02352
878.49	1878.60353
878.67	1847.38935
878.849	1860.05276
879.028	1836.3151
879.207	1831.76834
879.387	1819.82386
879.566	1836.32453
879.745	1793.3042
879.924	1823.16572
880.103	1802.42478
880.282	1842.06167
880.461	1813.87802
880.64	1797.45967
880.819	1795.23931
880.998	1783.38182
881.178	1752.68574
881.357	1774.56315
881.536	1771.35847
881.715	1777.91492
881.893	1754.77757
882.072	1755.51613
882.251	1759.37874
882.43	1746.74743
882.609	1730.90166
882.788	1727.24242
882.967	1717.93405
883.146	1762.32778
883.325	1717.54691
883.503	1722.94569
883.682	1693.36503
883.861	1716.77062
884.04	1679.08069
884.219	1738.88758
884.397	1695.20262
884.576	1695.04714
884.755	1708.29467
884.933	1684.57305
885.112	1678.50817
885.291	1688.09082
885.469	1689.62173
885.648	1659.4127
885.827	1666.72808
886.005	1641.92887
886.184	1643.49288
886.363	1644.78826
886.541	1651.79324
886.72	1653.36002
886.898	1643.81702
887.077	1634.98825
887.255	1630.24358
887.434	1651.3561
887.612	1631.56633
887.791	1621.65403
887.969	1632.44694
888.147	1607.21976
888.326	1620.98633
888.504	1582.52631
888.682	1638.99773
888.861	1616.23045
889.039	1617.07619
889.218	1615.80134
889.396	1614.23134
889.574	1606.6992
889.752	1604.46064
889.931	1573.72809
890.109	1590.9486
890.287	1566.23757
890.465	1561.36464
890.643	1604.44765
890.822	1585.37576
891	1585.22798
891.178	1572.93118
891.356	1587.94208
891.534	1553.86575
891.712	1569.11053
891.89	1542.04537
892.068	1558.91827
892.247	1557.71279
892.425	1588.59623
892.603	1553.29453
892.781	1574.62693
892.959	1526.21185
893.137	1565.19522
893.314	1554.40882
893.492	1528.30514
893.67	1546.34256
893.848	1552.46659
894.026	1542.07683
894.204	1538.48972
894.382	1506.2798
894.56	1548.20581
894.738	1510.12078
894.915	1518.9931
895.093	1516.77486
895.271	1489.99587
895.449	1462.96126
895.626	1486.08574
895.804	1471.84627
895.982	1481.90082
896.16	1455.67703
896.337	1456.53871
896.515	1433.24472
896.693	1422.0839
896.87	1440.88322
897.048	1422.09405
897.225	1414.09036
897.403	1407.39006
897.581	1408.37414
897.758	1402.75379
897.936	1378.62708
898.113	1334.32976
898.291	1349.81962
898.468	1351.39462
898.646	1335.66913
898.823	1303.51625
899.001	1301.49734
899.178	1258.39012
899.356	1240.37657
899.533	1245.56995
899.71	1228.73343
899.888	1210.50399
900.065	1179.35136
900.242	1180.29455
900.42	1158.36552
900.597	1152.36703
900.774	1113.75909
900.952	1105.31401
901.129	1090.59516
901.306	1087.90935
901.483	1042.99324
901.661	1048.68613
901.838	1032.48772
902.015	1012.45045
902.192	982.15868
902.369	965.2816
902.546	940.42391
902.723	943.79659
902.901	938.77128
903.078	906.24153
903.255	893.22548
903.432	905.06438
903.609	894.40694
903.786	866.49832
903.963	845.95689
904.14	840.89316
904.317	804.97543
904.494	823.07437
904.671	828.99528
904.848	802.93156
905.024	785.96421
905.201	803.44751
905.378	780.76861
905.555	785.06446
905.732	776.42083
905.909	776.89332
906.086	776.29715
906.262	786.16435
906.439	755.3759
906.616	781.15124
906.793	764.77253
906.969	776.34465
907.146	776.6164
907.323	772.99449
907.5	783.6764
907.676	791.69988
907.853	783.98992
908.03	781.90968
908.206	803.52654
908.383	792.63991
908.559	803.42312
908.736	828.36067
908.912	813.76298
909.089	820.07358
909.266	801.18202
909.442	802.8818
909.619	824.8347
909.795	823.52788
909.972	806.81249
910.148	823.24432
910.324	821.52004
910.501	799.85724
910.677	810.14332
910.854	803.00659
911.03	794.24314
911.206	806.65167
911.383	788.77408
911.559	798.42395
911.735	775.2781
911.912	774.6684
912.088	770.62828
912.264	773.58929
912.44	778.53272
912.617	760.10848
912.793	761.78317
912.969	767.07858
913.145	758.349
913.321	766.88734
913.498	729.39161
913.674	737.89544
913.85	733.19076
914.026	715.54873
914.202	717.69011
914.378	718.33985
914.554	688.648
914.73	688.38247
914.906	685.90289
915.082	685.71091
915.258	667.19418
915.434	663.83632
915.61	645.11825
915.786	645.16842
915.962	638.71817
916.138	618.20605
916.314	612.40164
916.49	615.64141
916.665	610.98656
916.841	609.00962
917.017	605.25689
917.193	591.92068
917.369	578.11298
917.545	593.67642
917.72	555.15619
917.896	580.08343
918.072	583.02353
918.247	577.0969
918.423	555.3585
918.599	590.6514
918.775	553.41438
918.95	567.20563
919.126	549.67962
919.301	547.72512
919.477	534.86988
919.653	559.75568
919.828	543.29088
920.004	551.1562
920.179	542.14458
920.355	547.25713
920.53	550.72255
920.706	546.47543
920.881	531.96897
921.057	526.82044
921.232	513.37282
921.408	545.94654
921.583	530.46964
921.759	543.12416
921.934	528.71664
922.109	528.34702
922.285	524.22299
922.46	528.14498
922.635	528.52095
922.811	530.5471
922.986	544.64407
923.161	534.98497
923.336	534.19051
923.512	537.0267
923.687	542.67263
923.862	547.28744
924.037	564.92426
924.212	582.58214
924.388	561.3373
924.563	551.12016
924.738	577.31999
924.913	579.1934
925.088	573.69789
925.263	585.18194
925.438	567.59377
925.613	575.29571
925.788	594.25108
925.963	572.65326
926.138	564.9999
926.313	587.92958
926.488	594.60268
926.663	587.10492
926.838	579.40233
927.013	587.52532
927.188	570.03333
927.363	598.87002
927.538	577.75856
927.713	563.59137
927.888	595.06041
928.062	589.6099
928.237	589.67925
928.412	588.25832
928.587	585.10786
928.761	607.14815
928.936	577.67241
929.111	562.23666
929.286	573.57766
929.46	589.32522
929.635	564.52117
929.81	577.4118
929.984	566.93869
930.159	570.91185
930.334	555.23123
930.508	553.4605
930.683	540.29697
930.857	531.50202
931.032	502.71017
931.206	513.99571
931.381	498.88354
931.556	472.1067
931.73	486.90498
931.904	483.99131
932.079	467.46111
932.253	454.55267
932.428	444.72761
932.602	460.48632
932.777	432.75162
932.951	403.22452
933.125	409.26712
933.3	404.41982
933.474	400.34911
933.648	383.08122
933.823	365.96849
933.997	351.64824
934.171	350.72403
934.345	339.76717
934.52	337.35913
934.694	332.59822
934.868	313.80718
935.042	326.86971
935.217	297.89289
935.391	291.11544
935.565	275.6207
935.739	282.58755
935.913	251.20287
936.087	246.52383
936.261	221.84058
936.435	213.57944
936.609	223.60725
936.783	219.74503
936.957	219.66528
937.131	204.411
937.305	172.52095
937.479	185.17761
937.653	163.09451
937.827	161.1389
938.001	150.19224
938.175	134.35483
938.349	144.77105
938.523	121.46451
938.697	123.46765
938.87	122.2298
939.044	117.13958
939.218	123.60485
939.392	101.06953
939.566	107.19282
939.739	103.75556
939.913	107.66209
940.087	109.22371
940.261	91.83458
940.434	89.56721
940.608	95.61355
940.782	75.61186
940.955	90.62085
941.129	84.10139
941.302	90.48615
941.476	76.51424
941.65	79.77441
941.823	82.09634
941.997	70.13637
942.17	86.57314
942.344	85.56619
942.517	95.02181
942.691	81.20731
942.864	92.60408
943.038	96.18928
943.211	87.91889
943.385	85.23661
943.558	96.17903
943.731	85.98803
943.905	86.54319
944.078	99.07398
944.251	93.14177
944.425	117.05388
944.598	95.59248
944.771	101.23342
944.945	106.32102
945.118	92.99985
945.291	82.42046
945.464	96.49758
945.638	85.55057
945.811	101.73638
945.984	111.09996
946.157	100.94343
946.33	106.55702
946.503	100.52142
946.677	103.84264
946.85	87.4602
947.023	110.42015
947.196	101.38756
947.369	106.01548
947.542	98.28453
947.715	109.65977
947.888	112.54028
948.061	104.09489
948.234	100.046
948.407	104.63665
948.58	99.06683
948.753	108.33695
948.926	92.7895
949.099	109.33149
949.271	93.02845
949.444	75.47818
949.617	92.03885
949.79	91.02918
949.963	99.19232
950.136	91.55188
950.308	86.68143
950.481	103.78871
950.654	85.41824
950.827	83.2306
950.999	83.54286
951.172	110.46753
951.345	100.73456
951.517	79.97848
951.69	95.50272
951.863	80.30015
952.035	88.47349
952.208	90.12294
952.381	89.6948
952.553	84.42746
952.726	99.99795
952.898	94.71961
953.071	105.5492
953.243	73.58931
953.416	92.5073
953.588	98.15807
953.761	72.61209
953.933	92.93563
954.106	73.04304
954.278	93.80749
954.45	81.76872
954.623	82.68073
954.795	72.2706
954.967	82.89229
955.14	90.50476
955.312	80.41295
955.484	83.18631
955.657	77.28873
955.829	96.61097
956.001	83.85943
956.173	72.13949
956.346	80.4157
956.518	83.43604
956.69	101.17683
956.862	88.48427
957.034	90.34055
957.207	88.56689
957.379	96.84032
957.551	85.65141
957.723	98.04692
957.895	79.4259
958.067	84.65509
958.239	81.44632
958.411	92.91761
958.583	98.84637
958.755	94.81604
958.927	92.14481
959.099	87.2367
959.271	95.61355
959.443	86.67747
959.615	87.91421
959.787	104.53586
959.959	91.81851
960.13	95.27307
960.302	73.49393
960.474	85.42083
960.646	94.69227
960.818	97.38107
960.99	95.40822
961.161	101.85486
961.333	95.6041
961.505	89.11658
961.677	77.39738
961.848	97.02584
962.02	98.72808
962.192	90.90276
962.363	88.11627
962.535	97.49075
962.707	89.47028
962.878	100.19785
963.05	114.4765
963.221	101.62948
963.393	81.40111
963.564	103.16501
963.736	94.4606
963.907	108.01552
964.079	88.33235
964.25	91.90248
964.422	102.37909
964.593	89.78044
964.765	93.36096
964.936	98.68687
965.108	117.94503
965.279	106.98241
965.45	108.32214
965.622	116.12609
965.793	105.87494
965.964	107.99418
966.136	120.73063
966.307	118.58207
966.478	111.65569
966.65	95.60265
966.821	120.04299
966.992	115.36677
967.163	107.85156
967.334	106.43416
967.506	95.66047
967.677	112.98403
967.848	114.56191
968.019	114.14545
968.19	124.28773
968.361	107.30594
968.532	109.75794
968.703	104.85013
968.874	110.8913
969.045	124.69341
969.216	117.22972
969.387	120.12167
969.558	136.74932
969.729	124.91533
969.9	132.76463
970.071	130.49516
970.242	123.14547
970.413	146.35077
970.584	121.67311
970.755	135.42987
970.926	140.2186
971.097	135.5377
971.267	129.23826
971.438	130.15894
971.609	143.78824
971.78	141.8424
971.951	148.13682
972.121	123.64374
972.292	138.49926
972.463	143.54969
972.633	143.19765
972.804	132.33362
972.975	140.17033
973.145	149.88542
973.316	163.76032
973.487	153.28271
973.657	161.12612
973.828	160.69242
973.998	158.56655
974.169	170.39595
974.339	155.81
974.51	141.58705
974.68	168.45114
974.851	168.46575
975.021	163.161
975.192	176.61975
975.362	173.82618
975.533	158.7736
975.703	182.64058
975.874	154.49766
976.044	176.10131
976.214	182.32195
976.385	172.91646
976.555	187.0628
976.725	172.44802
976.896	178.49236
977.066	187.73081
977.236	170.26538
977.406	174.84665
977.577	187.17402
977.747	193.73737
977.917	177.26795
978.087	169.27469
978.257	179.92159
978.427	162.84619
978.598	174.63146
978.768	177.15403
978.938	169.8273
979.108	165.37546
979.278	167.91633
979.448	166.5583
979.618	166.03638
979.788	166.11383
979.958	173.89681
980.128	152.80525
980.298	174.93686
980.468	151.99068
980.638	178.5395
980.808	148.53963
980.978	173.4302
981.148	160.03358
981.317	153.51573
981.487	149.89052
981.657	153.88391
981.827	163.26307
981.997	173.90236
982.167	147.12823
982.336	165.25916
982.506	142.6133
982.676	140.3989
982.846	145.30155
983.015	146.65718
983.185	140.94243
983.355	155.34993
983.524	142.10758
983.694	152.34023
983.864	149.42816
984.033	161.82818
984.203	147.44006
984.372	150.08714
984.542	154.7681
984.712	147.0035
984.881	156.58053
985.051	159.21582
985.22	155.15894
985.39	149.20885
985.559	149.40446
985.728	162.58535
985.898	142.51595
986.067	150.43478
986.237	175.52629
986.406	152.34714
986.576	139.137
986.745	160.4613
986.914	164.74497
987.084	146.52034
987.253	167.41428
987.422	165.59556
987.591	164.60005
987.761	167.74253
987.93	163.25505
988.099	165.23858
988.268	159.7147
988.438	154.59788
988.607	174.75654
988.776	187.96103
988.945	157.62486
989.114	164.82889
989.283	167.01031
989.452	164.91467
989.621	178.51457
989.791	171.14077
989.96	149.20378
990.129	155.1841
990.298	169.92768
990.467	172.80194
990.636	175.96012
990.805	150.08431
990.974	179.77776
991.142	152.20415
991.311	178.99203
991.48	169.14105
991.649	167.45162
991.818	176.50316
991.987	174.75324
992.156	156.60911
992.325	188.06234
992.493	172.51046
992.662	184.22656
992.831	162.96236
993	160.71766
993.168	165.91569
993.337	165.28038
993.506	163.00474
993.675	175.85084
993.843	179.72486
994.012	168.83717
994.181	167.32837
994.349	172.13958
994.518	178.8632
994.686	161.67655
994.855	166.8375
995.024	176.39789
995.192	172.43958
995.361	159.55754
995.529	181.07824
995.698	171.0495
995.866	152.64428
996.035	150.70283
996.203	177.61108
996.371	159.40475
996.54	174.03034
996.708	173.80193
996.877	183.64251
997.045	172.19936
997.213	155.21163
997.382	157.96049
997.55	168.09961
997.718	159.98345
997.887	170.96598
998.055	177.49915
998.223	172.19025
998.391	165.20992
998.56	165.04092
998.728	152.82887
998.896	153.88682
999.064	165.87144
999.232	173.61216
999.401	166.14203
999.569	151.49844
999.737	154.52563
999.905	155.7888
1000.073	151.9683
1000.241	151.42485
1000.409	160.5714
1000.577	153.90717
1000.745	168.04283
1000.913	166.27969
1001.081	163.22363
1001.249	156.44792
1001.417	150.26728
1001.585	140.93285
1001.753	157.27233
1001.921	156.7801
1002.089	141.06392
1002.256	156.56752
1002.424	142.71333
1002.592	140.70431
1002.76	162.05084
1002.928	152.85192
1003.096	146.80353
1003.263	133.90429
1003.431	137.72381
1003.599	139.07032
1003.767	140.86143
1003.934	146.758
1004.102	129.36482
1004.27	132.56536
1004.437	140.93126
1004.605	145.43765
1004.773	147.43002
1004.94	151.69567
1005.108	143.24699
1005.275	119.1994
1005.443	131.25221
1005.61	151.46377
1005.778	132.17636
1005.945	127.81283
1006.113	141.99887
1006.28	138.28906
1006.448	133.62627
1006.615	128.24928
1006.783	141.74443
1006.95	139.55863
1007.118	145.80046
1007.285	127.26248
1007.452	154.17711
1007.62	132.5839
1007.787	135.88123
1007.954	108.48306
1008.122	127.34258
1008.289	119.35059
1008.456	121.01551
1008.623	129.39225
1008.791	143.7866
1008.958	114.98123
1009.125	126.92723
1009.292	125.02913
1009.459	125.3506
1009.627	139.57132
1009.794	128.59567
1009.961	123.12681
1010.128	110.18216
1010.295	123.69895
1010.462	111.20807
1010.629	131.41036
1010.796	130.09139
1010.963	122.6848
1011.13	102.27924
1011.297	111.56072
1011.464	103.8521
1011.631	127.51674
1011.798	130.72937
1011.965	108.40773
1012.132	113.97988
1012.299	120.4866
1012.466	120.46331
1012.633	109.78794
1012.799	112.10204
1012.966	111.5658
1013.133	128.54077
1013.3	110.02352
1013.467	105.31133
1013.633	110.33965
1013.8	120.50673
1013.967	113.26973
1014.134	103.1568
1014.3	118.69129
1014.467	113.24605
1014.634	97.81718
1014.8	102.18324
1014.967	98.47322
1015.134	102.29438
1015.3	98.80361
1015.467	99.83624
1015.633	106.86806
1015.8	99.05855
1015.966	108.21228
1016.133	107.77893
1016.3	97.25255
1016.466	95.15501
1016.632	117.57257
1016.799	94.49002
1016.965	109.98133
1017.132	118.467
1017.298	102.41329
1017.465	108.68225
1017.631	112.90039
1017.797	86.11497
1017.964	100.71505
1018.13	98.48966
1018.296	98.92599
1018.463	109.45547
1018.629	100.97834
1018.795	102.07288
1018.961	90.47066
1019.128	102.97172
1019.294	87.89148
1019.46	96.95999
1019.626	87.01652
1019.792	91.7167
1019.959	96.70121
1020.125	88.69869
1020.291	94.58936
1020.457	98.09054
1020.623	94.03522
1020.789	84.32294
1020.955	97.73424
1021.121	83.3102
1021.287	94.93263
1021.453	103.97664
1021.619	82.88188
1021.785	86.56359
1021.951	72.7038
1022.117	94.60805
1022.283	82.87936
1022.449	75.62049
1022.615	85.00338
1022.781	82.83436
1022.946	84.42425
1023.112	87.26727
1023.278	82.51949
1023.444	74.84576
1023.61	90.72486
1023.775	86.46089
1023.941	68.12009
1024.107	80.77567
1024.273	86.68671
1024.438	81.46962
1024.604	93.73051
1024.77	95.33251
1024.935	72.80489
1025.101	71.49877
1025.267	88.78833
1025.432	87.01188
1025.598	85.14122
1025.763	80.3586
1025.929	79.65762
1026.095	79.86505
1026.26	82.64895
1026.426	91.49806
1026.591	70.37619
1026.757	89.37503
1026.922	79.87569
1027.087	77.74546
1027.253	77.31256
1027.418	71.52577
1027.584	79.5248
1027.749	73.51409
1027.914	76.0762
1028.08	75.27306
1028.245	51.49894
1028.41	77.43157
1028.576	71.80444
1028.741	78.85583
1028.906	84.42938
1029.072	79.77775
1029.237	69.82812
1029.402	68.25533
1029.567	74.49727
1029.732	65.68595
1029.898	61.3444
1030.063	86.13857
1030.228	79.88421
1030.393	79.77927
1030.558	66.56645
1030.723	65.48062
1030.888	77.31698
1031.053	76.32766
1031.218	48.91066
1031.383	73.28745
1031.548	70.4854
1031.713	71.51076
1031.878	62.56246
1032.043	68.3847
1032.208	62.22106
1032.373	69.05445
1032.538	59.87847
1032.703	62.34792
1032.868	82.01285
1033.033	85.84008
1033.198	57.55858
1033.362	52.8473
1033.527	62.91161
1033.692	51.71878
1033.857	67.24669
1034.021	49.37272
1034.186	74.09545
1034.351	49.4897
1034.516	65.58429
1034.68	55.96616
1034.845	49.83851
1035.01	58.98532
1035.174	70.95707
1035.339	58.21182
1035.504	60.5621
1035.668	69.04313
1035.833	71.62651
1035.997	68.95146
1036.162	58.20715
1036.326	57.53288
1036.491	58.21804
1036.655	62.13238
1036.82	73.41672
1036.984	58.53974
1037.149	61.33995
1037.313	59.44562
1037.478	59.99174
1037.642	47.82339
1037.807	68.94988
1037.971	52.40107
1038.135	57.87232
1038.3	62.13499
1038.464	60.31939
1038.628	50.71262
1038.792	46.58185
1038.957	49.59743
1039.121	44.57564
1039.285	58.20959
1039.449	50.05127
1039.614	61.10797
1039.778	55.42913
1039.942	58.3095
1040.106	65.48162
1040.27	39.54886
1040.434	61.90946
1040.599	49.95253
1040.763	36.52699
1040.927	49.48951
1041.091	65.03489
1041.255	49.94967
1041.419	41.44379
1041.583	38.53603
1041.747	56.09088
1041.911	53.64378
1042.075	60.22932
1042.239	42.22879
1042.403	64.04219
1042.567	47.47713
1042.731	66.26187
1042.894	38.99323
1043.058	70.62422
1043.222	39.10036
1043.386	55.41791
1043.55	49.38685
1043.714	58.12077
1043.877	54.20804
1044.041	51.62265
1044.205	41.45567
1044.369	59.89423
1044.532	54.87282
1044.696	54.52722
1044.86	42.91116
1045.023	64.24965
1045.187	43.79036
1045.351	33.51387
1045.514	53.19969
1045.678	44.1235
1045.841	49.16828
