Data from USB4F034991__2__10-39-01-022.txt Node

Date: Tue Sep 23 10:39:01 EDT 2025
User: brett
Spectrometer: USB4F03499
Trigger mode: 4
Integration Time (sec): 4.000000E-5
Scans to average: 1
Electric dark correction enabled: true
Nonlinearity correction enabled: true
Boxcar width: 0
XAxis mode: Wavelengths
Number of Pixels in Spectrum: 3648
>>>>>Begin Spectral Data<<<<<
320	-29.49702
320.225	-29.49702
320.449	-29.49702
320.674	91.18052
320.898	-20.86065
321.123	17.97134
321.347	78.27446
321.572	-38.13597
321.796	-103.01063
322.021	108.37985
322.245	35.21344
322.469	78.27446
322.694	-90.02398
322.918	-64.0683
323.143	-25.17851
323.367	-25.17851
323.591	26.59366
323.815	30.90387
324.04	39.52238
324.264	99.78143
324.488	-38.13597
324.712	13.65923
324.936	-59.74463
325.161	-59.74463
325.385	-55.4216
325.609	91.18052
325.833	56.75182
326.057	-33.81617
326.281	-7.9109
326.505	22.28282
326.729	82.5771
326.953	151.33474
327.177	91.18052
327.401	9.34648
327.625	13.65923
327.849	99.78143
328.073	112.67813
328.297	-3.5956
328.521	65.36276
328.744	168.49942
328.968	-51.09922
329.192	65.36276
329.416	-7.9109
329.64	65.36276
329.863	-38.13597
330.087	-20.86065
330.311	48.13836
330.535	61.05761
330.758	104.08095
330.982	108.37985
331.205	-38.13597
331.429	129.86503
331.653	91.18052
331.876	-12.22684
332.1	43.83069
332.323	198.51404
332.547	-29.49702
332.77	-51.09922
332.994	5.03309
333.217	9.34648
333.441	-25.17851
333.664	159.91831
333.887	-3.5956
334.111	-59.74463
334.334	48.13836
334.557	121.27282
334.781	48.13836
335.004	125.56923
335.227	22.28282
335.451	-42.45641
335.674	65.36276
335.897	-38.13597
336.12	5.03309
336.343	39.52238
336.567	26.59366
336.79	-29.49702
337.013	-3.5956
337.236	52.44541
337.459	-137.67054
337.682	198.51404
337.905	-25.17851
338.128	-12.22684
338.351	194.22807
338.574	-7.9109
338.797	125.56923
339.02	125.56923
339.243	134.16021
339.466	-16.54342
339.689	91.18052
339.911	39.52238
340.134	-33.81617
340.357	86.87912
340.58	69.66729
340.803	-111.67166
341.025	-12.22684
341.248	181.3665
341.471	82.5771
341.694	108.37985
341.916	134.16021
342.139	30.90387
342.362	56.75182
342.584	91.18052
342.807	-77.04321
343.029	104.08095
343.252	-20.86065
343.475	-29.49702
343.697	35.21344
343.92	78.27446
344.142	61.05761
344.365	-12.22684
344.587	5.03309
344.809	138.45476
345.032	155.62683
345.254	232.77998
345.477	-25.17851
345.699	26.59366
345.921	61.05761
346.144	-77.04321
346.366	138.45476
346.588	108.37985
346.81	17.97134
347.033	-51.09922
347.255	9.34648
347.477	73.97119
347.699	159.91831
347.921	61.05761
348.144	22.28282
348.366	35.21344
348.588	198.51404
348.81	78.27446
349.032	99.78143
349.254	147.04203
349.476	159.91831
349.698	82.5771
349.92	211.36831
350.142	30.90387
350.364	22.28282
350.586	52.44541
350.808	177.07808
351.029	35.21344
351.251	134.16021
351.473	-16.54342
351.695	164.20917
351.917	-3.5956
352.139	116.97578
352.36	56.75182
352.582	112.67813
352.804	5.03309
353.026	22.28282
353.247	73.97119
353.469	73.97119
353.691	-124.66814
353.912	108.37985
354.134	-33.81617
354.355	121.27282
354.577	9.34648
354.798	125.56923
355.02	-3.5956
355.242	30.90387
355.463	-46.77749
355.684	9.34648
355.906	288.3799
356.127	78.27446
356.349	129.86503
356.57	22.28282
356.792	134.16021
357.013	69.66729
357.234	-42.45641
357.456	13.65923
357.677	73.97119
357.898	177.07808
358.119	211.36831
358.341	73.97119
358.562	147.04203
358.783	164.20917
359.004	43.83069
359.225	48.13836
359.447	82.5771
359.668	121.27282
359.889	-3.5956
360.11	177.07808
360.331	185.6543
360.552	104.08095
360.773	129.86503
360.994	78.27446
361.215	116.97578
361.436	9.34648
361.657	86.87912
361.878	262.73098
362.099	-12.22684
362.32	35.21344
362.54	65.36276
362.761	91.18052
362.982	78.27446
363.203	164.20917
363.424	39.52238
363.645	99.78143
363.865	48.13836
364.086	39.52238
364.307	61.05761
364.527	125.56923
364.748	198.51404
364.969	194.22807
365.189	138.45476
365.41	30.90387
365.631	91.18052
365.851	5.03309
366.072	56.75182
366.292	13.65923
366.513	39.52238
366.733	39.52238
366.954	61.05761
367.174	69.66729
367.395	134.16021
367.615	134.16021
367.836	78.27446
368.056	138.45476
368.276	211.36831
368.497	52.44541
368.717	121.27282
368.937	48.13836
369.158	30.90387
369.378	121.27282
369.598	228.49885
369.818	129.86503
370.038	116.97578
370.259	95.48129
370.479	147.04203
370.699	30.90387
370.919	56.75182
371.139	116.97578
371.359	0.71907
371.579	73.97119
371.799	121.27282
372.02	-29.49702
372.24	108.37985
372.46	138.45476
372.68	91.18052
372.899	35.21344
373.119	207.08416
373.339	43.83069
373.559	138.45476
373.779	39.52238
373.999	207.08416
374.219	211.36831
374.439	237.06049
374.658	168.49942
374.878	228.49885
375.098	56.75182
375.318	189.94149
375.538	189.94149
375.757	198.51404
375.977	219.93479
376.197	155.62683
376.416	48.13836
376.636	331.08055
376.855	237.06049
377.075	121.27282
377.295	155.62683
377.514	237.06049
377.734	207.08416
377.953	228.49885
378.173	147.04203
378.392	249.89844
378.612	228.49885
378.831	129.86503
379.051	172.78906
379.27	215.65186
379.489	168.49942
379.709	172.78906
379.928	267.00729
380.147	147.04203
380.367	151.33474
380.586	215.65186
380.805	215.65186
381.024	433.32298
381.244	258.45406
381.463	296.92477
381.682	254.17655
381.901	309.73762
382.12	194.22807
382.34	164.20917
382.559	271.28301
382.778	198.51404
382.997	279.83264
383.216	211.36831
383.435	207.08416
383.654	142.7487
383.873	194.22807
384.092	181.3665
384.311	121.27282
384.53	147.04203
384.749	168.49942
384.968	211.36831
385.187	207.08416
385.405	377.98326
385.624	249.89844
385.843	424.81552
386.062	284.10657
386.281	292.65263
386.499	326.81314
386.718	134.16021
386.937	331.08055
387.156	189.94149
387.374	245.61973
387.593	219.93479
387.812	271.28301
388.03	373.7223
388.249	73.97119
388.467	129.86503
388.686	194.22807
388.905	172.78906
389.123	211.36831
389.342	365.19863
389.56	335.34736
389.779	343.87923
389.997	262.73098
390.216	284.10657
390.434	395.02128
390.652	142.7487
390.871	314.00739
391.089	215.65186
391.307	279.83264
391.526	369.46076
391.744	275.55812
391.962	271.28301
392.181	296.92477
392.399	339.61359
392.617	258.45406
392.835	403.53681
393.054	194.22807
393.272	314.00739
393.49	271.28301
393.708	211.36831
393.926	271.28301
394.144	172.78906
394.362	249.89844
394.58	219.93479
394.798	245.61973
395.016	219.93479
395.234	262.73098
395.452	352.40875
395.67	275.55812
395.888	335.34736
396.106	288.3799
396.324	335.34736
396.542	194.22807
396.76	279.83264
396.978	450.33099
397.196	467.32986
397.413	356.67263
397.631	245.61973
397.849	395.02128
398.067	237.06049
398.284	377.98326
398.502	373.7223
398.72	335.34736
398.938	314.00739
399.155	262.73098
399.373	301.19631
399.59	382.24364
399.808	395.02128
400.026	335.34736
400.243	194.22807
400.461	129.86503
400.678	305.46726
400.896	437.57584
401.113	189.94149
401.331	224.21713
401.548	296.92477
401.766	262.73098
401.983	416.30577
402.2	386.50343
402.418	284.10657
402.635	228.49885
402.853	194.22807
403.07	305.46726
403.287	301.19631
403.504	365.19863
403.722	228.49885
403.939	288.3799
404.156	279.83264
404.373	377.98326
404.591	365.19863
404.808	207.08416
405.025	254.17655
405.242	254.17655
405.459	377.98326
405.676	228.49885
405.893	249.89844
406.11	305.46726
406.327	395.02128
406.544	348.14428
406.761	356.67263
406.978	262.73098
407.195	356.67263
407.412	275.55812
407.629	433.32298
407.846	420.56094
408.063	292.65263
408.28	433.32298
408.497	339.61359
408.713	365.19863
408.93	228.49885
409.147	343.87923
409.364	369.46076
409.58	365.19863
409.797	232.77998
410.014	348.14428
410.231	395.02128
410.447	467.32986
410.664	198.51404
410.881	501.3003
411.097	365.19863
411.314	433.32298
411.53	339.61359
411.747	369.46076
411.963	463.081
412.18	437.57584
412.396	518.27195
412.613	386.50343
412.829	441.82813
413.046	475.82588
413.262	348.14428
413.479	429.06954
413.695	471.57815
413.911	365.19863
414.128	488.56564
414.344	471.57815
414.56	305.46726
414.777	458.83157
414.993	343.87923
415.209	399.27934
415.426	360.93592
415.642	484.31962
415.858	586.06895
416.074	441.82813
416.29	458.83157
416.506	488.56564
416.723	564.8977
416.939	539.47386
417.155	590.30153
417.371	399.27934
417.587	441.82813
417.803	488.56564
418.019	624.1424
418.235	522.51345
418.451	569.13306
418.667	420.56094
418.883	454.58157
419.099	564.8977
419.315	628.37004
419.53	611.4562
419.746	497.05598
419.962	450.33099
420.178	632.59713
420.394	750.73586
420.61	674.83807
420.825	670.61642
421.041	636.82367
421.257	467.32986
421.473	653.72439
421.688	653.72439
421.904	526.7544
422.12	543.71256
422.335	619.91421
422.551	569.13306
422.766	653.72439
422.982	526.7544
423.198	704.37451
423.413	738.09825
423.629	763.36869
423.844	560.66179
424.06	645.27512
424.275	624.1424
424.49	708.59185
424.706	788.62008
424.921	721.24066
425.137	792.8268
425.352	687.49978
425.567	573.36786
425.783	746.52385
425.998	564.8977
426.213	813.85255
426.429	746.52385
426.644	645.27512
426.859	771.78793
427.074	801.23867
427.29	704.37451
427.505	683.27975
427.72	602.99598
427.935	788.62008
428.15	662.17149
428.365	927.16772
428.58	801.23867
428.795	754.94733
429.01	725.45586
429.226	839.06622
429.441	797.033
429.656	813.85255
429.87	712.80866
430.085	855.86495
430.3	695.93822
430.515	843.26668
430.73	763.36869
430.945	788.62008
431.16	691.71927
431.375	893.63191
431.59	780.20506
431.804	860.06334
432.019	910.40389
432.234	851.66604
432.449	918.78683
432.663	809.64845
432.878	897.82567
433.093	864.26121
433.308	615.68548
433.522	775.99676
433.737	893.63191
433.951	914.59561
434.166	881.04755
434.381	881.04755
434.595	763.36869
434.81	759.15827
435.024	872.65541
435.239	956.48491
435.453	935.54659
435.668	1056.81468
435.882	872.65541
436.097	885.24285
436.311	902.01892
436.525	1069.33587
436.74	981.59427
436.954	809.64845
437.169	851.66604
437.383	843.26668
437.597	960.67106
437.811	1131.87598
438.026	1181.82995
438.24	1252.48103
438.454	989.96004
438.668	956.48491
438.883	964.8567
439.097	1073.50861
439.311	969.04185
439.525	1094.36503
439.739	939.73526
439.953	1027.58137
440.167	1002.50496
440.381	1023.40321
440.595	1077.68087
440.809	1240.02307
441.023	1156.86158
441.237	1273.23496
441.451	1235.86948
441.665	1181.82995
441.879	1056.81468
442.093	1231.71542
442.307	1198.46601
442.521	1235.86948
442.735	1364.41509
442.949	1194.3077
443.163	1285.68173
443.376	1219.25043
443.59	1260.784
443.804	1455.37559
444.018	1140.20644
444.231	1177.66975
444.445	1256.63274
444.659	1248.32884
444.872	1327.14097
445.086	1418.19069
445.3	1405.78769
445.513	1492.52458
445.727	1455.37559
445.94	1562.59818
446.154	1380.96955
446.368	1385.10703
446.581	1504.89966
446.795	1310.5628
447.008	1504.89966
447.222	1529.63802
447.435	1442.98463
447.648	1636.65803
447.862	1620.21222
448.075	1533.75956
448.289	1673.63643
448.502	1702.37395
448.715	1603.75961
448.929	1533.75956
449.142	1710.58092
449.355	1657.20579
449.568	1886.63562
449.782	1599.64539
449.995	1759.78807
450.208	1714.68379
450.421	1496.65005
450.634	1849.84866
450.848	1853.93769
451.061	2017.17629
451.274	1947.87616
451.487	2301.38818
451.7	2143.26423
451.913	1964.19212
452.126	1968.27014
452.339	2090.43256
452.552	2098.56461
452.765	2244.68889
452.978	2118.8882
453.191	2143.26423
453.404	2163.56743
453.617	2074.16397
453.83	2151.38662
454.043	2293.29256
454.255	2167.62697
454.468	2325.66658
454.681	2624.08512
454.894	2555.69183
455.107	2305.43547
455.319	2430.7278
455.532	2712.45541
455.745	2559.71759
455.958	2616.04374
456.17	2648.20149
456.383	2591.91181
456.596	2716.46858
456.808	2748.5626
457.021	2756.58296
457.233	2728.50619
457.446	2776.62843
457.659	2676.32263
457.871	2996.62596
458.084	2648.20149
458.296	2840.722
458.509	2952.69882
458.721	2884.74098
458.934	2920.7294
459.146	3144.1244
459.358	2968.67644
459.571	3124.21491
459.783	3171.98595
459.996	3235.61863
460.208	3032.54008
460.42	3060.4571
460.632	3191.87873
460.845	3430.06539
461.057	2904.73754
461.269	3247.54196
461.481	3076.40337
461.694	3120.23217
461.906	3283.29731
462.118	3434.02714
462.33	3291.23998
462.542	3247.54196
462.754	3136.16144
462.967	3247.54196
463.179	3231.64364
463.391	3374.57379
463.603	3501.33774
463.815	3434.02714
464.027	3311.09198
464.239	3777.74707
464.451	3777.74707
464.663	3457.79223
464.875	3473.63051
465.086	3659.43082
465.298	3489.46473
465.51	3529.03261
465.722	3612.04413
465.934	3615.99436
466.146	3608.09366
466.358	3556.71523
466.569	3789.56708
466.781	3659.43082
466.993	3887.98691
467.205	3958.76204
467.416	4001.97835
467.628	3884.05284
467.84	3730.44606
468.051	3773.8066
468.263	3931.24692
468.475	3923.38347
468.686	3821.07695
468.898	3966.62152
469.109	3943.04044
469.321	4154.99071
469.532	4013.76005
469.744	3919.45141
469.955	4151.07132
470.167	3943.04044
470.378	4342.88308
470.59	4123.62971
470.801	4151.07132
471.013	4256.82318
471.224	4268.56427
471.435	4432.75386
471.647	4194.17336
471.858	4417.13144
472.069	4362.42889
472.281	4272.47757
472.492	4096.17787
472.703	4542.0266
472.914	4338.97333
473.126	4627.78275
473.337	4444.46867
473.548	4487.4085
473.759	4495.2133
473.97	4643.36544
474.181	4549.82624
474.392	4362.42889
474.604	4549.82624
474.815	4436.65898
475.026	4639.47004
475.237	4584.91561
475.448	4565.42333
475.659	4690.09655
475.87	4787.37268
476.081	4592.71125
476.292	4557.62515
476.502	4608.30038
476.713	4608.30038
476.924	4561.52433
477.135	4662.83982
477.346	4588.81352
477.557	4690.09655
477.768	4651.15572
477.978	4608.30038
478.189	4725.12835
478.4	4604.40337
478.611	4822.36603
478.821	4713.45265
479.032	4627.78275
479.243	4658.94529
479.453	4946.67814
479.664	4779.59453
479.875	4717.34472
480.085	4612.19721
480.296	4938.91352
480.507	4806.81511
480.717	4857.34582
480.928	4631.67869
481.138	4923.38235
481.349	4993.25243
481.559	4845.68739
481.77	4923.38235
481.98	5028.1682
482.19	5024.2893
482.401	4907.84859
482.611	5175.45253
482.822	4919.49915
483.032	4907.84859
483.242	5183.19829
483.453	5063.07131
483.663	4760.14617
483.873	4713.45265
484.084	4872.88809
484.294	4950.56021
484.504	4950.56021
484.714	5063.07131
484.924	5156.08551
485.135	4787.37268
485.345	5063.07131
485.555	5063.07131
485.765	5063.07131
485.975	4985.49164
486.185	4993.25243
486.395	5225.78944
486.605	5334.12409
486.815	5066.94865
487.025	5039.80397
487.235	5024.2893
487.445	5303.18278
487.655	5132.84014
487.865	5078.57977
488.075	5059.1938
488.285	5392.11484
488.495	4903.96474
488.705	5384.38455
488.915	5252.88368
489.124	5419.16653
489.334	5237.40213
489.544	5322.52216
489.754	5504.14281
489.964	5461.66281
490.173	5252.88368
490.383	5299.31448
490.593	5140.5892
490.802	5245.1432
491.012	5299.31448
491.222	5241.27274
491.431	5039.80397
491.641	4915.61579
491.851	5229.66049
492.06	5256.75371
492.27	5299.31448
492.479	5341.85801
492.689	5047.56037
492.898	5283.83984
493.108	5032.04694
493.317	5198.68805
493.527	4884.54306
493.736	5384.38455
493.945	5101.83787
494.155	5388.24977
494.364	5070.82585
494.574	5132.84014
494.783	5171.57942
494.992	5144.4635
495.202	5032.04694
495.411	4923.38235
495.62	4997.13259
495.829	4950.56021
496.039	4989.37212
496.248	4993.25243
496.457	4969.96816
496.666	5225.78944
496.875	5187.07095
497.084	5218.04692
497.294	5159.95921
497.503	5179.32548
497.712	5032.04694
497.921	5125.09049
498.13	5070.82585
498.339	5159.95921
498.548	5264.49332
498.757	5260.62359
498.966	5210.30381
499.175	5229.66049
499.384	4861.23164
499.593	5322.52216
499.802	5132.84014
500.011	5307.05094
500.219	5272.23236
500.428	5337.99112
500.637	5214.17544
500.846	5558.18506
501.055	5291.57745
501.263	5450.07455
501.472	5272.23236
501.681	5326.38961
501.89	5156.08551
502.098	4958.32387
502.307	5423.03051
502.516	5403.70925
502.724	5384.38455
502.933	5365.05639
503.142	5442.34836
503.35	5612.2018
503.559	5322.52216
503.767	5488.69741
503.976	5546.60674
504.184	5619.91642
504.393	5341.85801
504.601	5469.38765
504.81	5492.55896
505.018	5407.57377
505.227	5438.48506
505.435	5477.11196
505.644	5225.78944
505.852	5477.11196
506.06	5461.66281
506.269	5592.91301
506.477	5577.47966
506.685	5488.69741
506.894	5542.74704
507.102	5442.34836
507.31	5508.00382
507.518	5457.80019
507.727	5392.11484
507.935	5708.59833
508.143	5550.46631
508.351	5229.66049
508.559	5229.66049
508.768	5450.07455
508.976	5673.9046
509.184	5650.76984
509.392	5565.90329
509.6	5612.2018
509.808	5473.24987
510.016	5697.03487
510.224	5500.28165
510.432	5542.74704
510.64	5519.58608
510.848	5589.05486
511.056	5519.58608
511.264	5596.77102
511.472	5596.77102
511.679	5724.01455
511.887	5639.20076
512.095	5558.18506
512.303	5635.34414
512.511	5766.39906
512.719	5627.63054
512.926	5766.39906
513.134	5558.18506
513.342	5592.91301
513.55	5635.34414
513.757	5828.02323
513.965	5812.62005
514.173	5643.05724
514.38	5531.16715
514.588	5712.45257
514.796	5365.05639
515.003	5585.19659
515.211	5488.69741
515.418	5508.00382
515.626	5762.54653
515.833	5287.70872
516.041	5596.77102
516.248	5314.78683
516.456	5430.75806
516.663	5677.75996
516.871	5542.74704
517.078	5635.34414
517.285	5623.77354
517.493	5596.77102
517.7	5789.51171
517.908	5604.48667
518.115	5565.90329
518.322	5677.75996
518.529	5562.04424
518.737	5461.66281
518.944	5562.04424
519.151	5565.90329
519.358	5461.66281
519.566	5511.86471
519.773	5511.86471
519.98	5627.63054
520.187	5361.19035
520.394	5334.12409
520.601	5589.05486
520.809	5847.27455
521.016	5419.16653
521.223	5395.97978
521.43	5554.32575
521.637	5577.47966
521.844	5573.621
522.051	5793.3634
522.258	5812.62005
522.465	5411.43816
522.672	5608.3443
522.878	5631.4874
523.085	5264.49332
523.292	5492.55896
523.499	5310.91896
523.706	5743.28206
523.913	5411.43816
524.12	5565.90329
524.326	5473.24987
524.533	5631.4874
524.74	5372.78807
524.947	5758.69388
525.153	5766.39906
525.36	5581.33819
525.567	5928.09831
525.773	5480.97391
525.98	5747.1352
526.187	5731.72192
526.393	5473.24987
526.6	5693.18013
526.806	5511.86471
527.013	5781.80798
527.22	5353.45783
527.426	5488.69741
527.633	5426.89435
527.839	5793.3634
528.046	5901.16271
528.252	6089.59669
528.458	5500.28165
528.665	5685.47029
528.871	5426.89435
529.078	5546.60674
529.284	5754.84111
529.49	5623.77354
529.697	5658.48193
529.903	5658.48193
530.109	5596.77102
530.316	5731.72192
530.522	5581.33819
530.728	5843.42452
530.934	5643.05724
531.14	5650.76984
531.347	5708.59833
531.553	5739.4288
531.759	5461.66281
531.965	5666.19351
532.171	5623.77354
532.377	5912.70723
532.583	5658.48193
532.789	5735.57542
532.996	5681.61519
533.202	5816.47102
533.408	5700.88948
533.614	5978.10681
533.82	5550.46631
534.025	5935.79317
534.231	5562.04424
534.437	5542.74704
534.643	5770.25147
534.849	5670.04912
535.055	5473.24987
535.261	5569.76221
535.467	5654.62594
535.672	5546.60674
535.878	5643.05724
536.084	5643.05724
536.29	5731.72192
536.496	5839.57438
536.701	5612.2018
536.907	5527.30693
537.113	5554.32575
537.318	5720.16068
537.524	5689.32528
537.73	5689.32528
537.935	5627.63054
538.141	5550.46631
538.346	5631.4874
538.552	5685.47029
538.758	5453.93744
538.963	5554.32575
539.169	5361.19035
539.374	5600.62891
539.58	5515.72546
539.785	5758.69388
539.991	5415.30241
540.196	5612.2018
540.401	5511.86471
540.607	5616.05918
540.812	5434.62162
541.017	5399.84458
541.223	5480.97391
541.428	5434.62162
541.633	5473.24987
541.839	5519.58608
542.044	5314.78683
542.249	5450.07455
542.454	5585.19659
542.66	5554.32575
542.865	5585.19659
543.07	5542.74704
543.275	5585.19659
543.48	5535.02725
543.686	5492.55896
543.891	5508.00382
544.096	5693.18013
544.301	5372.78807
544.506	5677.75996
544.711	5430.75806
544.916	5423.03051
545.121	5569.76221
545.326	5535.02725
545.531	5511.86471
545.736	5677.75996
545.941	5442.34836
546.146	5310.91896
546.351	5473.24987
546.555	5326.38961
546.76	5187.07095
546.965	5249.01351
547.17	5322.52216
547.375	5326.38961
547.58	5395.97978
547.784	5450.07455
547.989	5291.57745
548.194	5434.62162
548.399	5546.60674
548.603	5395.97978
548.808	5245.1432
549.013	5221.91826
549.217	5376.6537
549.422	5210.30381
549.627	5380.5192
549.831	5337.99112
550.036	5055.31615
550.24	5272.23236
550.445	5403.70925
550.649	5295.44603
550.854	5256.75371
551.058	5337.99112
551.263	5411.43816
551.467	5225.78944
551.672	5384.38455
551.876	5372.78807
552.081	5353.45783
552.285	5426.89435
552.489	5345.72476
552.694	5260.62359
552.898	5376.6537
553.102	5453.93744
553.307	5279.97083
553.511	5132.84014
553.715	5241.27274
553.919	5291.57745
554.124	5016.53102
554.328	5249.01351
554.532	5291.57745
554.736	5117.34022
554.94	5326.38961
555.145	4977.73022
555.349	5442.34836
555.553	5105.71369
555.757	5152.21166
555.961	5113.46486
556.165	5252.88368
556.369	5225.78944
556.573	5407.57377
556.777	5086.33309
556.981	5202.56011
557.185	5082.45651
557.389	5318.65457
557.593	5202.56011
557.797	5303.18278
558.001	5074.70289
558.205	5287.70872
558.409	5101.83787
558.612	5291.57745
558.816	5202.56011
559.02	5132.84014
559.224	5399.84458
559.428	5008.77212
559.631	5438.48506
559.835	5268.36291
560.039	5341.85801
560.243	5109.58935
560.446	5272.23236
560.65	5241.27274
560.854	5229.66049
561.057	5117.34022
561.261	5059.1938
561.464	5276.10167
561.668	5310.91896
561.872	5163.83276
562.075	5214.17544
562.279	5291.57745
562.482	5152.21166
562.686	5287.70872
562.889	5310.91896
563.093	5430.75806
563.296	5043.68224
563.499	5307.05094
563.703	5179.32548
563.906	5074.70289
564.11	5156.08551
564.313	5132.84014
564.516	5187.07095
564.72	5132.84014
564.923	4962.20546
565.126	5237.40213
565.33	4977.73022
565.533	5070.82585
565.736	4775.7052
565.939	4989.37212
566.142	4744.58441
566.346	4872.88809
566.549	4958.32387
566.752	4810.70309
566.955	4713.45265
567.158	4993.25243
567.361	4647.26067
567.564	4977.73022
567.767	4471.79664
567.971	4946.67814
568.174	4545.92651
568.377	4600.50617
568.58	4471.79664
568.783	4542.0266
568.985	4666.73416
569.188	4588.81352
569.391	4522.52429
569.594	4608.30038
569.797	4557.62515
570	4612.19721
570.203	4452.2776
570.406	4506.91912
570.609	4299.86509
570.811	4503.01737
571.014	4487.4085
571.217	4783.48369
571.42	4385.87746
571.622	4514.72208
571.825	4378.06204
572.028	4538.12651
572.231	4119.70865
572.433	4767.92602
572.636	4573.22079
572.838	4319.42167
573.041	4542.0266
573.244	4631.67869
573.446	4561.52433
573.649	4577.11924
573.851	4323.3324
574.054	4561.52433
574.256	4428.84854
574.459	4658.94529
574.661	4503.01737
574.864	4545.92651
575.066	4499.11543
575.269	4721.23662
575.471	4526.42512
575.673	4725.12835
575.876	4483.50581
576.078	4693.98967
576.281	4837.91427
576.483	4456.18179
576.685	4471.79664
576.887	4686.20325
577.09	4401.50598
577.292	4701.77538
577.494	4592.71125
577.696	4915.61579
577.899	4736.8025
578.101	4584.91561
578.303	4938.91352
578.505	4693.98967
578.707	4779.59453
578.909	4713.45265
579.111	4690.09655
579.314	4977.73022
579.516	4651.15572
579.718	4783.48369
579.92	4389.78487
580.122	4581.01751
580.324	4799.03865
580.526	4849.5737
580.728	4732.91129
580.93	4627.78275
581.131	4907.84859
581.333	4588.81352
581.535	4448.37323
581.737	4869.00277
581.939	5004.89244
582.141	4791.26151
582.343	4760.14617
582.544	4682.30979
582.746	4690.09655
582.948	4705.66798
583.15	4954.44212
583.352	4857.34582
583.553	4783.48369
583.755	4619.99034
583.957	4802.92696
584.158	4612.19721
584.36	4717.34472
584.562	4729.01991
584.763	4822.36603
584.965	4962.20546
585.166	4760.14617
585.368	4958.32387
585.569	4814.5909
585.771	4958.32387
585.972	4748.47511
586.174	4927.26538
586.375	4791.26151
586.577	4900.08073
586.778	4616.09386
586.98	4869.00277
587.181	4876.77324
587.383	4713.45265
587.584	4639.47004
587.785	4655.0506
587.987	4849.5737
588.188	4896.19656
588.389	4534.22623
588.591	4752.36563
588.792	4958.32387
588.993	4783.48369
589.194	4608.30038
589.396	4693.98967
589.597	4752.36563
589.798	4888.42772
589.999	4604.40337
590.2	4791.26151
590.401	4510.82069
590.603	4709.5604
590.804	4542.0266
591.005	4799.03865
591.206	4670.62833
591.407	4725.12835
591.608	4549.82624
591.809	4530.32577
592.01	4608.30038
592.211	4510.82069
592.412	4584.91561
592.613	4581.01751
592.814	4627.78275
593.015	4549.82624
593.216	4499.11543
593.416	4690.09655
593.617	4600.50617
593.818	4869.00277
594.019	4697.88261
594.22	4682.30979
594.421	4627.78275
594.621	4514.72208
594.822	4651.15572
595.023	4495.2133
595.224	4732.91129
595.424	4487.4085
595.625	4413.22536
595.826	4787.37268
596.026	4471.79664
596.227	4557.62515
596.428	4456.18179
596.628	4682.30979
596.829	4841.80091
597.029	4612.19721
597.23	4690.09655
597.43	4463.98959
597.631	4503.01737
597.831	4682.30979
598.032	4303.7768
598.232	4389.78487
598.433	4709.5604
598.633	4623.88663
598.834	4561.52433
599.034	4463.98959
599.234	4409.31909
599.435	4705.66798
599.635	4491.31099
599.835	4362.42889
600.036	4581.01751
600.236	4424.94303
600.436	4596.6088
600.637	4331.15326
600.837	4366.33746
601.037	4432.75386
601.237	4573.22079
601.438	4409.31909
601.638	4487.4085
601.838	4460.08578
602.038	4561.52433
602.238	4631.67869
602.438	4421.03733
602.638	4534.22623
602.838	4456.18179
603.038	4530.32577
603.239	4487.4085
603.439	4346.79263
603.639	4428.84854
603.839	4354.61115
604.039	4401.50598
604.238	4323.3324
604.438	4162.82889
604.638	4292.04108
604.838	4229.42026
605.038	4456.18179
605.238	4276.39067
605.438	4299.86509
605.638	4370.24585
605.838	4545.92651
606.037	4131.47121
606.237	4292.04108
606.437	4233.33556
606.637	4154.99071
606.836	4327.24292
607.036	4358.52011
607.236	4233.33556
607.436	4104.02231
607.635	4331.15326
607.835	4268.56427
608.034	4166.74767
608.234	4221.58903
608.434	4198.0905
608.633	4264.65077
608.833	4194.17336
609.032	4241.16557
609.232	4115.78738
609.431	4323.3324
609.631	4264.65077
609.83	4237.25067
610.03	4111.8659
610.229	3994.1228
610.429	4107.94421
610.628	3966.62152
610.828	4194.17336
611.027	4248.99478
611.226	4174.58461
611.426	4111.8659
611.625	4154.99071
611.824	4299.86509
612.024	4072.63951
612.223	4295.95319
612.422	4225.50475
612.621	4248.99478
612.821	4256.82318
613.02	4280.30357
613.219	4166.74767
613.418	4068.71571
613.617	4088.3326
613.817	3950.90168
614.016	4013.76005
614.215	4068.71571
614.414	4111.8659
614.613	4280.30357
614.812	4174.58461
615.011	4268.56427
615.21	3884.05284
615.409	4237.25067
615.608	4217.67312
615.807	4143.2319
616.006	4154.99071
616.205	4233.33556
616.404	4005.9058
616.603	4276.39067
616.802	4139.31188
617.001	4123.62971
617.2	4299.86509
617.398	4202.00743
617.597	4190.25602
617.796	3990.1947
617.995	4198.0905
618.194	4292.04108
618.392	3982.33785
618.591	4107.94421
618.79	4143.2319
618.988	4198.0905
619.187	4107.94421
619.386	4076.5631
619.585	4225.50475
619.783	4123.62971
619.982	3946.97117
620.18	4056.94303
620.379	4198.0905
620.578	4123.62971
620.776	3872.24928
620.975	3844.69972
621.173	4013.76005
621.372	4001.97835
621.57	3832.88937
621.769	3915.51913
621.967	4005.9058
622.166	3852.57216
622.364	4092.25534
622.562	3939.10949
622.761	3781.68731
622.959	3907.6539
623.157	3911.58662
623.356	3828.95212
623.554	3915.51913
623.752	3919.45141
623.951	3797.44593
624.149	3998.05069
624.347	3781.68731
624.546	3718.61553
624.744	3817.13902
624.942	3785.62731
625.14	3785.62731
625.338	3809.26248
625.536	3758.04241
625.735	3564.62232
625.933	3655.48326
626.131	3667.32522
626.329	3765.92497
626.527	3742.27447
626.725	3548.80716
626.923	3596.24079
627.121	3497.38032
627.319	3671.27206
627.517	3619.94434
627.715	3580.43352
627.913	3600.19199
628.111	3536.94318
628.309	3540.89808
628.507	3671.27206
628.705	3322.99998
628.903	3513.20847
629.1	3556.71523
629.298	3322.99998
629.496	3513.20847
629.694	3422.14113
629.892	3398.36213
630.089	3556.71523
630.287	3457.79223
630.485	3374.57379
630.683	3505.2949
630.88	3540.89808
631.078	3283.29731
631.276	3592.28934
631.473	3631.79282
631.671	3402.32595
631.869	3362.67609
632.066	3263.43593
632.264	3334.90558
632.461	3358.70966
632.659	3358.70966
632.856	3295.21092
633.054	3346.80881
633.251	3402.32595
633.449	3283.29731
633.646	3437.98863
633.844	3322.99998
634.041	3430.06539
634.239	3334.90558
634.436	3223.69285
634.634	3291.23998
634.831	3275.35356
635.028	3374.57379
635.226	3136.16144
635.423	3378.53916
635.62	3319.03091
635.817	3307.12211
636.015	3394.39806
636.212	3199.83391
636.409	3175.96506
636.606	3187.90073
636.804	3235.61863
637.001	3279.32557
637.198	3239.59334
637.395	3088.36008
637.592	3279.32557
637.789	3291.23998
637.987	3203.81109
638.184	3334.90558
638.381	3219.71705
638.578	3342.84133
638.775	3295.21092
638.972	3179.94389
639.169	3211.76461
639.366	3457.79223
639.563	3394.39806
639.76	3307.12211
639.957	3366.64225
640.154	3509.25181
640.351	3390.43373
640.547	3406.2895
640.744	3338.87359
640.941	3100.31424
641.138	3560.6689
641.335	3434.02714
641.532	3441.94986
641.728	3362.67609
641.925	3556.71523
642.122	3481.54813
642.319	3299.18158
642.515	3116.24915
642.712	3311.09198
642.909	3572.52841
643.105	3489.46473
643.302	3521.12104
643.499	3422.14113
643.695	3394.39806
643.892	3374.57379
644.089	3485.50655
644.285	3619.94434
644.482	3386.46913
644.678	3378.53916
644.875	3068.43081
645.071	3394.39806
645.268	3215.74097
645.464	3584.38571
645.661	3370.60815
645.857	3374.57379
646.054	3398.36213
646.25	3366.64225
646.446	3394.39806
646.643	3315.06158
646.839	3223.69285
647.035	3430.06539
647.232	3437.98863
647.428	3414.21583
647.624	3548.80716
647.821	3457.79223
648.017	3398.36213
648.213	3235.61863
648.409	3028.55078
648.606	3445.91084
648.802	3287.26878
648.998	3374.57379
649.194	3211.76461
649.39	3398.36213
649.586	3235.61863
649.783	3179.94389
649.979	3263.43593
650.175	3271.38129
650.371	3287.26878
650.567	3354.74297
650.763	3160.04696
650.959	3378.53916
651.155	3247.54196
651.351	3334.90558
651.547	3191.87873
651.743	3449.87156
651.939	3072.41723
652.135	3378.53916
652.33	3128.19737
652.526	3211.76461
652.722	3168.00656
652.918	3227.66838
653.114	3243.56778
653.31	3334.90558
653.506	3084.3748
653.701	3048.49438
653.897	3020.57131
654.093	3390.43373
654.289	3414.21583
654.484	3259.46284
654.68	3227.66838
654.876	3283.29731
655.071	2996.62596
655.267	3116.24915
655.463	2968.67644
655.658	3227.66838
655.854	3076.40337
656.049	3287.26878
656.245	2852.73082
656.441	3168.00656
656.636	3024.56119
656.832	3092.34508
657.027	3096.3298
657.223	2968.67644
657.418	3259.46284
657.613	3148.10546
657.809	2908.73595
658.004	3028.55078
658.2	3000.61758
658.395	3116.24915
658.591	3060.4571
658.786	2988.64185
658.981	2824.70598
659.177	3259.46284
659.372	3187.90073
659.567	3179.94389
659.762	2968.67644
659.958	2964.68248
660.153	2984.64935
660.348	2896.73982
660.543	2956.69367
660.739	2964.68248
660.934	3251.51585
661.129	3044.50624
661.324	2900.73883
661.519	2928.72354
661.714	2804.67906
661.909	3036.52908
662.104	2784.64445
662.299	3080.38923
662.495	2768.61118
662.69	2900.73883
662.885	2832.7146
663.08	2864.7369
663.275	2812.69075
663.469	2680.33865
663.664	2728.50619
663.859	2652.21976
664.054	2668.28962
664.249	2591.91181
664.444	2644.1829
664.639	2418.61727
664.834	2608.00107
665.029	2628.10532
665.223	2467.041
665.418	2616.04374
665.613	2660.25533
665.808	2591.91181
666.003	2511.38663
666.197	2636.14476
666.392	2603.97924
666.587	2426.6913
666.781	2240.63626
666.976	2240.63626
667.171	2394.38693
667.365	2358.01811
667.56	2366.1025
667.755	2325.66658
667.949	2236.58327
668.144	2353.97539
668.338	2281.14645
668.533	2374.1855
668.727	2414.57974
668.922	2196.03347
669.116	2264.94667
669.311	2196.03347
669.505	2386.3074
669.7	2309.4824
669.894	2317.57519
670.089	2167.62697
670.283	2204.14633
670.477	2131.07788
670.672	2196.03347
670.866	2118.8882
671.06	2196.03347
671.255	2212.25774
671.449	2045.67942
671.643	2289.24421
671.837	2110.75988
672.032	2232.52991
672.226	2082.29902
672.42	2216.3129
672.614	1976.42501
672.809	2167.62697
673.003	2102.63008
673.197	2159.50753
673.391	2074.16397
673.585	2463.00756
673.779	2122.9518
673.973	2264.94667
674.167	2114.82423
674.361	2070.09588
674.555	2305.43547
674.749	2232.52991
674.943	2204.14633
675.137	2454.93966
675.331	2159.50753
675.525	2151.38662
675.719	2313.52897
675.913	2135.14037
676.107	2098.56461
676.301	1996.80546
676.495	2053.81975
676.689	2143.26423
676.883	2273.04727
677.076	2086.36598
677.27	2029.3942
677.464	2025.32195
677.658	2114.82423
677.852	1996.80546
678.045	2281.14645
678.239	2074.16397
678.433	1980.50187
678.626	2086.36598
678.82	2183.86145
679.014	2094.49878
679.207	2248.74116
679.401	2013.10289
679.595	2074.16397
679.788	2086.36598
679.982	2106.69516
680.175	2029.3942
680.369	2078.23168
680.563	1947.87616
680.756	1972.34777
680.95	2082.29902
681.143	1980.50187
681.336	2110.75988
681.53	1988.65443
681.723	2122.9518
681.917	2179.80338
682.11	2074.16397
682.304	2074.16397
682.497	2053.81975
682.69	2086.36598
682.884	2143.26423
683.077	2004.95494
683.27	2078.23168
683.464	1898.89081
683.657	1960.11371
683.85	2078.23168
684.043	2009.02911
684.237	1898.89081
684.43	2106.69516
684.623	2021.24931
684.816	2070.09588
685.009	2070.09588
685.202	2098.56461
685.396	2273.04727
685.589	1882.54977
685.782	1984.57835
685.975	2070.09588
686.168	2045.67942
686.361	2090.43256
686.554	2151.38662
686.747	2013.10289
686.94	2074.16397
687.133	2086.36598
687.326	2106.69516
687.519	2045.67942
687.712	2171.68614
687.905	2224.42213
688.098	2122.9518
688.291	2021.24931
688.484	2086.36598
688.676	1919.30823
688.869	2151.38662
689.062	2086.36598
689.255	2094.49878
689.448	2049.74978
689.64	2228.4762
689.833	2102.63008
690.026	2004.95494
690.219	2061.95857
690.411	2013.10289
690.604	2037.53757
690.797	2098.56461
690.989	2118.8882
691.182	2135.14037
691.375	2094.49878
691.567	1951.95573
691.76	2114.82423
691.952	1964.19212
692.145	2179.80338
692.338	2021.24931
692.53	2256.84463
692.723	1960.11371
692.915	2078.23168
693.108	1808.93628
693.3	1747.49184
693.493	1620.21222
693.685	1972.34777
693.877	1849.84866
694.07	1829.39749
694.262	1665.42195
694.455	1829.39749
694.647	1677.74304
694.839	1607.8734
695.032	1607.8734
695.224	1677.74304
695.416	1401.65246
695.609	1537.88066
695.801	1405.78769
695.993	1380.96955
696.185	1673.63643
696.378	1314.70803
696.57	1264.93478
696.762	1231.71542
696.954	1364.41509
697.146	1351.99449
697.338	1343.71181
697.53	1339.56978
697.723	1314.70803
697.915	1035.93621
698.107	1281.53327
698.299	1264.93478
698.491	1422.32413
698.683	1397.51678
698.875	1198.46601
699.067	1426.45712
699.259	1123.5436
699.451	1127.71003
699.643	1347.85337
699.835	1240.02307
700.027	1031.75904
700.219	1181.82995
700.41	1273.23496
700.602	1048.46477
700.794	1140.20644
700.986	1169.34791
701.178	1069.33587
701.37	1052.63997
701.561	1073.50861
701.753	885.24285
701.945	1102.70419
702.137	1161.02417
702.328	973.22649
702.52	1206.78119
702.712	1140.20644
702.903	973.22649
703.095	1010.86575
703.287	1006.68561
703.478	964.8567
703.67	1194.3077
703.862	1161.02417
704.053	969.04185
704.245	1010.86575
704.436	969.04185
704.628	981.59427
704.819	1081.85264
705.011	1123.5436
705.202	939.73526
705.394	964.8567
705.585	1056.81468
705.777	1131.87598
705.968	1065.16263
706.159	1006.68561
706.351	948.11109
706.542	1060.9889
706.734	906.21166
706.925	906.21166
707.116	922.97753
707.308	1115.20929
707.499	1306.41711
707.69	1023.40321
707.881	1073.50861
708.073	1111.04141
708.264	1098.53485
708.455	1098.53485
708.646	1031.75904
708.837	1015.0454
709.029	1081.85264
709.22	989.96004
709.411	1044.28908
709.602	1002.50496
709.793	1181.82995
709.984	1206.78119
710.175	1052.63997
710.366	1140.20644
710.557	977.41063
710.748	1181.82995
710.939	998.32382
711.13	977.41063
711.321	1060.9889
711.512	1098.53485
711.703	1077.68087
711.894	1123.5436
712.085	1152.69851
712.276	1190.14893
712.467	1206.78119
712.658	1194.3077
712.849	1198.46601
713.039	1227.56089
713.23	1219.25043
713.421	1252.48103
713.612	1339.56978
713.803	1111.04141
713.993	1364.41509
714.184	1069.33587
714.375	1223.40589
714.566	1227.56089
714.756	1322.99712
714.947	1185.98967
715.138	1206.78119
715.328	1060.9889
715.519	1260.784
715.709	1256.63274
715.9	1492.52458
716.091	1269.0851
716.281	1418.19069
716.472	1314.70803
716.662	1595.53075
716.853	1438.85342
717.043	1550.24136
717.234	1331.28436
717.424	1306.41711
717.615	1235.86948
717.805	1173.50907
717.996	1405.78769
718.186	1240.02307
718.376	1351.99449
718.567	1260.784
718.757	1289.82973
718.947	1269.0851
719.138	1314.70803
719.328	1389.24407
719.518	1210.93807
719.709	1480.14555
719.899	1298.12435
720.089	1463.63401
720.279	1471.89066
720.47	1327.14097
720.66	1206.78119
720.85	1380.96955
721.04	1318.8528
721.23	1181.82995
721.421	1409.92247
721.611	1397.51678
721.801	1438.85342
721.991	1364.41509
722.181	1447.11539
722.371	1418.19069
722.561	1467.76256
722.751	1322.99712
722.941	1206.78119
723.131	1484.27234
723.321	1281.53327
723.511	1430.58967
723.701	1351.99449
723.891	1343.71181
724.081	1331.28436
724.271	1476.01833
724.461	1430.58967
724.651	1310.5628
724.84	1198.46601
725.03	1484.27234
725.22	1235.86948
725.41	1422.32413
725.6	1356.13514
725.789	1558.47967
725.979	1351.99449
726.169	1260.784
726.359	1509.02381
726.548	1231.71542
726.738	1467.76256
726.928	1430.58967
727.118	1343.71181
727.307	1409.92247
727.497	1389.24407
727.686	1302.27096
727.876	1372.69323
728.066	1414.05681
728.255	1360.27534
728.445	1409.92247
728.634	1252.48103
728.824	1347.85337
729.013	1131.87598
729.203	1343.71181
729.392	1372.69323
729.582	1471.89066
729.771	1273.23496
729.961	1380.96955
730.15	1227.56089
730.34	1343.71181
730.529	1264.93478
730.718	1360.27534
730.908	1293.97727
731.097	1397.51678
731.286	1235.86948
731.476	1385.10703
731.665	1310.5628
731.854	1347.85337
732.044	1223.40589
732.233	1409.92247
732.422	1314.70803
732.611	1306.41711
732.8	1240.02307
732.99	1240.02307
733.179	1077.68087
733.368	1393.38065
733.557	1190.14893
733.746	1343.71181
733.935	1136.04145
734.124	1240.02307
734.313	1215.09449
734.503	1364.41509
734.692	1156.86158
734.881	1206.78119
735.07	989.96004
735.259	1177.66975
735.448	935.54659
735.637	1194.3077
735.826	1073.50861
736.015	893.63191
736.203	1023.40321
736.392	1015.0454
736.581	948.11109
736.77	1077.68087
736.959	939.73526
737.148	973.22649
737.337	889.43764
737.525	855.86495
737.714	1006.68561
737.903	839.06622
738.092	674.83807
738.281	754.94733
738.469	872.65541
738.658	729.67052
738.847	607.22637
739.035	624.1424
739.224	742.31132
739.413	750.73586
739.601	712.80866
739.79	645.27512
739.979	577.60211
740.167	679.05918
740.356	619.91421
740.544	543.71256
740.733	488.56564
740.921	467.32986
741.11	586.06895
741.299	607.22637
741.487	424.81552
741.675	526.7544
741.864	573.36786
742.052	535.2346
742.241	369.46076
742.429	590.30153
742.618	365.19863
742.806	441.82813
742.994	390.76265
743.183	560.66179
743.371	467.32986
743.559	569.13306
743.748	433.32298
743.936	450.33099
744.124	569.13306
744.312	471.57815
744.501	564.8977
744.689	509.78725
744.877	573.36786
745.065	463.081
745.254	497.05598
745.442	569.13306
745.63	598.76505
745.818	577.60211
746.006	480.07303
746.194	577.60211
746.382	594.53357
746.57	581.8358
746.758	662.17149
746.946	712.80866
747.134	679.05918
747.323	797.033
747.51	738.09825
747.698	733.88466
747.886	801.23867
748.074	738.09825
748.262	813.85255
748.45	855.86495
748.638	809.64845
748.826	1023.40321
749.014	780.20506
749.202	872.65541
749.39	780.20506
749.577	813.85255
749.765	687.49978
749.953	725.45586
750.141	906.21166
750.329	918.78683
750.516	935.54659
750.704	885.24285
750.892	759.15827
751.079	860.06334
751.267	839.06622
751.455	902.01892
751.643	981.59427
751.83	860.06334
752.018	918.78683
752.205	788.62008
752.393	939.73526
752.581	918.78683
752.768	784.41283
752.956	851.66604
753.143	889.43764
753.331	964.8567
753.518	708.59185
753.706	906.21166
753.893	897.82567
754.081	843.26668
754.268	1123.5436
754.456	813.85255
754.643	847.46662
754.83	885.24285
755.018	1027.58137
755.205	860.06334
755.392	860.06334
755.58	855.86495
755.767	771.78793
755.954	939.73526
756.142	767.57857
756.329	818.05613
756.516	834.86524
756.703	855.86495
756.891	872.65541
757.078	830.66375
757.265	1023.40321
757.452	872.65541
757.639	780.20506
757.827	872.65541
758.014	1019.22455
758.201	956.48491
758.388	881.04755
758.575	742.31132
758.762	834.86524
758.949	797.033
759.136	809.64845
759.323	881.04755
759.51	767.57857
759.697	801.23867
759.884	809.64845
760.071	792.8268
760.258	964.8567
760.445	704.37451
760.632	733.88466
760.819	738.09825
761.006	927.16772
761.193	830.66375
761.38	733.88466
761.566	641.04967
761.753	721.24066
761.94	826.46173
762.127	725.45586
762.314	721.24066
762.5	914.59561
762.687	822.25919
762.874	792.8268
763.061	801.23867
763.247	805.44382
763.434	868.45857
763.621	700.15664
763.807	742.31132
763.994	780.20506
764.181	788.62008
764.367	964.8567
764.554	767.57857
764.74	839.06622
764.927	797.033
765.114	738.09825
765.3	717.02493
765.487	717.02493
765.673	645.27512
765.86	733.88466
766.046	725.45586
766.233	893.63191
766.419	801.23867
766.605	683.27975
766.792	666.39422
766.978	771.78793
767.165	788.62008
767.351	636.82367
767.537	767.57857
767.724	750.73586
767.91	843.26668
768.096	552.18829
768.283	771.78793
768.469	851.66604
768.655	569.13306
768.841	759.15827
769.028	657.94821
769.214	645.27512
769.4	834.86524
769.586	611.4562
769.773	717.02493
769.959	721.24066
770.145	746.52385
770.331	539.47386
770.517	653.72439
770.703	729.67052
770.889	577.60211
771.075	471.57815
771.261	704.37451
771.447	666.39422
771.633	569.13306
771.819	708.59185
772.005	624.1424
772.191	645.27512
772.377	543.71256
772.563	662.17149
772.749	725.45586
772.935	628.37004
773.121	615.68548
773.307	649.50003
773.493	780.20506
773.679	501.3003
773.865	573.36786
774.05	611.4562
774.236	590.30153
774.422	611.4562
774.608	657.94821
774.794	641.04967
774.979	586.06895
775.165	611.4562
775.351	611.4562
775.537	594.53357
775.722	674.83807
775.908	691.71927
776.094	695.93822
776.279	628.37004
776.465	619.91421
776.65	526.7544
776.836	581.8358
777.022	670.61642
777.207	704.37451
777.393	535.2346
777.578	619.91421
777.764	535.2346
777.949	780.20506
778.135	552.18829
778.32	679.05918
778.506	526.7544
778.691	611.4562
778.877	577.60211
779.062	509.78725
779.247	416.30577
779.433	598.76505
779.618	505.54406
779.804	611.4562
779.989	619.91421
780.174	670.61642
780.36	645.27512
780.545	632.59713
780.73	526.7544
780.915	641.04967
781.101	607.22637
781.286	641.04967
781.471	530.99478
781.656	590.30153
781.842	530.99478
782.027	586.06895
782.212	454.58157
782.397	522.51345
782.582	594.53357
782.767	569.13306
782.952	437.57584
783.138	636.82367
783.323	518.27195
783.508	552.18829
783.693	577.60211
783.878	467.32986
784.063	454.58157
784.248	552.18829
784.433	712.80866
784.618	624.1424
784.803	539.47386
784.988	501.3003
785.173	530.99478
785.357	547.95071
785.542	497.05598
785.727	475.82588
785.912	509.78725
786.097	518.27195
786.282	530.99478
786.467	547.95071
786.651	619.91421
786.836	501.3003
787.021	386.50343
787.206	577.60211
787.391	539.47386
787.575	662.17149
787.76	564.8977
787.945	602.99598
788.129	547.95071
788.314	564.8977
788.499	395.02128
788.683	526.7544
788.868	501.3003
789.053	628.37004
789.237	514.02988
789.422	518.27195
789.606	463.081
789.791	543.71256
789.975	636.82367
790.16	284.10657
790.344	564.8977
790.529	412.05003
790.713	543.71256
790.898	514.02988
791.082	219.93479
791.267	471.57815
791.451	412.05003
791.636	292.65263
791.82	429.06954
792.004	416.30577
792.189	331.08055
792.373	360.93592
792.557	526.7544
792.742	314.00739
792.926	441.82813
793.11	403.53681
793.295	360.93592
793.479	471.57815
793.663	288.3799
793.847	292.65263
794.031	177.07808
794.216	382.24364
794.4	331.08055
794.584	309.73762
794.768	284.10657
794.952	335.34736
795.136	314.00739
795.32	509.78725
795.505	292.65263
795.689	339.61359
795.873	215.65186
796.057	237.06049
796.241	296.92477
796.425	288.3799
796.609	296.92477
796.793	348.14428
796.977	403.53681
797.161	168.49942
797.345	267.00729
797.529	390.76265
797.713	202.79941
797.896	356.67263
798.08	215.65186
798.264	211.36831
798.448	386.50343
798.632	172.78906
798.816	424.81552
798.999	326.81314
799.183	365.19863
799.367	275.55812
799.551	241.34041
799.735	207.08416
799.918	424.81552
800.102	228.49885
800.286	284.10657
800.469	322.54515
800.653	314.00739
800.837	232.77998
801.02	331.08055
801.204	369.46076
801.388	360.93592
801.571	224.21713
801.755	305.46726
801.938	228.49885
802.122	305.46726
802.306	296.92477
802.489	458.83157
802.673	309.73762
802.856	331.08055
803.04	211.36831
803.223	172.78906
803.406	194.22807
803.59	343.87923
803.773	237.06049
803.957	258.45406
804.14	249.89844
804.323	296.92477
804.507	245.61973
804.69	339.61359
804.874	91.18052
805.057	296.92477
805.24	237.06049
805.423	403.53681
805.607	198.51404
805.79	138.45476
805.973	185.6543
806.156	305.46726
806.34	198.51404
806.523	399.27934
806.706	284.10657
806.889	433.32298
807.072	194.22807
807.256	185.6543
807.439	194.22807
807.622	433.32298
807.805	142.7487
807.988	377.98326
808.171	309.73762
808.354	296.92477
808.537	279.83264
808.72	343.87923
808.903	262.73098
809.086	271.28301
809.269	224.21713
809.452	288.3799
809.635	237.06049
809.818	301.19631
810.001	331.08055
810.184	301.19631
810.367	258.45406
810.55	202.79941
810.732	463.081
810.915	142.7487
811.098	284.10657
811.281	339.61359
811.464	258.45406
811.647	365.19863
811.829	237.06049
812.012	301.19631
812.195	237.06049
812.378	232.77998
812.56	198.51404
812.743	121.27282
812.926	219.93479
813.108	267.00729
813.291	164.20917
813.474	129.86503
813.656	202.79941
813.839	262.73098
814.022	177.07808
814.204	125.56923
814.387	172.78906
814.569	267.00729
814.752	284.10657
814.934	211.36831
815.117	181.3665
815.299	279.83264
815.482	56.75182
815.664	142.7487
815.847	305.46726
816.029	189.94149
816.212	241.34041
816.394	134.16021
816.576	288.3799
816.759	202.79941
816.941	326.81314
817.123	412.05003
817.306	335.34736
817.488	288.3799
817.67	296.92477
817.853	258.45406
818.035	301.19631
818.217	369.46076
818.4	245.61973
818.582	147.04203
818.764	331.08055
818.946	318.27656
819.128	181.3665
819.311	322.54515
819.493	159.91831
819.675	373.7223
819.857	318.27656
820.039	249.89844
820.221	348.14428
820.403	331.08055
820.585	322.54515
820.767	373.7223
820.949	207.08416
821.132	326.81314
821.314	164.20917
821.496	249.89844
821.678	241.34041
821.859	215.65186
822.041	339.61359
822.223	288.3799
822.405	335.34736
822.587	416.30577
822.769	232.77998
822.951	232.77998
823.133	262.73098
823.315	390.76265
823.497	181.3665
823.678	249.89844
823.86	211.36831
824.042	177.07808
824.224	296.92477
824.406	322.54515
824.587	331.08055
824.769	292.65263
824.951	151.33474
825.132	373.7223
825.314	275.55812
825.496	314.00739
825.678	326.81314
825.859	382.24364
826.041	262.73098
826.222	450.33099
826.404	215.65186
826.586	82.5771
826.767	194.22807
826.949	365.19863
827.13	292.65263
827.312	241.34041
827.493	151.33474
827.675	138.45476
827.856	267.00729
828.038	309.73762
828.219	177.07808
828.401	198.51404
828.582	202.79941
828.764	314.00739
828.945	241.34041
829.126	219.93479
829.308	134.16021
829.489	356.67263
829.671	249.89844
829.852	215.65186
830.033	95.48129
830.214	207.08416
830.396	134.16021
830.577	181.3665
830.758	189.94149
830.94	296.92477
831.121	305.46726
831.302	202.79941
831.483	284.10657
831.664	142.7487
831.846	138.45476
832.027	309.73762
832.208	189.94149
832.389	202.79941
832.57	56.75182
832.751	275.55812
832.932	112.67813
833.113	224.21713
833.294	138.45476
833.476	288.3799
833.657	262.73098
833.838	112.67813
834.019	151.33474
834.2	95.48129
834.381	181.3665
834.561	185.6543
834.742	232.77998
834.923	284.10657
835.104	369.46076
835.285	258.45406
835.466	181.3665
835.647	262.73098
835.828	279.83264
836.009	288.3799
836.189	99.78143
836.37	207.08416
836.551	155.62683
836.732	416.30577
836.913	129.86503
837.093	241.34041
837.274	262.73098
837.455	151.33474
837.636	232.77998
837.816	151.33474
837.997	142.7487
838.178	237.06049
838.358	177.07808
838.539	142.7487
838.72	159.91831
838.9	237.06049
839.081	224.21713
839.261	9.34648
839.442	288.3799
839.622	86.87912
839.803	403.53681
839.984	112.67813
840.164	159.91831
840.345	335.34736
840.525	318.27656
840.705	275.55812
840.886	241.34041
841.066	224.21713
841.247	134.16021
841.427	211.36831
841.608	237.06049
841.788	151.33474
841.968	134.16021
842.149	82.5771
842.329	159.91831
842.509	95.48129
842.69	164.20917
842.87	314.00739
843.05	249.89844
843.231	129.86503
843.411	262.73098
843.591	215.65186
843.771	108.37985
843.951	69.66729
844.132	73.97119
844.312	343.87923
844.492	185.6543
844.672	155.62683
844.852	159.91831
845.032	318.27656
845.213	-3.5956
845.393	211.36831
845.573	125.56923
845.753	189.94149
845.933	61.05761
846.113	108.37985
846.293	185.6543
846.473	138.45476
846.653	99.78143
846.833	241.34041
847.013	147.04203
847.193	125.56923
847.373	177.07808
847.553	151.33474
847.733	138.45476
847.913	61.05761
848.092	249.89844
848.272	125.56923
848.452	95.48129
848.632	189.94149
848.812	164.20917
848.992	112.67813
849.171	142.7487
849.351	164.20917
849.531	91.18052
849.711	142.7487
849.89	237.06049
850.07	279.83264
850.25	262.73098
850.43	159.91831
850.609	219.93479
850.789	134.16021
850.969	207.08416
851.148	215.65186
851.328	198.51404
851.507	194.22807
851.687	65.36276
851.867	99.78143
852.046	279.83264
852.226	104.08095
852.405	185.6543
852.585	69.66729
852.764	151.33474
852.944	159.91831
853.123	275.55812
853.303	224.21713
853.482	108.37985
853.662	207.08416
853.841	35.21344
854.021	69.66729
854.2	142.7487
854.379	288.3799
854.559	194.22807
854.738	168.49942
854.917	194.22807
855.097	9.34648
855.276	138.45476
855.455	219.93479
855.635	108.37985
855.814	194.22807
855.993	177.07808
856.172	181.3665
856.352	172.78906
856.531	82.5771
856.71	138.45476
856.889	91.18052
857.068	172.78906
857.248	185.6543
857.427	99.78143
857.606	151.33474
857.785	91.18052
857.964	134.16021
858.143	142.7487
858.322	185.6543
858.501	125.56923
858.68	262.73098
858.859	151.33474
859.038	159.91831
859.217	326.81314
859.396	159.91831
859.575	129.86503
859.754	5.03309
859.933	99.78143
860.112	339.61359
860.291	284.10657
860.47	232.77998
860.649	73.97119
860.828	142.7487
861.007	30.90387
861.186	185.6543
861.364	65.36276
861.543	134.16021
861.722	22.28282
861.901	228.49885
862.08	104.08095
862.258	125.56923
862.437	112.67813
862.616	95.48129
862.795	219.93479
862.973	129.86503
863.152	232.77998
863.331	181.3665
863.509	108.37985
863.688	-72.71759
863.867	56.75182
864.045	228.49885
864.224	91.18052
864.402	211.36831
864.581	202.79941
864.76	95.48129
864.938	99.78143
865.117	237.06049
865.295	9.34648
865.474	142.7487
865.652	168.49942
865.831	202.79941
866.009	112.67813
866.188	138.45476
866.366	202.79941
866.544	82.5771
866.723	-16.54342
866.901	104.08095
867.08	228.49885
867.258	22.28282
867.436	78.27446
867.615	164.20917
867.793	181.3665
867.971	78.27446
868.15	82.5771
868.328	249.89844
868.506	-25.17851
868.684	181.3665
868.863	61.05761
869.041	52.44541
869.219	82.5771
869.397	-3.5956
869.576	147.04203
869.754	138.45476
869.932	65.36276
870.11	155.62683
870.288	5.03309
870.466	155.62683
870.644	177.07808
870.822	168.49942
871.001	65.36276
871.179	112.67813
871.357	86.87912
871.535	177.07808
871.713	99.78143
871.891	52.44541
872.069	73.97119
872.247	164.20917
872.425	56.75182
872.603	69.66729
872.781	147.04203
872.958	82.5771
873.136	30.90387
873.314	215.65186
873.492	125.56923
873.67	73.97119
873.848	104.08095
874.026	-68.39262
874.204	164.20917
874.381	52.44541
874.559	142.7487
874.737	125.56923
874.915	112.67813
875.092	52.44541
875.27	69.66729
875.448	26.59366
875.626	159.91831
875.803	61.05761
875.981	43.83069
876.159	219.93479
876.336	151.33474
876.514	95.48129
876.692	-3.5956
876.869	104.08095
877.047	134.16021
877.224	-16.54342
877.402	-98.68109
877.58	82.5771
877.757	112.67813
877.935	-72.71759
878.112	35.21344
878.29	22.28282
878.467	164.20917
878.645	43.83069
878.822	69.66729
879	-85.69641
879.177	9.34648
879.354	207.08416
879.532	91.18052
879.709	78.27446
879.887	-68.39262
880.064	91.18052
880.241	108.37985
880.419	86.87912
880.596	43.83069
880.773	56.75182
880.951	-7.9109
881.128	-98.68109
881.305	-25.17851
881.482	-38.13597
881.66	104.08095
881.837	151.33474
882.014	5.03309
882.191	-29.49702
882.368	121.27282
882.546	82.5771
882.723	73.97119
882.9	108.37985
883.077	142.7487
883.254	69.66729
883.431	116.97578
883.608	78.27446
883.785	13.65923
883.962	-42.45641
884.139	-46.77749
884.317	104.08095
884.494	172.78906
884.671	-38.13597
884.848	185.6543
885.025	125.56923
885.201	26.59366
885.378	-12.22684
885.555	39.52238
885.732	172.78906
885.909	22.28282
886.086	104.08095
886.263	-94.35221
886.44	91.18052
886.617	56.75182
886.794	39.52238
886.97	-33.81617
887.147	-55.4216
887.324	-51.09922
887.501	164.20917
887.678	-7.9109
887.854	82.5771
888.031	-25.17851
888.208	65.36276
888.384	95.48129
888.561	-12.22684
888.738	-25.17851
888.915	91.18052
889.091	0.71907
889.268	30.90387
889.444	0.71907
889.621	56.75182
889.798	-7.9109
889.974	22.28282
890.151	35.21344
890.327	-12.22684
890.504	43.83069
890.681	-33.81617
890.857	125.56923
891.034	-25.17851
891.21	-107.34082
891.387	116.97578
891.563	121.27282
891.739	86.87912
891.916	-25.17851
892.092	82.5771
892.269	-98.68109
892.445	26.59366
892.622	-3.5956
892.798	112.67813
892.974	151.33474
893.151	-25.17851
893.327	61.05761
893.503	43.83069
893.68	99.78143
893.856	61.05761
894.032	-16.54342
894.208	82.5771
894.385	108.37985
894.561	121.27282
894.737	78.27446
894.913	-20.86065
895.089	-77.04321
895.266	-59.74463
895.442	-51.09922
895.618	22.28282
895.794	198.51404
895.97	-150.67888
896.146	-42.45641
896.322	-29.49702
896.499	91.18052
896.675	121.27282
896.851	52.44541
897.027	142.7487
897.203	9.34648
897.379	69.66729
897.555	91.18052
897.731	82.5771
897.907	-29.49702
898.083	142.7487
898.259	112.67813
898.435	-7.9109
898.611	22.28282
898.786	-25.17851
898.962	5.03309
899.138	-7.9109
899.314	30.90387
899.49	56.75182
899.666	-16.54342
899.842	30.90387
900.017	147.04203
900.193	-20.86065
900.369	-51.09922
900.545	-12.22684
900.72	43.83069
900.896	0.71907
901.072	237.06049
901.248	35.21344
901.423	9.34648
901.599	73.97119
901.775	134.16021
901.95	26.59366
902.126	78.27446
902.302	-20.86065
902.477	78.27446
902.653	73.97119
902.829	56.75182
903.004	-16.54342
903.18	43.83069
903.355	82.5771
903.531	-90.02398
903.706	-29.49702
903.882	-7.9109
904.057	73.97119
904.233	13.65923
904.408	-42.45641
904.584	-81.36949
904.759	39.52238
904.935	-46.77749
905.11	-64.0683
905.285	-59.74463
905.461	151.33474
905.636	-42.45641
905.812	-3.5956
905.987	-12.22684
906.162	-51.09922
906.338	-107.34082
906.513	-42.45641
906.688	-129.00161
906.863	99.78143
907.039	26.59366
907.214	-64.0683
907.389	-25.17851
907.564	13.65923
907.74	30.90387
907.915	0.71907
908.09	48.13836
908.265	13.65923
908.44	78.27446
908.615	-42.45641
908.791	-38.13597
908.966	177.07808
909.141	39.52238
909.316	-185.39698
909.491	-16.54342
909.666	121.27282
909.841	-3.5956
910.016	39.52238
910.191	26.59366
910.366	-16.54342
910.541	17.97134
910.716	134.16021
910.891	91.18052
911.066	0.71907
911.241	39.52238
911.416	5.03309
911.591	-77.04321
911.766	35.21344
911.941	-146.3421
912.116	147.04203
912.29	-20.86065
912.465	-90.02398
912.64	-77.04321
912.815	116.97578
912.99	-3.5956
913.165	-20.86065
913.339	26.59366
913.514	189.94149
913.689	-124.66814
913.864	-103.01063
914.038	35.21344
914.213	78.27446
914.388	52.44541
914.562	-20.86065
914.737	13.65923
914.912	-12.22684
915.086	108.37985
915.261	-20.86065
915.436	-42.45641
915.61	142.7487
915.785	-77.04321
915.959	-64.0683
916.134	30.90387
916.309	-20.86065
916.483	-7.9109
916.658	-33.81617
916.832	-77.04321
917.007	39.52238
917.181	43.83069
917.356	13.65923
917.53	-77.04321
917.704	9.34648
917.879	-29.49702
918.053	0.71907
918.228	108.37985
918.402	-29.49702
918.576	-42.45641
918.751	-20.86065
918.925	-55.4216
919.1	-59.74463
919.274	35.21344
919.448	-20.86065
919.622	30.90387
919.797	-12.22684
919.971	-107.34082
920.145	61.05761
920.32	108.37985
920.494	0.71907
920.668	-3.5956
920.842	-98.68109
921.016	108.37985
921.191	-16.54342
921.365	134.16021
921.539	-51.09922
921.713	-7.9109
921.887	-12.22684
922.061	-111.67166
922.235	-51.09922
922.409	65.36276
922.583	52.44541
922.758	-29.49702
922.932	-29.49702
923.106	-42.45641
923.28	-77.04321
923.454	78.27446
923.628	-12.22684
923.802	78.27446
923.976	-51.09922
924.149	13.65923
924.323	26.59366
924.497	61.05761
924.671	-64.0683
924.845	-46.77749
925.019	-38.13597
925.193	-124.66814
925.367	99.78143
925.541	-185.39698
925.714	-16.54342
925.888	99.78143
926.062	65.36276
926.236	-81.36949
926.41	35.21344
926.583	22.28282
926.757	-29.49702
926.931	112.67813
927.105	48.13836
927.278	-202.77204
927.452	-94.35221
927.626	56.75182
927.799	86.87912
927.973	56.75182
928.147	13.65923
928.32	-20.86065
928.494	5.03309
928.668	-72.71759
928.841	-25.17851
929.015	9.34648
929.188	17.97134
929.362	-124.66814
929.535	5.03309
929.709	78.27446
929.882	26.59366
930.056	78.27446
930.229	-29.49702
930.403	-51.09922
930.576	65.36276
930.75	-42.45641
930.923	-68.39262
931.097	-46.77749
931.27	22.28282
931.443	-103.01063
931.617	56.75182
931.79	22.28282
931.963	43.83069
932.137	-129.00161
932.31	-29.49702
932.483	-46.77749
932.657	-55.4216
932.83	-211.4636
933.003	-38.13597
933.177	-98.68109
933.35	-98.68109
933.523	-29.49702
933.696	-33.81617
933.869	39.52238
934.043	0.71907
934.216	-38.13597
934.389	-98.68109
934.562	-90.02398
934.735	-103.01063
934.908	78.27446
935.082	35.21344
935.255	-68.39262
935.428	13.65923
935.601	26.59366
935.774	-81.36949
935.947	-25.17851
936.12	-42.45641
936.293	43.83069
936.466	-7.9109
936.639	-111.67166
936.812	86.87912
936.985	-42.45641
937.158	26.59366
937.331	-98.68109
937.504	30.90387
937.677	0.71907
937.85	-3.5956
938.022	-25.17851
938.195	82.5771
938.368	0.71907
938.541	56.75182
938.714	-20.86065
938.887	52.44541
939.059	-16.54342
939.232	-7.9109
939.405	5.03309
939.578	-94.35221
939.751	-25.17851
939.923	0.71907
940.096	-116.00316
940.269	-81.36949
940.441	-25.17851
940.614	-42.45641
940.787	82.5771
940.96	22.28282
941.132	-72.71759
941.305	-72.71759
941.477	-38.13597
941.65	116.97578
941.823	22.28282
941.995	69.66729
942.168	-68.39262
942.34	-133.33574
942.513	-38.13597
942.685	22.28282
942.858	22.28282
943.03	-111.67166
943.203	-81.36949
943.375	73.97119
943.548	-29.49702
943.72	-7.9109
943.893	65.36276
944.065	39.52238
944.238	-59.74463
944.41	61.05761
944.582	-85.69641
944.755	-51.09922
944.927	-46.77749
945.1	-20.86065
945.272	69.66729
945.444	-29.49702
945.617	-64.0683
945.789	30.90387
945.961	-68.39262
946.133	-38.13597
946.306	-146.3421
946.478	99.78143
946.65	0.71907
946.822	30.90387
946.995	-3.5956
947.167	-7.9109
947.339	-51.09922
947.511	-38.13597
947.683	91.18052
947.855	-55.4216
948.027	-29.49702
948.2	56.75182
948.372	-68.39262
948.544	125.56923
948.716	-3.5956
948.888	-46.77749
949.06	-94.35221
949.232	-7.9109
949.404	-124.66814
949.576	-55.4216
949.748	35.21344
949.92	13.65923
950.092	69.66729
950.264	-3.5956
950.436	82.5771
950.608	-94.35221
950.78	52.44541
950.952	-51.09922
951.124	22.28282
951.295	-150.67888
951.467	-33.81617
951.639	116.97578
951.811	-81.36949
951.983	30.90387
952.155	-98.68109
952.326	-25.17851
952.498	35.21344
952.67	35.21344
952.842	-25.17851
953.014	-16.54342
953.185	-103.01063
953.357	-29.49702
953.529	-7.9109
953.7	26.59366
953.872	-25.17851
954.044	151.33474
954.215	-33.81617
954.387	52.44541
954.559	-12.22684
954.73	35.21344
954.902	48.13836
955.074	-150.67888
955.245	-16.54342
955.417	86.87912
955.588	65.36276
955.76	-29.49702
955.931	30.90387
956.103	-3.5956
956.274	104.08095
956.446	-64.0683
956.617	73.97119
956.789	104.08095
956.96	-7.9109
957.132	-72.71759
957.303	-29.49702
957.474	-7.9109
957.646	39.52238
957.817	48.13836
957.989	65.36276
958.16	-20.86065
958.331	35.21344
958.503	116.97578
958.674	-46.77749
958.845	207.08416
959.017	-85.69641
959.188	61.05761
959.359	9.34648
959.53	-55.4216
959.702	30.90387
959.873	26.59366
960.044	181.3665
960.215	5.03309
960.387	17.97134
960.558	99.78143
960.729	-124.66814
960.9	-46.77749
961.071	-46.77749
961.242	-3.5956
961.413	-59.74463
961.585	5.03309
961.756	35.21344
961.927	26.59366
962.098	-38.13597
962.269	-42.45641
962.44	-64.0683
962.611	39.52238
962.782	-146.3421
962.953	-150.67888
963.124	95.48129
963.295	35.21344
963.466	-42.45641
963.637	52.44541
963.808	73.97119
963.979	-20.86065
964.15	65.36276
964.32	-94.35221
964.491	35.21344
964.662	17.97134
964.833	0.71907
965.004	39.52238
965.175	-55.4216
965.346	-103.01063
965.516	82.5771
965.687	9.34648
965.858	-59.74463
966.029	-3.5956
966.199	52.44541
966.37	116.97578
966.541	-111.67166
966.712	-116.00316
966.882	-38.13597
967.053	-55.4216
967.224	5.03309
967.394	112.67813
967.565	61.05761
967.736	73.97119
967.906	43.83069
968.077	-94.35221
968.248	30.90387
968.418	-7.9109
968.589	-16.54342
968.759	5.03309
968.93	-64.0683
969.1	13.65923
969.271	-29.49702
969.441	-64.0683
969.612	-20.86065
969.782	-29.49702
969.953	26.59366
970.123	-25.17851
970.294	129.86503
970.464	-120.33532
970.635	-111.67166
970.805	-12.22684
970.975	108.37985
971.146	112.67813
971.316	-3.5956
971.487	-64.0683
971.657	-72.71759
971.827	61.05761
971.998	-168.03261
972.168	-16.54342
972.338	5.03309
972.508	-55.4216
972.679	73.97119
972.849	48.13836
973.019	9.34648
973.189	82.5771
973.36	-29.49702
973.53	-103.01063
973.7	56.75182
973.87	35.21344
974.04	-7.9109
974.211	30.90387
974.381	-90.02398
974.551	82.5771
974.721	86.87912
974.891	-3.5956
975.061	22.28282
975.231	52.44541
975.401	-85.69641
975.571	78.27446
975.741	13.65923
975.911	125.56923
976.081	52.44541
976.251	48.13836
976.421	-146.3421
976.591	56.75182
976.761	-7.9109
976.931	-64.0683
977.101	-42.45641
977.271	-64.0683
977.441	30.90387
977.611	-85.69641
977.781	86.87912
977.951	43.83069
978.121	185.6543
978.291	-59.74463
978.46	91.18052
978.63	-12.22684
978.8	82.5771
978.97	52.44541
979.14	121.27282
979.309	-33.81617
979.479	22.28282
979.649	-55.4216
979.819	95.48129
979.988	91.18052
980.158	-116.00316
980.328	-120.33532
980.497	-16.54342
980.667	116.97578
980.837	91.18052
981.006	138.45476
981.176	-46.77749
981.346	17.97134
981.515	22.28282
981.685	-194.08318
981.854	-111.67166
982.024	69.66729
982.194	-129.00161
982.363	52.44541
982.533	-42.45641
982.702	-7.9109
982.872	108.37985
983.041	0.71907
983.211	-107.34082
983.38	30.90387
983.55	104.08095
983.719	151.33474
983.889	-64.0683
984.058	-7.9109
984.227	48.13836
984.397	39.52238
984.566	-33.81617
984.735	-94.35221
984.905	-142.00599
985.074	-20.86065
985.244	-98.68109
985.413	0.71907
985.582	-38.13597
985.751	69.66729
985.921	-38.13597
986.09	43.83069
986.259	-3.5956
986.428	-20.86065
986.598	-7.9109
986.767	-25.17851
986.936	-68.39262
987.105	13.65923
987.275	-20.86065
987.444	-16.54342
987.613	172.78906
987.782	-68.39262
987.951	-33.81617
988.12	-64.0683
988.289	-29.49702
988.458	-64.0683
988.628	-3.5956
988.797	108.37985
988.966	-124.66814
989.135	22.28282
989.304	22.28282
989.473	-133.33574
989.642	43.83069
989.811	48.13836
989.98	-124.66814
990.149	-103.01063
990.318	-33.81617
990.487	121.27282
990.656	52.44541
990.824	0.71907
990.993	-72.71759
991.162	99.78143
991.331	99.78143
991.5	0.71907
991.669	-120.33532
991.838	-90.02398
992.007	22.28282
992.175	56.75182
992.344	-16.54342
992.513	-33.81617
992.682	-46.77749
992.85	-59.74463
993.019	-33.81617
993.188	43.83069
993.357	-59.74463
993.525	-7.9109
993.694	-12.22684
993.863	69.66729
994.032	22.28282
994.2	39.52238
994.369	0.71907
994.537	-20.86065
994.706	159.91831
994.875	-64.0683
995.043	-72.71759
995.212	-12.22684
995.381	-150.67888
995.549	91.18052
995.718	78.27446
995.886	5.03309
996.055	116.97578
996.223	108.37985
996.392	-29.49702
996.56	-77.04321
996.729	30.90387
996.897	-98.68109
997.066	-68.39262
997.234	0.71907
997.403	9.34648
997.571	-81.36949
997.739	-12.22684
997.908	39.52238
998.076	22.28282
998.244	-90.02398
998.413	-3.5956
998.581	-81.36949
998.75	-111.67166
998.918	-85.69641
999.086	35.21344
999.254	22.28282
999.423	-46.77749
999.591	43.83069
999.759	-29.49702
999.928	35.21344
1000.096	17.97134
1000.264	-42.45641
1000.432	-72.71759
1000.6	-85.69641
1000.769	39.52238
1000.937	-3.5956
1001.105	39.52238
1001.273	-55.4216
1001.441	-20.86065
1001.609	39.52238
1001.777	9.34648
1001.945	52.44541
1002.114	-12.22684
1002.282	-107.34082
1002.45	5.03309
1002.618	-12.22684
1002.786	-64.0683
1002.954	-98.68109
1003.122	134.16021
1003.29	-25.17851
1003.458	43.83069
1003.626	-20.86065
1003.794	-150.67888
1003.962	-12.22684
1004.13	22.28282
1004.298	129.86503
1004.465	-107.34082
1004.633	35.21344
1004.801	9.34648
1004.969	-150.67888
1005.137	-59.74463
1005.305	-46.77749
1005.473	-7.9109
1005.64	0.71907
1005.808	-55.4216
1005.976	35.21344
1006.144	61.05761
1006.312	65.36276
1006.479	30.90387
1006.647	-38.13597
1006.815	-64.0683
1006.983	5.03309
1007.15	-142.00599
1007.318	-59.74463
1007.486	-25.17851
1007.653	65.36276
1007.821	-137.67054
1007.989	99.78143
1008.156	-38.13597
1008.324	-85.69641
1008.492	39.52238
1008.659	22.28282
1008.827	0.71907
1008.994	-3.5956
1009.162	-29.49702
1009.329	35.21344
1009.497	-29.49702
1009.665	104.08095
1009.832	164.20917
1010	-68.39262
1010.167	-142.00599
1010.335	0.71907
1010.502	-211.4636
1010.669	-59.74463
1010.837	-25.17851
1011.004	48.13836
1011.172	-124.66814
1011.339	-46.77749
1011.507	73.97119
1011.674	-16.54342
1011.841	-38.13597
1012.009	-137.67054
1012.176	-111.67166
1012.343	-46.77749
1012.511	-68.39262
1012.678	-129.00161
1012.845	-46.77749
1013.013	125.56923
1013.18	-55.4216
1013.347	-38.13597
1013.514	-98.68109
1013.682	-90.02398
1013.849	-81.36949
1014.016	-38.13597
1014.183	22.28282
1014.35	52.44541
1014.518	-77.04321
1014.685	-81.36949
1014.852	17.97134
1015.019	35.21344
1015.186	48.13836
1015.353	22.28282
1015.52	65.36276
1015.687	39.52238
1015.855	-3.5956
1016.022	65.36276
1016.189	43.83069
1016.356	22.28282
1016.523	43.83069
1016.69	9.34648
1016.857	-29.49702
1017.024	-68.39262
1017.191	39.52238
1017.358	43.83069
1017.525	-55.4216
1017.692	26.59366
1017.858	-20.86065
1018.025	22.28282
1018.192	-25.17851
1018.359	-55.4216
1018.526	-68.39262
1018.693	-107.34082
1018.86	65.36276
1019.027	91.18052
1019.193	-12.22684
1019.36	91.18052
1019.527	-38.13597
1019.694	-29.49702
1019.861	-155.01632
1020.027	-59.74463
1020.194	-7.9109
1020.361	5.03309
1020.528	-7.9109
1020.694	121.27282
1020.861	73.97119
1021.028	91.18052
1021.195	-64.0683
1021.361	-7.9109
1021.528	39.52238
1021.694	95.48129
1021.861	-12.22684
1022.028	22.28282
1022.194	-94.35221
1022.361	-29.49702
1022.528	-120.33532
1022.694	-20.86065
1022.861	-25.17851
1023.027	-25.17851
1023.194	-142.00599
1023.36	129.86503
1023.527	-72.71759
1023.693	189.94149
1023.86	0.71907
1024.026	0.71907
1024.193	5.03309
1024.359	-137.67054
1024.526	5.03309
