Data from Subt2__2__22-17-14-405.txt Node

Date: Tue Oct 07 22:17:14 EDT 2025
User: brett
Spectrometer: USB4F03499
Trigger mode: 4
Integration Time (sec): 1.285500E0
Scans to average: 1
Electric dark correction enabled: true
Nonlinearity correction enabled: true
Boxcar width: 0
XAxis mode: Wavelengths
Number of Pixels in Spectrum: 3648
>>>>>Begin Spectral Data<<<<<
345.386	-358.72367
345.605	-358.72367
345.824	-358.72367
346.044	-368.98962
346.263	-374.95869
346.482	-227.27565
346.701	-202.43197
346.92	195.8717
347.139	138.66071
347.358	-111.61223
347.577	-126.17034
347.796	196.1546
348.015	148.89677
348.234	-189.82812
348.453	-126.4171
348.672	147.82455
348.891	151.35736
349.11	-14.40838
349.329	11.5525
349.548	96.07407
349.767	195.73135
349.986	358.12749
350.205	-157.17516
350.424	89.39138
350.643	119.72913
350.862	-114.05632
351.08	487.00811
351.299	258.85233
351.518	214.0523
351.737	-52.8184
351.956	-64.14654
352.174	233.23755
352.393	198.36826
352.612	-195.53643
352.831	-75.43519
353.049	202.92452
353.268	183.56552
353.487	102.74143
353.705	-119.8472
353.924	152.49362
354.143	170.22058
354.361	-177.30685
354.58	-107.12892
354.798	211.96353
355.017	228.5534
355.236	-136.76833
355.454	-183.22637
355.673	202.88582
355.891	387.79155
356.11	-162.60489
356.328	-21.20123
356.547	216.26149
356.765	157.73571
356.984	-27.94525
357.202	-143.45664
357.42	111.80456
357.639	230.63672
357.857	-164.78966
358.076	-146.55035
358.294	252.14487
358.512	178.9999
358.731	350.11125
358.949	-171.64764
359.167	224.95448
359.386	1124.4693
359.604	-118.50992
359.822	-5.36219
360.04	188.97018
360.259	124.16522
360.477	-241.91283
360.695	-50.56075
360.913	311.06759
361.131	629.64963
361.35	48.71884
361.568	-119.51238
361.786	291.14348
362.004	258.47236
362.222	-160.18556
362.44	73.4895
362.658	232.03706
362.876	492.39593
363.094	-9.87121
363.312	-48.26159
363.53	535.5936
363.749	265.47758
363.967	14.93746
364.184	-137.61099
364.402	222.86744
364.62	183.62122
364.838	-144.73432
365.056	-15.53693
365.274	172.40587
365.492	227.32991
365.71	-123.01123
365.928	36.36913
366.146	405.0056
366.364	417.16119
366.581	52.08125
366.799	-39.20282
367.017	357.14573
367.235	188.32838
367.453	-34.71312
367.67	-105.86388
367.888	222.30618
368.106	589.78705
368.323	2084.60321
368.541	121.89412
368.759	238.60647
368.977	849.44994
369.194	236.1708
369.412	267.44335
369.629	375.86749
369.847	189.89746
370.065	297.79254
370.282	70.16313
370.5	603.47254
370.717	642.81247
370.935	408.19498
371.152	143.30839
371.37	524.84627
371.588	618.53235
371.805	188.09906
372.022	461.31163
372.24	379.18194
372.457	560.79263
372.675	203.85243
372.892	198.21749
373.11	724.16795
373.327	383.61531
373.544	330.37134
373.762	384.68041
373.979	864.24708
374.196	950.56525
374.414	503.65607
374.631	773.82346
374.848	979.33225
375.066	491.99174
375.283	226.17596
375.5	215.51895
375.717	958.59277
375.935	797.84202
376.152	722.84358
376.369	463.39689
376.586	569.13477
376.803	1096.53849
377.02	717.56287
377.238	506.8272
377.455	673.41363
377.672	736.85664
377.889	479.1481
378.106	269.97266
378.323	603.09139
378.54	669.93054
378.757	523.83489
378.974	409.46015
379.191	1098.68349
379.408	815.29506
379.625	505.15522
379.842	531.65582
380.059	671.93593
380.276	908.51485
380.493	494.83272
380.71	793.95168
380.927	990.91352
381.143	1042.02574
381.36	717.30496
381.577	582.96004
381.794	868.93938
382.011	1069.67679
382.228	681.24335
382.444	784.98367
382.661	943.28502
382.878	981.17889
383.095	767.96037
383.311	879.71703
383.528	1101.09172
383.745	794.54137
383.962	683.5748
384.178	662.73055
384.395	1015.025
384.612	1059.74059
384.828	924.4434
385.045	778.36733
385.261	985.00533
385.478	1121.72123
385.695	666.81009
385.911	808.72672
386.128	1074.68839
386.344	1149.97086
386.561	702.72685
386.777	944.81269
386.994	1118.87551
387.21	1514.19483
387.427	843.8378
387.643	705.94737
387.86	1067.12398
388.076	1084.95621
388.292	969.6229
388.509	776.54461
388.725	1208.54124
388.942	1221.21724
389.158	732.16209
389.374	948.93209
389.591	1095.60123
389.807	1066.40178
390.023	865.95924
390.239	731.84924
390.456	1163.82774
390.672	1198.69037
390.888	823.2241
391.104	1256.69133
391.321	1213.77233
391.537	1147.95204
391.753	934.12051
391.969	992.00637
392.185	1234.51325
392.401	1286.78098
392.618	984.35869
392.834	1193.40862
393.05	1361.33073
393.266	1311.67202
393.482	1279.44273
393.698	1019.42655
393.914	1403.88063
394.13	1399.19328
394.346	1200.09
394.562	1179.96325
394.778	1283.34931
394.994	1490.1977
395.21	1231.04983
395.426	1256.28861
395.642	1388.29772
395.858	1384.4565
396.073	1158.72019
396.289	1249.83683
396.505	1573.71323
396.721	1624.5939
396.937	1262.35144
397.153	1165.01213
397.369	1532.38827
397.584	1577.62344
397.8	1105.10181
398.016	1349.8641
398.232	1741.88669
398.447	1524.81505
398.663	1392.26246
398.879	1164.88195
399.094	1580.02192
399.31	1760.02837
399.526	1488.08897
399.741	1305.90043
399.957	1671.84362
400.173	1555.08167
400.388	1393.15805
400.604	1263.27958
400.82	1596.6781
401.035	1662.94275
401.251	1382.52378
401.466	1359.27397
401.682	1741.35136
401.897	1758.62008
402.113	1542.4083
402.328	1566.93179
402.544	1893.9595
402.759	1855.16921
402.974	1753.31667
403.19	1803.23242
403.405	2159.3339
403.621	2118.22542
403.836	1988.28753
404.051	1880.84294
404.267	2193.38205
404.482	2407.03577
404.697	2126.07111
404.913	1920.82405
405.128	2371.36862
405.343	2317.91808
405.559	2092.77155
405.774	2214.77498
405.989	2420.5673
406.204	2424.25849
406.42	2442.48511
406.635	2349.9231
406.85	2524.72152
407.065	2623.65594
407.28	2291.06265
407.495	2458.83078
407.71	2898.73974
407.926	2698.4452
408.141	2464.23326
408.356	2761.40453
408.571	2771.47011
408.786	2599.99746
409.001	2530.62696
409.216	2590.43976
409.431	2895.18837
409.646	2973.37225
409.861	2844.61705
410.076	2808.37264
410.291	2964.77221
410.506	2964.31606
410.721	2552.59978
410.936	2682.48208
411.15	2826.82554
411.365	2889.66814
411.58	2833.28246
411.795	2765.38794
412.01	3087.50467
412.225	3133.34922
412.439	2836.48599
412.654	2797.41469
412.869	3076.24219
413.084	3056.88098
413.299	2649.49004
413.513	2685.60253
413.728	3050.22976
413.943	3130.31717
414.157	2838.81643
414.372	2807.48622
414.587	3182.50043
414.801	3343.04749
415.016	2938.95152
415.231	3085.67277
415.445	3214.40285
415.66	3289.82913
415.874	3010.00011
416.089	3001.42507
416.304	3509.74025
416.518	3539.28004
416.733	3345.74422
416.947	3064.03023
417.162	3504.32445
417.376	3492.24322
417.59	3418.2671
417.805	3372.89839
418.019	3575.31053
418.234	3463.45218
418.448	3395.56783
418.663	3275.70421
418.877	3562.52992
419.091	3589.74275
419.306	3420.17772
419.52	3476.81936
419.734	3776.09618
419.949	3960.98552
420.163	3568.45124
420.377	3276.58005
420.591	3712.91156
420.806	4010.76055
421.02	3412.23467
421.234	3470.77947
421.448	3825.04275
421.663	3707.52182
421.877	3468.62945
422.091	3410.89528
422.305	3857.59393
422.519	3895.79951
422.733	3771.12815
422.947	3561.03274
423.161	3814.55913
423.376	3715.23187
423.59	3877.56503
423.804	3611.93978
424.018	3934.34494
424.232	3895.79865
424.446	3825.39936
424.66	3811.17221
424.874	3751.58691
425.088	3791.98841
425.302	4872.2507
425.515	3974.02387
425.729	4143.33315
425.943	4107.03892
426.157	3837.0627
426.371	3856.40491
426.585	4069.49926
426.799	4001.29604
427.013	4134.8248
427.226	4005.10436
427.44	4052.03708
427.654	4412.5924
427.868	4388.00935
428.081	3927.4671
428.295	4165.31415
428.509	4116.37226
428.723	3848.38839
428.936	3865.0573
429.15	3992.5736
429.364	4461.27885
429.577	3893.242
429.791	3941.81043
430.005	4418.97435
430.218	4115.14108
430.432	3903.56099
430.645	3829.75576
430.859	4175.65333
431.073	4264.9907
431.286	3956.78651
431.5	4083.86939
431.713	4122.5319
431.927	4118.01546
432.14	3998.70558
432.354	3918.36022
432.567	4208.6571
432.781	4180.48369
432.994	4107.44874
433.207	4050.52212
433.421	4246.00832
433.634	4385.38365
433.848	4622.78085
434.061	4119.06721
434.274	4208.7224
434.488	4115.34666
434.701	4344.48538
434.914	4121.72873
435.127	4451.16223
435.341	4661.30957
435.554	4077.49159
435.767	4287.31837
435.98	4449.93028
436.194	4374.51425
436.407	4155.96703
436.62	4508.44322
436.833	4686.9806
437.046	4472.98144
437.259	4328.12538
437.473	4640.64004
437.686	4659.90547
437.899	4753.93577
438.112	4543.16165
438.325	4258.45589
438.538	4526.03712
438.751	4890.53756
438.964	4355.13921
439.177	4882.76169
439.39	4734.06209
439.603	5179.05442
439.816	4744.37303
440.029	4901.59676
440.242	5546.84602
440.455	5564.35292
440.668	5107.29747
440.881	4787.72363
441.094	5125.006
441.306	5273.93665
441.519	5465.47414
441.732	5341.21124
441.945	5583.22316
442.158	5356.81149
442.37	5138.92466
442.583	5494.39606
442.796	5717.68497
443.009	5823.43732
443.222	5466.55339
443.434	5193.17272
443.647	5593.49733
443.86	6140.78103
444.072	6049.35716
444.285	5668.27302
444.498	6206.41487
444.71	5844.05653
444.923	5876.24587
445.136	5605.08765
445.348	5858.73258
445.561	5776.74523
445.773	5872.0657
445.986	5595.75348
446.198	6172.62183
446.411	5946.2573
446.623	6077.51664
446.836	5839.72158
447.048	6183.04859
447.261	6358.23562
447.473	6138.63101
447.686	6058.60255
447.898	6441.24136
448.11	6617.33385
448.323	9704.82985
448.535	6441.85751
448.748	6486.97239
448.96	6472.99844
449.172	6371.65669
449.385	6054.38308
449.597	6541.58167
449.809	6480.76533
450.021	6448.49497
450.234	6628.52144
450.446	6470.12289
450.658	6462.0288
450.87	6198.74123
451.083	6572.62488
451.295	6638.0276
451.507	6534.30862
451.719	6422.93592
451.931	6589.53008
452.143	6797.94118
452.356	6617.43727
452.568	6424.94167
452.78	6667.86966
452.992	6748.62889
453.204	6905.61704
453.416	6519.65778
453.628	6360.62222
453.84	6961.51791
454.052	6794.87582
454.264	6817.86742
454.476	6676.57272
454.688	7102.1353
454.9	7192.28904
455.112	6735.06891
455.324	6543.6487
455.536	7069.68466
455.747	7142.7921
455.959	6995.91749
456.171	6921.30118
456.383	6856.54339
456.595	7108.60983
456.807	6649.50757
457.018	6629.17953
457.23	7018.45969
457.442	6942.45488
457.654	6958.36734
457.865	6778.56895
458.077	7204.40767
458.289	6627.96872
458.501	6752.0141
458.712	6928.76737
458.924	7780.40485
459.136	7043.18517
459.347	6699.95377
459.559	6812.71787
459.77	7297.37174
459.982	7282.61974
460.194	7090.852
460.405	6772.07685
460.617	7239.82491
460.828	7402.49859
461.04	7229.46162
461.251	6889.61941
461.463	7986.31563
461.674	7602.20018
461.886	7145.55622
462.097	6976.33269
462.309	7611.45923
462.52	7274.54624
462.731	7708.98794
462.943	7386.22274
463.154	7233.9027
463.366	7531.78261
463.577	7490.74618
463.788	7523.41725
464	7910.00698
464.211	7984.45777
464.422	8221.85847
464.634	7969.88372
464.845	8025.87878
465.056	8206.5632
465.267	7986.17836
465.478	7514.78525
465.69	8210.94386
465.901	8054.72323
466.112	7964.94771
466.323	7934.81331
466.534	8416.64714
466.745	8681.43421
466.957	8267.7579
467.168	7942.31055
467.379	8419.17108
467.59	8095.76212
467.801	7850.11257
468.012	8198.12522
468.223	8393.69738
468.434	8299.85103
468.645	8266.72628
468.856	8653.06147
469.067	8703.08881
469.278	8875.59437
469.489	8673.70371
469.7	8126.24369
469.911	8651.51117
470.122	8985.87759
470.333	9172.062
470.543	8552.53682
470.754	9235.42623
470.965	9170.90137
471.176	9010.45885
471.387	9098.60386
471.598	8850.70487
471.808	8942.39339
472.019	9016.32837
472.23	8969.61087
472.441	9094.69046
472.651	9457.54758
472.862	8972.58995
473.073	9297.68135
473.283	9521.05437
473.494	9397.51872
473.705	9166.52171
473.915	9584.75613
474.126	10001.69072
474.337	9552.57496
474.547	9703.88884
474.758	9567.78751
474.968	10002.29186
475.179	9958.31395
475.389	9921.38471
475.6	9830.65645
475.81	10427.0326
476.021	10333.55287
476.231	10361.6505
476.442	10161.19359
476.652	10225.32919
476.863	10403.1288
477.073	9944.28698
477.284	10168.26654
477.494	10533.82688
477.704	11011.04156
477.915	11050.76576
478.125	10597.86967
478.335	11296.22125
478.546	11606.87805
478.756	11010.04993
478.966	11111.80477
479.177	11308.32449
479.387	11630.9354
479.597	11416.3664
479.807	11542.37586
480.018	11778.0669
480.228	11803.94182
480.438	11541.93202
480.648	11844.17179
480.858	12570.23314
481.068	11968.37579
481.279	12069.65873
481.489	12536.17684
481.699	12398.31486
481.909	12354.26967
482.119	13144.6681
482.329	12789.91015
482.539	13277.10173
482.749	12962.77543
482.959	12942.86983
483.169	13357.07488
483.379	13505.73525
483.589	13747.95588
483.799	13353.28221
484.009	13286.65108
484.219	13631.50978
484.429	13910.47931
484.639	13404.70859
484.849	13659.43725
485.059	14189.88266
485.268	14437.41619
485.478	14058.07475
485.688	14201.03259
485.898	14468.67209
486.108	14658.18762
486.317	14834.98751
486.527	14573.82937
486.737	15381.67952
486.947	14917.42041
487.156	15130.10606
487.366	14726.31494
487.576	14994.01746
487.785	15083.37766
487.995	14756.17479
488.205	14988.43327
488.414	15089.6093
488.624	15318.88866
488.834	14920.30515
489.043	14932.37038
489.253	15178.94144
489.462	15319.3571
489.672	15496.11529
489.882	15462.25675
490.091	15767.30118
490.301	15707.7775
490.51	15426.21684
490.72	15677.89443
490.929	15966.51651
491.138	16311.25475
491.348	15784.44557
491.557	15695.30119
491.767	16221.23554
491.976	15981.13401
492.185	15788.66183
492.395	15803.99555
492.604	16262.47578
492.813	16326.92247
493.023	16077.85427
493.232	15934.03214
493.441	16223.7659
493.651	16408.20691
493.86	16011.74568
494.069	16318.91268
494.278	16617.62515
494.488	16524.39413
494.697	16457.76108
494.906	16390.34115
495.115	16780.87944
495.324	16450.85206
495.533	16547.96401
495.743	16931.87257
495.952	17468.06426
496.161	17670.29026
496.37	17293.06495
496.579	17536.01514
496.788	17960.80498
496.997	18145.77935
497.206	17687.00674
497.415	17939.46636
497.624	18029.20214
497.833	18303.32763
498.042	18056.37733
498.251	18614.69696
498.46	18316.44322
498.669	18486.45515
498.878	18271.49344
499.087	18104.31121
499.296	18771.27986
499.504	18824.21424
499.713	18348.53167
499.922	18307.19358
500.131	18740.64133
500.34	19088.72206
500.549	18448.74978
500.757	18569.43671
500.966	18969.2714
501.175	18822.93733
501.384	19052.3735
501.592	18870.7971
501.801	19376.24087
502.01	19297.78389
502.218	18918.33301
502.427	19152.44271
502.636	19342.7312
502.844	19226.14773
503.053	19209.60422
503.262	18958.88686
503.47	19326.79394
503.679	19310.45736
503.887	19066.48756
504.096	19139.46701
504.304	19218.95443
504.513	19317.31293
504.721	19567.17789
504.93	19100.9093
505.138	19570.98554
505.347	19497.06663
505.555	19215.05242
505.764	19239.50136
505.972	19493.87068
506.18	19131.89289
506.389	19405.92747
506.597	19235.3743
506.806	19467.09531
507.014	19418.38807
507.222	19311.79773
507.431	19188.51562
507.639	19119.11123
507.847	19521.31106
508.055	19521.55323
508.264	19373.16788
508.472	19921.96979
508.68	19403.67276
508.888	19581.21306
509.096	19365.26935
509.305	19798.25173
509.513	19387.54037
509.721	19550.53289
509.929	19363.34215
510.137	19560.11469
510.345	19550.68784
510.553	19569.82493
510.762	19414.36397
510.97	19602.34233
511.178	19661.30456
511.386	20147.13913
511.594	19774.35067
511.802	19903.98771
512.01	19882.90756
512.218	20022.16683
512.426	20111.19335
512.634	20477.86446
512.842	20307.13167
513.049	20180.96931
513.257	19910.13693
513.465	20271.26473
513.673	20388.44111
513.881	20289.17018
514.089	20223.27188
514.297	20597.83658
514.504	20430.2196
514.712	20624.93777
514.92	20509.29102
515.128	20853.82617
515.336	20538.18113
515.543	20560.06726
515.751	20590.627
515.959	20747.75245
516.166	20259.41343
516.374	20613.57553
516.582	20632.39559
516.789	20853.03143
516.997	20679.66253
517.205	20449.48659
517.412	20726.41866
517.62	21053.03613
517.827	20819.42486
518.035	20717.72868
518.243	20565.86791
518.45	20685.3475
518.658	20292.25197
518.865	20607.22696
519.073	20368.49504
519.28	21018.87647
519.488	20395.48118
519.695	20273.86031
519.902	20157.60074
520.11	20477.609
520.317	20411.88693
520.525	20431.56189
520.732	20251.18124
520.939	20339.1438
521.147	20260.34552
521.354	20276.06375
521.561	19975.87704
521.769	20303.92092
521.976	20001.73827
522.183	20218.19845
522.391	19692.80826
522.598	19929.76166
522.805	20312.4793
523.012	20104.19106
523.219	20233.86378
523.427	20310.8207
523.634	20356.28456
523.841	20364.55826
524.048	20109.73956
524.255	20507.08834
524.462	20424.0205
524.669	20127.90559
524.877	20290.17089
525.084	20287.94062
525.291	20262.83612
525.498	20166.38336
525.705	20275.52287
525.912	20739.88515
526.119	20324.54663
526.326	20491.02352
526.533	20472.68151
526.74	20944.07364
526.947	20921.92668
527.153	20940.7793
527.36	20862.25535
527.567	20878.49434
527.774	20959.46879
527.981	20919.06835
528.188	21020.74283
528.395	21043.09709
528.602	21201.54368
528.808	21369.13072
529.015	20932.42878
529.222	21406.01695
529.429	21315.81962
529.635	21033.41124
529.842	21454.81768
530.049	21512.28729
530.256	21311.50193
530.462	21396.45028
530.669	21347.46367
530.876	21688.0175
531.082	21189.80836
531.289	21405.03093
531.495	21179.55813
531.702	21682.39685
531.909	21376.28269
532.115	21661.36904
532.322	21488.78245
532.528	21620.61604
532.735	21774.73576
532.941	21605.79158
533.148	21623.12964
533.354	21555.5339
533.561	21476.41777
533.767	21349.01395
533.974	21284.40505
534.18	21564.97672
534.387	21358.23623
534.593	21433.59065
534.799	21335.52874
535.006	21582.18487
535.212	21721.56254
535.418	21280.51708
535.625	21398.34493
535.831	21802.69834
536.037	21631.21511
536.244	21395.59717
536.45	21152.80166
536.656	21742.24955
536.862	22022.15484
537.068	21906.74566
537.275	21630.0108
537.481	22339.61726
537.687	22134.31151
537.893	22321.002
538.099	22027.45446
538.305	22134.16241
538.512	22228.44019
538.718	21865.45484
538.924	21835.71797
539.13	22051.03264
539.336	21963.83132
539.542	22083.90102
539.748	22016.40021
539.954	21881.73292
540.16	22065.68109
540.366	21928.10824
540.572	21948.57332
540.778	21805.03317
540.984	22063.42857
541.19	21795.37976
541.396	21375.55355
541.602	22066.40753
541.807	21524.95662
542.013	21727.28808
542.219	21258.0401
542.425	21890.07454
542.631	21694.71231
542.837	21916.74671
543.042	21673.49012
543.248	21847.86174
543.454	21756.83977
543.66	21486.42988
543.865	21387.47418
544.071	21922.4883
544.277	21676.79753
544.483	21608.86668
544.688	21364.86536
544.894	22040.45424
545.1	21697.48153
545.305	21582.74242
545.511	21479.1509
545.716	21632.26905
545.922	21436.73455
546.128	21611.05083
546.333	21521.36414
546.539	21763.13182
546.744	21509.95002
546.95	21762.46312
547.155	21463.80501
547.361	21875.561
547.566	21504.34333
547.772	21558.97528
547.977	21523.05401
548.182	21548.44337
548.388	21570.36057
548.593	21402.73318
548.799	21342.89874
549.004	21576.54131
549.209	21354.06103
549.415	21689.70571
549.62	21352.49436
549.825	21623.07794
550.031	21640.81586
550.236	21558.23607
550.441	21572.53627
550.646	21683.07962
550.852	21883.69945
551.057	21682.02493
551.262	21624.45978
551.467	21897.95518
551.672	21626.13349
551.878	21805.88274
552.083	21641.74588
552.288	21849.17703
552.493	21649.54681
552.698	21809.55232
552.903	21675.01924
553.108	21937.86244
553.313	21799.68934
553.518	21781.64277
553.723	22021.18983
553.928	22065.95379
554.133	22176.70361
554.338	21979.17721
554.543	22004.44375
554.748	22319.08358
554.953	22146.72493
555.158	22017.90512
555.363	21958.56931
555.568	21955.51479
555.773	22428.27404
555.978	22263.81835
556.182	21887.12359
556.387	22118.93618
556.592	22286.72748
556.797	22049.46752
557.002	21985.08584
557.206	22330.12977
557.411	22330.11854
557.616	22217.94888
557.821	22279.48186
558.025	22565.00694
558.23	22214.04807
558.435	22146.31178
558.64	22165.7285
558.844	22660.92424
559.049	22077.8581
559.253	22178.27481
559.458	22171.25552
559.663	22389.73481
559.867	22073.0911
560.072	22356.45841
560.276	22042.66576
560.481	22015.47981
560.685	22048.65843
560.89	22159.27134
561.094	22232.06835
561.299	22079.57996
561.503	21907.70251
561.708	22063.43568
561.912	21959.80911
562.117	22213.06781
562.321	22040.91597
562.525	22051.2569
562.73	22119.72098
562.934	21864.75928
563.139	22248.23821
563.343	22200.65727
563.547	21769.03222
563.752	22249.3945
563.956	22112.56243
564.16	21803.66908
564.364	21753.34802
564.569	22177.36054
564.773	21895.32275
564.977	21931.64133
565.181	21924.23803
565.385	21846.48018
565.59	22029.58536
565.794	21891.44363
565.998	21693.15022
566.202	21758.35472
566.406	21890.12784
566.61	21595.80349
566.814	21641.35882
567.018	21975.21243
567.222	22136.16554
567.426	21500.1042
567.63	21557.35296
567.834	21545.99533
568.038	21836.52259
568.242	21435.05071
568.446	21444.14347
568.65	21890.61789
568.854	21849.12083
569.058	21786.54942
569.262	21638.81908
569.466	21908.6435
569.67	21719.36282
569.874	21836.26783
570.078	21531.31851
570.281	21857.19303
570.485	21730.65323
570.689	21695.84128
570.893	21474.94609
571.097	21692.19949
571.3	21730.85366
571.504	21414.30194
571.708	21583.44134
571.912	21409.16965
572.115	21580.20299
572.319	21439.31823
572.523	21390.21849
572.726	21779.52825
572.93	21332.44692
573.133	21589.90873
573.337	21264.19456
573.541	21621.02184
573.744	21216.20399
573.948	21228.5643
574.151	21271.89709
574.355	21642.89977
574.558	21356.0633
574.762	21137.18945
574.965	20934.12472
575.169	21128.7596
575.372	21468.85651
575.576	21186.98487
575.779	21027.51768
575.983	21433.34959
576.186	21251.14235
576.389	21231.77669
576.593	20742.41134
576.796	21341.83506
577	21059.6473
577.203	20975.11915
577.406	20931.84453
577.609	20876.49258
577.813	20997.98302
578.016	21010.59501
578.219	20754.97014
578.423	20910.57775
578.626	21029.24043
578.829	21050.77108
579.032	20766.3969
579.235	21128.15888
579.438	21142.85795
579.642	20901.43501
579.845	20536.39643
580.048	20796.52574
580.251	20796.40538
580.454	21004.83899
580.657	20819.2589
580.86	21037.91727
581.063	20752.61817
581.266	20775.99204
581.469	20694.21385
581.672	20939.91781
581.875	20960.63674
582.078	20849.4691
582.281	20664.46194
582.484	21042.12762
582.687	21421.2969
582.89	20727.3391
583.093	20520.29221
583.296	20682.23806
583.499	21035.21754
583.702	20617.15942
583.904	20547.59422
584.107	20762.17249
584.31	20722.4156
584.513	20511.14052
584.716	20586.89858
584.918	20714.04806
585.121	20764.03116
585.324	20654.45458
585.527	20599.40005
585.729	20875.32984
585.932	20724.33804
586.135	21001.16307
586.337	20507.57384
586.54	20885.59501
586.743	20704.71855
586.945	20707.0812
587.148	20681.257
587.35	20874.17714
587.553	20742.88752
587.755	20619.10714
587.958	20655.54321
588.161	20655.34555
588.363	20708.32482
588.566	20816.56526
588.768	20725.75211
588.971	20613.06068
589.173	20689.0995
589.375	20631.45573
589.578	20313.22573
589.78	20716.2638
589.983	20349.61089
590.185	20578.14647
590.387	20075.37233
590.59	20502.77467
590.792	20002.48027
590.994	19757.19699
591.197	20014.20318
591.399	19943.08319
591.601	19762.45321
591.803	19636.01368
592.006	19477.94056
592.208	19660.98451
592.41	19659.88501
592.612	19456.52687
592.815	19202.5414
593.017	19468.09516
593.219	19270.90633
593.421	18889.72234
593.623	18871.86285
593.825	19343.86622
594.027	18766.10175
594.229	18708.40596
594.432	18622.51974
594.634	18945.98474
594.836	18556.29354
595.038	18784.90328
595.24	18601.97421
595.442	18572.06549
595.644	18331.04262
595.846	18130.6377
596.048	18320.62635
596.249	18226.4576
596.451	18095.23583
596.653	17985.51979
596.855	17548.48288
597.057	17969.50294
597.259	18143.51853
597.461	17875.69721
597.663	17889.6655
597.864	17944.94794
598.066	17684.56937
598.268	17548.2533
598.47	17404.14574
598.671	17547.55811
598.873	17447.71183
599.075	17407.6622
599.277	17812.22459
599.478	17786.67726
599.68	17863.07125
599.882	17796.64419
600.083	17735.4045
600.285	18170.58687
600.487	17994.41993
600.688	17918.45993
600.89	17764.08441
601.091	18232.08718
601.293	17888.93918
601.494	17802.02885
601.696	17758.49624
601.898	18256.10161
602.099	18298.08307
602.301	18182.38229
602.502	17853.99505
602.703	18388.01272
602.905	18048.69936
603.106	18038.81872
603.308	17988.31304
603.509	18323.60765
603.711	18066.87515
603.912	18042.09069
604.113	18033.9717
604.315	18233.14464
604.516	18567.30813
604.717	18135.10558
604.919	18352.05107
605.12	18339.37708
605.321	18519.65944
605.522	18274.49064
605.724	18396.78326
605.925	18385.88758
606.126	18780.75773
606.327	18429.25348
606.528	18575.43122
606.729	18759.71713
606.931	18672.52274
607.132	18592.0694
607.333	18690.37717
607.534	18745.98707
607.735	18727.25164
607.936	18382.49956
608.137	18735.50296
608.338	18855.25462
608.539	18823.47264
608.74	18768.06251
608.941	18679.03922
609.142	18974.39156
609.343	18844.17771
609.544	18899.31294
609.745	18657.98191
609.946	19066.26312
610.147	18917.54325
610.348	18854.82068
610.549	18865.49144
610.75	18901.53075
610.95	18949.9327
611.151	18945.30184
611.352	18666.65948
611.553	19318.30623
611.754	18710.85124
611.954	18981.87724
612.155	18766.36856
612.356	19065.08084
612.557	18905.87866
612.757	18868.41361
612.958	18756.74514
613.159	18971.49122
613.359	19070.52207
613.56	18764.83896
613.761	18842.71813
613.961	18929.68531
614.162	18845.10399
614.362	18788.92429
614.563	18733.64666
614.764	19005.46611
614.964	18989.57155
615.165	18813.93699
615.365	18584.51024
615.566	18947.1399
615.766	18959.61835
615.967	18820.8037
616.167	18458.28333
616.368	18647.15637
616.568	19046.65221
616.768	18659.78886
616.969	18519.75246
617.169	19017.81607
617.37	18716.00993
617.57	18625.21416
617.77	18420.62806
617.971	18410.82202
618.171	18630.00498
618.371	18616.46751
618.571	18609.8597
618.772	18650.31095
618.972	18498.25268
619.172	18393.71047
619.372	18298.90896
619.573	18607.35978
619.773	18513.58368
619.973	18306.57968
620.173	18232.27643
620.373	18439.56978
620.573	18239.43031
620.774	18404.96541
620.974	18240.3525
621.174	18426.48387
621.374	18334.83715
621.574	18475.18132
621.774	18360.552
621.974	18164.71681
622.174	18312.61593
622.374	18361.61527
622.574	18180.62996
622.774	18244.7386
622.974	18439.7
623.174	18340.33826
623.374	18187.0775
623.574	18468.70908
623.774	18316.31507
623.973	18327.39404
624.173	18304.19028
624.373	18596.97861
624.573	18463.02803
624.773	18557.97455
624.973	18102.1503
625.172	18337.02199
625.372	18151.47821
625.572	18457.71025
625.772	18269.59815
625.971	18297.59363
626.171	18148.41262
626.371	18319.05562
626.57	17804.7173
626.77	18470.14075
626.97	18374.89696
627.169	18066.36514
627.369	18133.40545
627.569	18320.38851
627.768	18093.02037
627.968	18022.08122
628.167	17922.61337
628.367	18250.9796
628.566	18105.14619
628.766	17844.65343
628.965	17974.80711
629.165	18360.1729
629.364	18006.2294
629.564	17867.15969
629.763	17595.04278
629.963	18264.20738
630.162	17785.71133
630.362	17783.00736
630.561	17798.64087
630.76	17758.5925
630.96	17530.22037
631.159	17683.85931
631.358	17489.19156
631.558	17679.00198
631.757	17632.5879
631.956	17487.63239
632.155	17400.67516
632.355	17298.26097
632.554	17189.58204
632.753	17545.09686
632.952	17235.42544
633.152	17489.75918
633.351	17191.10597
633.55	17437.12189
633.749	17031.76903
633.948	17392.06014
634.147	17003.00002
634.346	17009.20614
634.545	16968.63432
634.744	17124.07642
634.944	17048.65339
635.143	17232.12156
635.342	17048.5654
635.541	17130.47279
635.74	17052.7559
635.939	16927.09185
636.138	16968.96027
636.336	17398.24311
636.535	16925.77698
636.734	16848.28682
636.933	16949.27217
637.132	17160.23498
637.331	17131.17506
637.53	17051.93512
637.729	16781.89614
637.928	17083.28647
638.126	17126.36376
638.325	16769.04477
638.524	16732.53748
638.723	17017.02076
638.921	17274.47009
639.12	16952.57673
639.319	16955.38414
639.518	17142.14954
639.716	16980.19234
639.915	16826.94626
640.114	16909.13852
640.312	17286.82535
640.511	17055.11055
640.71	17024.79017
640.908	16696.52962
641.107	17086.12257
641.305	16891.31733
641.504	16752.74358
641.702	16535.36813
641.901	17309.08377
642.099	16940.72415
642.298	16740.87768
642.496	17003.70748
642.695	16868.43666
642.893	16893.6291
643.092	16809.92303
643.29	16632.68869
643.489	16763.75423
643.687	16824.43944
643.885	16788.72549
644.084	16709.25746
644.282	17006.26033
644.48	17024.49258
644.679	16895.27974
644.877	16710.25012
645.075	16935.01647
645.274	16750.3784
645.472	16606.45081
645.67	16896.55182
645.868	16613.92384
646.067	16731.61958
646.265	16719.63104
646.463	16594.97927
646.661	16620.6164
646.859	16611.53676
647.057	16385.01671
647.256	16233.30674
647.454	16577.93252
647.652	16623.39004
647.85	16352.12208
648.048	16300.86814
648.246	16510.40147
648.444	16195.75963
648.642	16283.32636
648.84	16043.49794
649.038	16228.71897
649.236	16367.32155
649.434	15903.54566
649.632	15770.3928
649.83	16276.73761
650.028	16157.13213
650.226	15897.78167
650.423	15547.18678
650.621	16024.96341
650.819	15854.53202
651.017	15649.69083
651.215	15529.96376
651.413	15670.72381
651.61	15382.47333
651.808	15493.6077
652.006	15144.43073
652.204	15738.99325
652.401	15538.35898
652.599	15398.81627
652.797	15148.91919
652.995	15398.13794
653.192	15234.08957
653.39	15091.66871
653.588	14938.48632
653.785	15477.53029
653.983	15005.09796
654.18	14960.49897
654.378	15000.37512
654.576	15192.59694
654.773	14823.58297
654.971	14953.07058
655.168	14621.88878
655.366	14911.35028
655.563	14852.30015
655.761	14562.99781
655.958	14387.24283
656.156	14886.97958
656.353	14636.08115
656.55	14438.15095
656.748	14776.48541
656.945	14573.1661
657.143	14409.7084
657.34	14333.73439
657.537	14509.09286
657.735	14438.81734
657.932	14312.30967
658.129	14141.0982
658.326	14139.59156
658.524	14571.91858
658.721	14180.53068
658.918	14255.92732
659.115	13967.99029
659.313	14432.92637
659.51	14252.08438
659.707	14157.53034
659.904	14062.8474
660.101	14477.69002
660.298	14043.54337
660.496	14085.62531
660.693	14084.2045
660.89	14022.70785
661.087	14010.81428
661.284	13745.83354
661.481	13772.00385
661.678	14365.84063
661.875	14179.61942
662.072	14230.83007
662.269	14008.55804
662.466	14246.57676
662.663	14113.81367
662.86	13840.7445
663.057	14027.84617
663.254	14112.7643
663.45	14007.15824
663.647	13736.98567
663.844	13758.43306
664.041	13742.44779
664.238	13832.5255
664.435	13827.81128
664.631	13449.50234
664.828	13919.49132
665.025	13799.89931
665.222	13523.14739
665.419	13751.09268
665.615	13945.66323
665.812	14102.04561
666.009	13814.1006
666.205	13921.00737
666.402	14281.9351
666.599	14060.65099
666.795	14119.61908
666.992	14211.11923
667.188	14348.51684
667.385	14397.33868
667.582	14473.03502
667.778	14335.99011
667.975	14528.32785
668.171	14409.93217
668.368	14325.82556
668.564	14309.35171
668.761	14545.09521
668.957	14359.01407
669.154	14402.20723
669.35	14321.1361
669.547	14420.55459
669.743	14399.40934
669.939	14151.3231
670.136	14290.92827
670.332	14386.72322
670.528	14420.74848
670.725	14156.44106
670.921	14373.66171
671.117	14404.38145
671.314	14337.5956
671.51	14164.64893
671.706	14293.14361
671.902	14282.63903
672.099	14313.97169
672.295	14117.71402
672.491	14162.36616
672.687	14421.50681
672.883	14116.70918
673.08	14261.30122
673.276	14046.32941
673.472	14395.2155
673.668	14261.93332
673.864	13949.88133
674.06	13838.472
674.256	14201.54045
674.452	14131.97589
674.648	13893.40146
674.844	13842.44708
675.04	14071.39239
675.236	14117.27353
675.432	13965.41757
675.628	13923.93903
675.824	14185.31766
676.02	13786.76013
676.216	13829.39287
676.412	13953.70991
676.608	13858.59569
676.804	13882.48495
676.999	14101.77855
677.195	13470.89859
677.391	13858.48896
677.587	13792.74
677.783	13500.42956
677.978	13572.51222
678.174	13942.55367
678.37	13951.38617
678.566	13536.47806
678.761	13546.35237
678.957	13604.92371
679.153	13697.70252
679.348	13634.47398
679.544	13512.82342
679.74	13815.16345
679.935	13944.83097
680.131	13562.34022
680.327	13377.9784
680.522	13636.98792
680.718	13455.50506
680.913	13297.3039
681.109	13396.2635
681.304	13643.72575
681.5	13355.13338
681.695	13459.16014
681.891	13328.22872
682.086	13375.26925
682.282	13570.28786
682.477	17932.79289
682.672	13110.98473
682.868	13475.18921
683.063	13376.44434
683.259	13569.93499
683.454	13500.84831
683.649	13436.13133
683.845	13096.62857
684.04	13256.31276
684.235	13048.00528
684.43	13445.84193
684.626	13193.39165
684.821	13244.35213
685.016	13084.16637
685.211	15163.73759
685.407	13111.04537
685.602	13100.71668
685.797	13004.55584
685.992	13111.77598
686.187	13152.88651
686.382	12899.01782
686.577	12878.92167
686.773	12912.83154
686.968	12818.29253
687.163	12984.60357
687.358	12755.68245
687.553	12948.31538
687.748	12981.48842
687.943	12920.14265
688.138	12769.93362
688.333	12827.99706
688.528	12946.60281
688.723	12428.27662
688.918	12574.29022
689.112	12480.23331
689.307	12606.84267
689.502	12234.40518
689.697	12021.57408
689.892	12445.79351
690.087	12096.25401
690.282	12071.64295
690.476	12003.7312
690.671	12246.53693
690.866	11740.50607
691.061	11743.81082
691.255	11577.77379
691.45	11870.01235
691.645	11741.06395
691.84	11445.01311
692.034	11309.36556
692.229	11672.45783
692.424	11274.30661
692.618	11288.88909
692.813	11137.76733
693.007	11365.09475
693.202	11126.81886
693.397	11001.50457
693.591	10875.35528
693.786	11261.76972
693.98	11032.74836
694.175	10882.93403
694.369	10649.57142
694.564	10924.19228
694.758	10590.10564
694.953	10731.77042
695.147	10552.28671
695.342	10666.56629
695.536	10423.99813
695.73	10140.34674
695.925	9934.47556
696.119	10419.31038
696.313	10011.45999
696.508	9925.1357
696.702	9807.26687
696.896	10144.943
697.091	10169.87442
697.285	9965.04599
697.479	9927.39096
697.673	10153.1218
697.868	10159.3049
698.062	10212.87587
698.256	9862.49882
698.45	10320.53495
698.644	10217.61576
698.839	10125.52274
699.033	10142.87438
699.227	10158.41644
699.421	10235.13436
699.615	10168.41131
699.809	10212.51977
700.003	10279.50296
700.197	10195.41837
700.391	10309.62615
700.585	10151.61114
700.779	10445.74173
700.973	10566.10382
701.167	10050.73074
701.361	10164.98212
701.555	10320.3427
701.749	10083.82941
701.943	10050.89187
702.137	10032.0929
702.331	10040.97362
702.525	10194.67335
702.718	9955.39101
702.912	9711.85561
703.106	10372.17998
703.3	9932.99745
703.494	9904.20828
703.687	9901.7143
703.881	10079.2634
704.075	10147.64405
704.269	10055.80575
704.462	10047.54915
704.656	10173.63474
704.85	10203.36845
705.043	10071.51946
705.237	10025.72858
705.431	10197.16363
705.624	10147.9509
705.818	9979.6117
706.012	10060.02617
706.205	10300.8149
706.399	10130.34555
706.592	10081.50122
706.786	10086.29028
706.979	10175.69603
707.173	9950.37565
707.366	9984.75906
707.56	9798.03026
707.753	10112.69158
707.947	9902.08642
708.14	9788.65502
708.333	9741.89395
708.527	9998.64533
708.72	9808.52715
708.914	9831.89228
709.107	9646.03294
709.3	10020.5239
709.494	9946.48889
709.687	9740.4549
709.88	9573.55716
710.073	10078.09365
710.267	9998.42865
710.46	9744.48894
710.653	9837.61243
710.846	10012.04474
711.04	10120.20122
711.233	9944.53228
711.426	9967.62137
711.619	10071.20875
711.812	10165.97388
712.005	9927.66978
712.198	9802.65405
712.391	10302.77014
712.585	10115.15776
712.778	9875.98659
712.971	9903.72165
713.164	10167.62304
713.357	9867.7122
713.55	10148.41102
713.743	9819.74556
713.936	10140.77929
714.129	10160.63213
714.322	9957.28935
714.514	9970.45098
714.707	10099.79834
714.9	9993.19507
715.093	9901.73782
715.286	9917.33571
715.479	10122.90046
715.672	10100.18455
715.864	9943.73823
716.057	9853.1287
716.25	10031.50006
716.443	10207.25468
716.636	9965.47305
716.828	9785.54277
717.021	10095.22241
717.214	9988.06719
717.406	9971.54414
717.599	9662.02569
717.792	13281.01309
717.984	9887.61039
718.177	9823.99773
718.37	9628.21099
718.562	9771.28687
718.755	9743.77095
718.947	9558.52821
719.14	9429.49001
719.333	9580.92414
719.525	9565.50653
719.718	9197.49536
719.91	9196.03778
720.103	9049.16932
720.295	8949.70361
720.487	8860.14885
720.68	8656.55453
720.872	8612.18654
721.065	8549.55508
721.257	8453.96615
721.449	8121.12594
721.642	8346.99022
721.834	8161.12743
722.026	7876.92891
722.219	7926.15243
722.411	7851.69978
722.603	7921.07137
722.796	7685.99494
722.988	7585.31734
723.18	7720.1393
723.372	7417.92339
723.565	7240.17145
723.757	7310.24996
723.949	7426.67742
724.141	7145.75098
724.333	7230.32896
724.525	7094.35768
724.717	6930.78073
724.91	7000.33939
725.102	6949.03832
725.294	6531.19004
725.486	6617.3941
725.678	6480.94879
725.87	6323.11701
726.062	6228.65093
726.254	6418.04577
726.446	6295.41692
726.638	6212.43131
726.83	6077.08608
727.022	6275.56553
727.213	6225.10639
727.405	6265.27686
727.597	6050.62969
727.789	6501.37277
727.981	6381.68667
728.173	6267.09992
728.365	6097.78586
728.556	6301.66704
728.748	6311.83087
728.94	6254.77754
729.132	6139.9699
729.324	6351.36006
729.515	6218.71502
729.707	6062.58689
729.899	6321.11213
730.09	6695.79107
730.282	6479.07908
730.474	6510.5205
730.665	6260.25715
730.857	6515.78693
731.049	6475.48101
731.24	6411.27408
731.432	6291.37562
731.623	6321.12342
731.815	6297.91208
732.006	6237.41998
732.198	6098.95037
732.389	6360.36926
732.581	6186.06955
732.772	5908.50148
732.964	5944.71314
733.155	5990.71644
733.347	6185.75098
733.538	5809.66304
733.729	5896.37884
733.921	6118.41264
734.112	6081.93557
734.304	6013.15547
734.495	5937.73791
734.686	6145.54001
734.877	6322.36957
735.069	6097.22839
735.26	6169.49958
735.451	6381.45914
735.643	6348.20416
735.834	6245.69683
736.025	6204.54045
736.216	6543.19985
736.407	6382.31094
736.599	6381.18249
736.79	6160.9463
736.981	6339.92537
737.172	6533.80847
737.363	6326.50465
737.554	6346.57444
737.745	6506.13599
737.936	6516.65605
738.127	6603.2612
738.318	6367.04734
738.509	6691.76163
738.7	6869.19911
738.891	6621.03793
739.082	6485.12604
739.273	6896.07687
739.464	6941.76836
739.655	6620.59312
739.846	6740.56149
740.037	6973.03387
740.228	6893.07319
740.419	6954.22619
740.609	7129.41908
740.8	7235.87778
740.991	7088.10189
741.182	6984.03084
741.373	7002.80641
741.563	7392.47178
741.754	7294.01506
741.945	7117.94763
742.136	7035.76681
742.326	7429.85564
742.517	7374.07528
742.708	7372.34063
742.898	7231.36144
743.089	7512.23801
743.28	7347.2668
743.47	7407.86611
743.661	7128.38449
743.851	7280.08147
744.042	7417.83621
744.233	7277.32299
744.423	7343.10293
744.614	7387.91191
744.804	7500.56792
744.995	7103.74465
745.185	7373.86027
745.376	7334.56818
745.566	7278.19093
745.756	7318.89508
745.947	7161.21234
746.137	7477.9466
746.328	7488.3365
746.518	7270.1342
746.708	7318.12666
746.899	7441.85306
747.089	7764.19473
747.279	7154.70382
747.47	7159.86101
747.66	7486.70463
747.85	7374.46642
748.04	7343.66645
748.231	7494.84519
748.421	7484.13754
748.611	7498.67114
748.801	7254.45465
748.991	7223.37696
749.182	7647.78323
749.372	7558.08381
749.562	7408.74685
749.752	7344.65594
749.942	7570.39088
750.132	7595.37933
750.322	7392.07622
750.512	7410.06167
750.702	7423.16274
750.892	7571.5864
751.082	7393.23233
751.272	7177.68967
751.462	7424.16036
751.652	7359.45665
751.842	7506.3404
752.032	7216.99171
752.222	7418.17461
752.412	7519.45745
752.602	7425.18075
752.792	7139.05634
752.981	7324.79405
753.171	7247.64856
753.361	7148.484
753.551	7109.08345
753.741	7324.53858
753.93	7348.80186
754.12	7431.8225
754.31	7264.30689
754.5	7475.94667
754.689	7410.16699
754.879	7197.937
755.069	7100.54583
755.258	7183.60782
755.448	7312.55949
755.638	7170.85318
755.827	7054.86616
756.017	7339.11183
756.206	7219.46581
756.396	7114.40898
756.586	7025.94168
756.775	7195.76223
756.965	7249.46205
757.154	7162.70173
757.344	7097.27067
757.533	7019.27702
757.723	7231.70746
757.912	6940.78008
758.101	6889.23017
758.291	7271.13252
758.48	6969.09296
758.67	6937.07697
758.859	6876.2916
759.048	7146.16728
759.238	7031.43985
759.427	6822.47296
759.616	6789.04021
759.806	7111.12744
759.995	7002.91651
760.184	6829.47034
760.373	6657.8983
760.563	6892.07315
760.752	6908.04616
760.941	6734.85383
761.13	6725.6282
761.319	6791.40827
761.509	6563.39085
761.698	6306.68444
761.887	6200.28795
762.076	6328.14963
762.265	6158.26571
762.454	6076.86823
762.643	5934.87185
762.832	5912.48294
763.021	5936.14624
763.21	5718.89431
763.399	5728.09258
763.588	6219.29161
763.777	5676.42382
763.966	5485.4581
764.155	5252.84702
764.344	5505.32516
764.533	5313.02179
764.722	4871.79017
764.911	4920.67588
765.1	5026.82336
765.288	4998.87983
765.477	4578.67505
765.666	4390.19187
765.855	4555.44114
766.044	4671.05506
766.232	4319.55473
766.421	4089.91053
766.61	4275.96844
766.799	4087.15921
766.987	3906.87801
767.176	3774.86704
767.365	4045.4582
767.553	3928.14362
767.742	3817.80854
767.931	3599.49918
768.119	3753.07943
768.308	3575.38226
768.497	3339.33705
768.685	3298.03687
768.874	3359.26377
769.062	3183.9535
769.251	3178.52663
769.439	3088.18263
769.628	3330.68142
769.816	3484.35802
770.005	3303.84723
770.193	3344.34395
770.382	3539.93797
770.57	3676.33366
770.758	3672.20144
770.947	3806.71158
771.135	4122.83126
771.323	4072.05069
771.512	3999.54894
771.7	3910.55902
771.888	4358.70304
772.077	4166.42728
772.265	4335.45937
772.453	4275.2496
772.642	4703.17245
772.83	4431.16704
773.018	4758.41822
773.206	4554.79753
773.394	4681.66118
773.583	4786.76324
773.771	4769.39847
773.959	5017.44959
774.147	4960.38129
774.335	5145.16627
774.523	5161.62774
774.711	5180.26704
774.899	5196.84783
775.087	5403.53893
775.275	5304.56666
775.463	5295.69475
775.651	5731.35693
775.839	5419.20254
776.027	5306.52161
776.215	5465.34163
776.403	5537.66511
776.591	5487.39614
776.779	5511.38421
776.967	5582.23627
777.155	5641.40797
777.343	5560.43484
777.531	5440.80873
777.718	5521.19646
777.906	5693.6957
778.094	5730.95178
778.282	5489.82032
778.47	5418.86353
778.657	5808.45988
778.845	5701.88609
779.033	5751.06756
779.22	5577.11716
779.408	5660.66782
779.596	5800.47623
779.783	5346.23703
779.971	5529.39564
780.159	5642.27556
780.346	5687.41211
780.534	5540.91463
780.722	5606.90716
780.909	5667.36704
781.097	5576.75968
781.284	5483.47514
781.472	5421.75685
781.659	5675.67323
781.847	5702.08082
782.034	5440.50494
782.222	5393.50574
782.409	5558.54226
782.597	5506.39563
782.784	5391.76237
782.971	6112.84151
783.159	5572.9818
783.346	5529.49945
783.533	5367.66248
783.721	5492.55581
783.908	5527.77842
784.095	5278.64685
784.283	5311.88783
784.47	5253.61402
784.657	5506.54119
784.844	5469.61029
785.032	5275.37785
785.219	5305.85806
785.406	5441.97689
785.593	5477.58151
785.78	5251.12286
785.968	5243.18928
786.155	5320.87633
786.342	5248.76915
786.529	5336.62639
786.716	5117.95466
786.903	5325.65552
787.09	5105.07576
787.277	5052.65714
787.464	5067.74661
787.651	5433.22091
787.838	5259.53554
788.025	5158.64204
788.212	5034.74774
788.399	5249.76107
788.586	5210.88175
788.773	5176.09839
788.96	4982.49899
789.147	5201.04343
789.334	4926.87966
789.521	5106.4231
789.707	4964.50329
789.894	4985.22477
790.081	4982.85162
790.268	4955.55062
790.455	4877.67321
790.641	5487.45651
790.828	4949.89353
791.015	4868.28801
791.202	4782.16396
791.388	5057.58505
791.575	5052.93026
791.762	4778.24355
791.948	4668.7189
792.135	5018.23626
792.322	4743.15744
792.508	4950.46222
792.695	4610.99171
792.881	4681.14536
793.068	4816.08737
793.254	4541.31098
793.441	4524.0765
793.627	4878.6778
793.814	4534.41477
794	4432.02585
794.187	4463.15325
794.373	4850.80752
794.56	4786.83093
794.746	4728.14676
794.933	4534.38907
795.119	4560.25915
795.305	4660.71728
795.492	4333.47876
795.678	4312.99689
795.864	4497.69196
796.051	4419.741
796.237	4396.1445
796.423	4416.75213
796.61	4545.93888
796.796	4409.82089
796.982	4280.78537
797.168	4304.60408
797.355	4464.33029
797.541	4494.09405
797.727	4452.82927
797.913	4330.51572
798.099	4501.39582
798.285	4283.52376
798.471	4512.46338
798.658	4190.75696
798.844	4435.31454
799.03	4380.51157
799.216	4399.98318
799.402	4219.43905
799.588	4580.45148
799.774	4565.10245
799.96	4421.23016
800.146	4584.34888
800.332	4462.87848
800.518	4418.655
800.704	4378.72368
800.89	4266.24873
801.075	4487.5917
801.261	4300.74857
801.447	4164.66297
801.633	4199.79983
801.819	4497.314
802.005	4282.28878
802.19	4293.56168
802.376	4273.70303
802.562	4498.80106
802.748	4597.80573
802.934	4573.22682
803.119	4266.08134
803.305	4285.16733
803.491	4488.61741
803.676	4183.78948
803.862	4061.37514
804.048	4508.9854
804.233	4363.27302
804.419	4282.00529
804.605	4150.66163
804.79	4228.85786
804.976	4452.42581
805.161	4269.10961
805.347	4008.92358
805.532	4289.31438
805.718	4209.10827
805.903	4160.45964
806.089	4298.12744
806.274	4342.91511
806.46	4533.02307
806.645	4154.10283
806.831	4143.24806
807.016	4198.70376
807.201	4504.93959
807.387	4078.92729
807.572	4069.72447
807.757	4350.12311
807.943	4236.39692
808.128	4093.39904
808.313	4267.37687
808.499	4294.08684
808.684	4262.86456
808.869	4099.34815
809.054	4241.9939
809.24	4138.92701
809.425	4215.20108
809.61	4127.96867
809.795	4131.06768
809.98	4234.89917
810.165	4211.31231
810.35	4399.28883
810.536	4019.78103
810.721	4197.42857
810.906	3940.07344
811.091	4216.10095
811.276	3956.18111
811.461	4122.11828
811.646	4258.98387
811.831	3930.35159
812.016	3878.47379
812.201	3928.86921
812.386	4040.32067
812.571	3891.50501
812.756	3913.59115
812.941	3994.58542
813.125	4269.26677
813.31	3809.54826
813.495	4029.95823
813.68	3972.90354
813.865	3970.67339
814.05	3808.3353
814.234	3727.50769
814.419	3869.08987
814.604	3850.5087
814.789	3856.82237
814.973	3704.61869
815.158	4078.00321
815.343	3806.13511
815.528	3769.94978
815.712	3588.14336
815.897	3620.39749
816.081	3764.90299
816.266	3587.83475
816.451	3527.80643
816.635	3480.00602
816.82	3646.48866
817.004	3435.52578
817.189	3396.01625
817.374	3540.6008
817.558	3556.10772
817.743	3211.04285
817.927	3292.20994
818.111	3407.41804
818.296	3339.80674
818.48	3176.34719
818.665	3196.84442
818.849	3313.24177
819.034	3306.13456
819.218	3155.39895
819.402	2985.05178
819.587	3012.279
819.771	3105.39848
819.955	2942.12254
820.14	2988.57126
820.324	2844.31399
820.508	2949.10011
820.692	2889.03178
820.877	2720.77891
821.061	2967.73857
821.245	2742.45406
821.429	2697.44162
821.613	2699.52149
821.798	2599.86295
821.982	2741.84273
822.166	2453.62711
822.35	2380.23769
822.534	2513.6406
822.718	2567.47342
822.902	2517.52972
823.086	2471.73685
823.27	2645.90478
823.454	2486.79832
823.638	2333.7319
823.822	2403.03913
824.006	2381.34831
824.19	2551.62202
824.374	2338.78507
824.558	2257.35351
824.742	2410.66284
824.926	2450.99357
825.11	2265.14141
825.294	2306.8291
825.477	2442.99135
825.661	2435.50269
825.845	2297.14037
826.029	2336.46881
826.213	2561.56147
826.396	2445.72247
826.58	2403.8199
826.764	2395.85111
826.948	2492.29372
827.131	2585.42326
827.315	2389.60563
827.499	2362.03265
827.682	2712.91164
827.866	2495.66156
828.05	2369.5012
828.233	2410.25864
828.417	2599.50884
828.6	2770.3596
828.784	2383.76791
828.967	2698.94364
829.151	2749.58322
829.335	2565.53425
829.518	2501.93269
829.701	2472.62266
829.885	2613.43439
830.068	2629.76641
830.252	2369.21764
830.435	2377.44683
830.619	2572.96175
830.802	2440.66641
830.985	2483.43317
831.169	2383.12137
831.352	2503.65885
831.535	2389.89351
831.719	2498.10017
831.902	2396.59496
832.085	2440.37393
832.269	2466.26738
832.452	2328.64994
832.635	2359.53669
832.818	2608.93998
833.002	2481.08155
833.185	2724.62459
833.368	2444.26467
833.551	2664.91484
833.734	2527.99011
833.917	2449.45263
834.1	2407.6117
834.284	2629.53356
834.467	2614.39063
834.65	2470.34038
834.833	2355.30458
835.016	2683.87905
835.199	2562.43745
835.382	2366.78093
835.565	2282.39195
835.748	2539.65089
835.931	2496.94179
836.114	2243.00216
836.297	2499.21656
836.479	2561.46511
836.662	2684.07494
836.845	2379.99295
837.028	2254.58846
837.211	2408.83985
837.394	2581.08391
837.577	2452.4177
837.759	2427.34497
837.942	2592.48636
838.125	2545.60534
838.308	2386.29169
838.49	2158.33746
838.673	6262.06983
838.856	2440.0088
839.039	2500.78738
839.221	2325.66603
839.404	2731.22438
839.587	2614.10842
839.769	2270.35745
839.952	2340.61759
840.134	2549.95564
840.317	2489.86178
840.499	2609.51502
840.682	2536.33337
840.865	2585.20873
841.047	2821.68748
841.23	2434.66896
841.412	2442.85099
841.595	2723.66552
841.777	2641.88731
841.959	2371.70229
842.142	2444.12651
842.324	2666.34129
842.507	2845.33308
842.689	2550.63691
842.871	2415.51156
843.054	2868.33751
843.236	2652.99785
843.418	2558.82808
843.601	2581.04006
843.783	2680.45947
843.965	2682.02241
844.147	2574.40254
844.33	2595.36006
844.512	2698.4452
844.694	2616.52131
844.876	2585.52407
845.059	2637.49689
845.241	2744.69144
845.423	2623.93386
845.605	2447.0656
845.787	2489.07345
845.969	2825.62375
846.151	2748.17418
846.333	2335.4739
846.515	2393.76029
846.697	2571.07902
846.879	2706.58458
847.061	2478.9367
847.243	2522.74711
847.425	2575.37923
847.607	2564.5571
847.789	2353.16067
847.971	2292.05704
848.153	2739.2115
848.335	2673.73104
848.517	2438.70122
848.699	2264.29011
848.881	2626.67774
849.062	2655.04697
849.244	2607.38757
849.426	2306.8291
849.608	2521.43295
849.789	2563.19256
849.971	2673.37642
850.153	2442.41021
850.335	2538.15622
850.516	2572.59075
850.698	2378.37407
850.88	2326.59236
851.061	2958.25099
851.243	2610.64904
851.425	2326.01943
851.606	2292.90607
851.788	2576.20385
851.969	2553.04658
852.151	2361.65261
852.333	2353.65239
852.514	2570.64743
852.696	2432.81547
852.877	2381.56297
853.059	2357.49232
853.24	2776.31173
853.422	2833.10094
853.603	2315.53773
853.784	2226.91673
853.966	2566.09941
854.147	2364.02361
854.329	2205.94135
854.51	2354.49744
854.691	2418.12836
854.873	2628.01289
855.054	2327.50016
855.235	2343.36778
855.416	2380.50629
855.598	2394.49102
855.779	2315.58347
855.96	2347.12489
856.141	2477.79398
856.323	2284.1993
856.504	2095.98608
856.685	2044.59606
856.866	2357.25331
857.047	2545.66869
857.228	2152.43815
857.409	2164.3198
857.591	2347.73434
857.772	2859.81703
857.953	2088.34979
858.134	2036.61825
858.315	2239.82249
858.496	2330.25258
858.677	2031.77396
858.858	2271.88581
859.039	2293.48508
859.22	2364.0132
859.401	2154.35208
859.582	1944.98438
859.762	2353.34873
859.943	2194.27595
860.124	2146.65103
860.305	2264.12538
860.486	2298.63974
860.667	2268.82903
860.848	2081.47905
861.028	1942.14218
861.209	2084.54872
861.39	2247.03583
861.571	1986.90954
861.751	2023.44618
861.932	2606.31928
862.113	2231.1697
862.293	1983.64307
862.474	2243.27944
862.655	2155.81357
862.835	2216.56599
863.016	2475.86188
863.197	2174.7413
863.377	2216.55575
863.558	2062.33394
863.738	2124.5283
863.919	1979.26046
864.099	2281.11758
864.28	2174.92047
864.46	2033.64006
864.641	2056.40123
864.821	2364.09492
865.002	2109.72076
865.182	2044.30851
865.363	2100.82351
865.543	2147.97891
865.723	2210.38441
865.904	2120.46715
866.084	2009.66559
866.264	2316.78152
866.445	2229.08579
866.625	1940.53057
866.805	1926.70341
866.986	2105.957
867.166	2293.42955
867.346	1863.92122
867.526	1971.27838
867.707	2040.32443
867.887	2326.51855
868.067	1967.51782
868.247	1926.83485
868.427	2319.74522
868.607	2042.88062
868.788	1921.53021
868.968	1954.81096
869.148	2406.46112
869.328	1958.31515
869.508	1805.90967
869.688	1886.64055
869.868	2080.07099
870.048	2178.18231
870.228	1794.1552
870.408	1948.67941
870.588	2036.8733
870.768	2100.54251
870.948	1822.3686
871.128	2007.91085
871.307	2096.386
871.487	2047.35734
871.667	1776.03227
871.847	1716.4223
872.027	1961.11603
872.207	2120.20924
872.387	1821.51062
872.566	1726.27865
872.746	2040.22571
872.926	2205.1251
873.106	1738.76899
873.285	1840.96768
873.465	2176.26021
873.645	1965.21354
873.824	1743.10305
874.004	1685.48505
874.184	1826.90948
874.363	2124.99782
874.543	1667.67902
874.723	1667.25945
874.902	2001.70749
875.082	1782.88659
875.261	1789.0667
875.441	1879.16635
875.62	1930.37374
875.8	1897.64893
875.979	1713.53581
876.159	1865.44842
876.338	1976.92567
876.518	1936.80862
876.697	1814.70317
876.876	1784.99549
877.056	1761.66326
877.235	1910.76569
877.415	1705.81259
877.594	1679.79475
877.773	1809.23608
877.953	1883.85311
878.132	1751.28776
878.311	1600.59092
878.49	1896.64043
878.67	1892.80605
878.849	1729.21797
879.028	1613.16664
879.207	1812.82393
879.387	1904.98923
879.566	1682.50935
879.745	1605.23673
879.924	2101.65044
880.103	2001.51786
880.282	1748.92088
880.461	1754.84768
880.64	1885.31907
880.819	1981.89035
880.998	1537.93307
881.178	1729.66453
881.357	1929.88847
881.536	2009.05173
881.715	1566.98284
881.893	1611.0235
882.072	1865.56978
882.251	1828.8691
882.43	1570.72975
882.609	1580.85557
882.788	1901.83031
882.967	1798.64186
883.146	1721.23562
883.325	1576.19923
883.503	1695.91588
883.682	1705.75193
883.861	1627.03513
884.04	1542.75753
884.219	1581.94534
884.397	1781.58525
884.576	1756.94481
884.755	1538.46635
884.933	1821.3353
885.112	1673.00001
885.291	1626.63965
885.469	1591.98972
885.648	1694.73486
885.827	1775.49806
886.005	1434.96093
886.184	1629.70774
886.363	1657.94664
886.541	1634.87099
886.72	1461.94176
886.898	1457.89247
887.077	1793.68856
887.255	1677.8818
887.434	1632.77517
887.612	1587.35341
887.791	1689.29995
887.969	1840.66253
888.147	1619.33163
888.326	1543.11601
888.504	1752.41373
888.682	1766.69289
888.861	1519.89777
889.039	1645.8992
889.218	1754.10713
889.396	1726.65983
889.574	1449.22491
889.752	1559.18731
889.931	1826.35773
890.109	1712.93988
890.287	1484.17096
890.465	1416.01036
890.643	1729.48222
890.822	1983.08976
891	1539.29124
891.178	1502.49134
891.356	1716.64988
891.534	1797.46512
891.712	1542.60411
891.89	1519.36782
892.068	1712.35289
892.247	1565.49811
892.425	1556.82951
892.603	1452.2412
892.781	1735.30852
892.959	1629.38719
893.137	1492.49952
893.314	1478.04341
893.492	1619.15855
893.67	1749.36887
893.848	1844.17086
894.026	1502.15339
894.204	1649.82366
894.382	1628.6945
894.56	1427.07583
894.738	1548.82337
894.915	1639.71653
895.093	1773.72988
895.271	1550.3672
895.449	1567.08607
895.626	1714.79924
895.804	1567.18756
895.982	1748.02189
896.16	1474.84181
896.337	1683.27341
896.515	1622.66555
896.693	1363.49696
896.87	1444.37721
897.048	1658.96774
897.225	1598.33205
897.403	1314.94838
897.581	1411.87378
897.758	1726.86768
897.936	1517.83994
898.113	1423.62568
898.291	1400.96573
898.468	1781.68369
898.646	1633.11404
898.823	1361.89388
899.001	1348.86958
899.178	1598.27948
899.356	1516.23322
899.533	1265.29093
899.71	1248.47078
899.888	1666.07448
900.065	1410.93296
900.242	1269.88998
900.42	1221.93757
900.597	1468.01548
900.774	1478.43085
900.952	1089.74333
901.129	1034.87171
901.306	1332.30575
901.483	1361.19337
901.661	1231.09208
901.838	1075.28351
902.015	1451.46415
902.192	1521.07354
902.369	999.81372
902.546	1112.21185
902.723	1332.6642
902.901	1453.52868
903.078	989.3117
903.255	1117.08706
903.432	1305.7688
903.609	1125.62212
903.786	951.58404
903.963	934.58136
904.14	1281.61703
904.317	1185.12094
904.494	809.39046
904.671	1005.0722
904.848	1002.85021
905.024	1040.5891
905.201	970.33513
905.378	845.25176
905.555	1149.00021
905.732	1287.03762
905.909	794.20195
906.086	1028.50547
906.262	1142.04436
906.439	1048.27582
906.616	877.71794
906.793	1139.94341
906.969	978.78861
907.146	1093.00836
907.323	809.4813
907.5	867.65079
907.676	1142.04436
907.853	1061.09002
908.03	812.51755
908.206	1076.87043
908.383	1533.31461
908.559	1143.59422
908.736	1066.27377
908.912	827.55606
909.089	1379.01505
909.266	1160.71828
909.442	973.68778
909.619	992.46841
909.795	1014.32286
909.972	1088.45553
910.148	959.90845
910.324	829.54912
910.501	1003.27037
910.677	1041.5006
910.854	863.06537
911.03	920.12659
911.206	1031.91681
911.383	1112.58718
911.559	954.1928
911.735	1070.21302
911.912	1258.11879
912.088	1173.19671
912.264	1183.34569
912.44	1099.46847
912.617	1169.48463
912.793	1173.15039
912.969	903.91313
913.145	999.0692
913.321	1202.11549
913.498	1045.18156
913.674	875.88144
913.85	838.3154
914.026	1289.98716
914.202	1124.13869
914.378	812.43056
914.554	898.85912
914.73	1160.16672
914.906	1093.23147
915.082	716.95116
915.258	727.35764
915.434	1158.578
915.61	1068.10457
915.786	778.81445
915.962	926.10363
916.138	934.4495
916.314	859.88313
916.49	906.70605
916.665	697.57728
916.841	931.48939
917.017	930.73438
917.193	657.78076
917.369	749.83052
917.545	1079.23869
917.72	934.71335
917.896	732.65939
918.072	739.56233
918.247	889.62828
918.423	819.72154
918.599	641.46148
918.775	519.60557
918.95	926.70937
919.126	971.83922
919.301	747.24996
919.477	785.3462
919.653	808.95707
919.828	1053.18904
920.004	863.54312
920.179	714.58738
920.355	4252.91791
920.53	857.84184
920.706	670.40712
920.881	734.57961
921.057	866.25602
921.232	879.81924
921.408	659.87093
921.583	679.76989
921.759	733.44652
921.934	779.52441
922.109	597.72342
922.285	660.80515
922.46	844.3171
922.635	877.29706
922.811	693.23808
922.986	453.75297
923.161	1155.03957
923.336	819.8381
923.512	515.68932
923.687	728.11817
923.862	921.03182
924.037	946.70482
924.212	1008.42998
924.388	816.54832
924.563	724.58129
924.738	969.67207
924.913	663.95355
925.088	736.07073
925.263	908.09684
925.438	868.61018
925.613	887.96685
925.788	523.24339
925.963	978.37562
926.138	815.24257
926.313	772.30812
926.488	704.47674
926.663	1125.5777
926.838	950.32183
927.013	668.06014
927.188	546.49261
927.363	999.18669
927.538	1072.95151
927.713	725.91101
927.888	631.14213
928.062	1128.88966
928.237	1100.22908
928.412	641.5314
928.587	732.63315
928.761	1118.15021
928.936	783.24961
929.111	814.77598
929.286	946.84011
929.46	837.54364
929.635	1030.01816
929.81	526.22549
929.984	735.00466
930.159	925.96005
930.334	851.21334
930.508	763.05591
930.683	583.12662
930.857	871.56529
931.032	805.65285
931.206	579.01862
931.381	533.50315
931.556	831.42266
931.73	856.53267
931.904	627.26688
932.079	449.74087
932.253	944.08608
932.428	617.29363
932.602	762.83691
932.777	319.8769
932.951	666.16458
933.125	909.29799
933.3	802.01397
933.474	471.02979
933.648	503.06428
933.823	404.88525
933.997	526.78843
934.171	616.7459
934.345	392.94275
934.52	232.29385
934.694	291.07787
934.868	63.47382
935.042	253.48582
935.217	246.65833
935.391	39.82251
935.565	-21.15996
935.739	421.94219
935.913	554.79759
936.087	630.08233
936.261	-110.64479
936.435	496.96148
936.609	171.29713
936.783	-128.53352
936.957	-170.34629
937.131	237.14707
937.305	220.46086
937.479	-65.31654
937.653	-108.20242
937.827	266.50591
938.001	104.03698
938.175	-43.76118
938.349	-182.03231
938.523	225.31235
938.697	126.38868
938.87	-140.02531
939.044	-125.34256
939.218	112.79106
939.392	363.28416
939.566	-73.26396
939.739	-171.66788
939.913	119.81669
940.087	35.22986
940.261	-55.08446
940.434	-209.36814
940.608	160.05805
940.782	195.96072
940.955	-127.46083
941.129	-31.34047
941.302	168.94425
941.476	51.02662
941.65	-129.90552
941.823	-63.01497
941.997	192.62704
942.17	105.02141
942.344	-152.58954
942.517	7.03773
942.691	187.10591
942.864	99.51818
943.038	-124.08638
943.211	-142.37256
943.385	142.11973
943.558	75.73917
943.731	-60.42796
943.905	-163.68787
944.078	103.82181
944.251	97.19171
944.425	-86.86927
944.598	-167.18222
944.771	53.31696
944.945	81.42184
945.118	-122.87165
945.291	-211.27537
945.464	90.46876
945.638	60.08971
945.811	17.21812
945.984	-170.44627
946.157	72.33419
946.33	85.85725
946.503	-117.32094
946.677	-125.32774
946.85	117.42584
947.023	135.32932
947.196	-124.16922
947.369	-120.81546
947.542	19.46641
947.715	14.91629
947.888	-85.5379
948.061	-144.40403
948.234	110.56609
948.407	103.92103
948.58	-109.51071
948.753	-183.97841
948.926	343.21737
949.099	45.39795
949.271	-52.83283
949.444	-168.2443
949.617	74.70037
949.79	141.2294
949.963	-58.49599
950.136	-158.00574
950.308	76.87865
950.481	106.28434
950.654	20.59131
950.827	-145.80086
950.999	201.98805
951.172	69.00288
951.345	18.33757
951.517	-153.48314
951.69	30.78838
951.863	179.12878
952.035	-87.82026
952.208	-170.45963
952.381	140.06673
952.553	23.97387
952.726	-115.03677
952.898	-133.29389
953.071	130.72828
953.243	142.09264
953.416	-151.67078
953.588	-103.51707
953.761	81.5003
953.933	44.2351
954.106	-55.07157
954.278	-243.95579
954.45	299.11201
954.623	44.18264
954.795	-103.81234
954.967	-156.01454
955.14	66.82422
955.312	130.84761
955.484	-56.24188
955.657	-151.46612
955.829	151.15432
956.001	479.23609
956.173	-115.0548
956.346	-102.66269
956.518	49.96372
956.69	140.15317
956.862	-103.73898
957.034	-147.87338
957.207	54.33965
957.379	149.94546
957.551	-100.39618
957.723	-108.14337
957.895	29.63602
958.067	138.73464
958.239	-93.51348
958.411	-83.37375
958.583	367.94345
958.755	261.95331
958.927	-75.46175
959.099	-95.72882
959.271	77.95887
959.443	78.21776
959.615	-118.48198
959.787	251.67063
959.959	25.09866
960.13	-26.81146
960.302	-41.5398
960.474	-120.66376
960.646	110.7099
960.818	84.87294
960.99	-78.77485
961.161	-159.47873
961.333	70.14426
961.505	173.65983
961.677	377.60624
961.848	-100.34105
962.02	74.73497
962.192	104.0812
962.363	-135.37159
962.535	-61.7418
962.707	87.12871
962.878	57.80152
963.05	158.96612
963.221	-136.60652
963.393	38.58746
963.564	139.70358
963.736	-6.48893
963.907	-77.77158
964.079	84.78805
964.25	157.83166
964.422	-200.78246
964.593	-98.18395
964.765	106.18222
964.936	135.36027
965.108	-108.35105
965.279	-107.15413
965.45	332.25643
965.622	129.78395
965.793	-110.67537
965.964	60.03404
966.136	110.7184
966.307	42.09509
966.478	257.38352
966.65	-125.40689
966.821	91.4541
966.992	253.32211
967.163	-135.43528
967.334	-99.2669
967.506	60.05951
967.677	139.92708
967.848	-70.90917
968.019	-126.44694
968.19	125.55465
968.361	49.94432
968.532	-27.94959
968.703	-51.66946
968.874	119.43298
969.045	755.36234
969.216	-136.71965
969.387	-48.35972
969.558	118.55451
969.729	71.23694
969.9	-174.0332
970.071	-94.67132
970.242	107.43899
970.413	125.27468
970.584	-12.13453
970.755	-53.94505
970.926	155.62835
971.097	54.35213
971.267	173.48148
971.438	-101.58138
971.609	142.01159
971.78	139.62438
971.951	-44.97401
972.121	-78.85794
972.292	80.17677
972.463	100.37867
972.633	-123.0064
972.804	29.61994
972.975	180.42876
973.145	66.77791
973.316	-17.79338
973.487	-137.76767
973.657	147.79063
973.828	136.57203
973.998	-132.06562
974.169	-78.85485
974.339	109.55156
974.51	234.04766
974.68	507.87105
974.851	-119.62013
975.021	54.37925
975.192	90.4201
975.362	-30.19759
975.533	-78.90436
975.703	159.05714
975.874	104.85758
976.044	-101.5374
976.214	-91.34274
976.385	532.41422
976.555	106.19851
976.725	-76.61178
976.896	31.85823
977.066	127.66877
977.236	134.27817
977.406	221.89881
977.577	-118.57998
977.747	372.27562
977.917	79.12242
978.087	332.25643
978.257	-94.66761
978.427	277.55186
978.598	122.8727
978.768	-156.95822
978.938	-49.46474
979.108	52.11718
979.278	56.57477
979.448	-23.39442
979.618	-46.03596
979.788	249.86761
979.958	222.84216
980.128	-74.23995
980.298	-92.42497
980.468	122.02977
980.638	38.57564
980.808	-3.10491
980.978	-84.43661
981.148	377.2629
981.317	155.58091
981.487	-110.57512
981.657	-5.37056
981.827	100.57039
981.997	18.35395
982.167	-127.49079
982.336	-118.65032
982.506	150.03698
982.676	125.20776
982.846	32.93974
983.015	76.86687
983.185	10.43689
983.355	125.10787
983.524	-85.56454
983.694	-66.43323
983.864	148.81732
984.033	78.14187
984.203	-119.70021
984.372	-99.23572
984.542	76.8463
984.712	217.20122
984.881	-59.55782
985.051	-95.73628
985.22	105.07375
985.39	90.51062
985.559	-29.07153
985.728	36.36632
985.898	133.12417
986.067	141.00208
986.237	-29.09076
986.406	-22.29325
986.576	226.47633
986.745	124.37069
986.914	-58.51661
987.084	-41.5333
987.253	198.33049
987.422	291.14348
987.591	52.1312
987.761	-133.27812
987.93	211.92307
988.099	273.50419
988.268	730.82633
988.438	115.05003
988.607	174.92958
988.776	107.20429
988.945	43.14381
989.114	-115.03677
989.283	52.1835
989.452	81.30361
989.621	-42.58313
989.791	-166.99866
989.96	66.83713
990.129	212.60905
990.298	-64.10648
990.467	-154.74441
990.636	70.20909
990.805	76.93474
990.974	-136.63878
991.142	-104.97896
991.311	484.84117
991.48	155.43331
991.649	-88.97233
991.818	-85.65823
991.987	162.40128
992.156	163.5615
992.325	81.4281
992.493	-33.5888
992.662	4324.9184
992.831	345.71599
993	89.17573
993.168	-202.47204
993.337	169.28592
993.506	130.89756
993.675	-209.12793
993.843	-148.97806
994.012	121.96415
994.181	216.68063
994.349	-24.57756
994.518	-126.54675
994.686	75.75367
994.855	334.13954
995.024	-149.06585
995.192	-121.94483
995.361	238.53433
995.529	173.55398
995.698	-107.20466
995.866	-113.88166
996.035	382.93773
996.203	175.93842
996.371	116.23499
996.54	-66.44626
996.708	274.73308
996.877	144.42079
997.045	-108.41518
997.213	-129.98775
997.382	186.766
997.55	258.34661
997.718	284.87357
997.887	-209.36814
998.055	108.15128
998.223	142.22846
998.391	26.24243
998.56	-196.67224
998.728	883.42144
998.896	36.35652
999.064	-147.83279
999.232	18.27236
999.401	223.59177
999.569	-8.74934
999.737	-187.75014
999.905	-197.90973
1000.073	142.1849
1000.241	265.41753
1000.409	-33.61365
1000.577	222.82532
1000.745	230.97789
1000.913	380.76443
1001.081	-162.59211
1001.249	-67.48881
1001.417	109.42198
1001.585	135.57314
1001.753	-3.10515
1001.921	-236.71786
1002.089	36.38881
1002.256	163.36229
1002.424	-167.28774
1002.592	-159.50406
1002.76	120.72888
1002.928	276.75709
1003.096	-190.20448
1003.263	-215.92837
1003.431	201.74867
1003.599	146.7911
1003.767	-217.05612
1003.934	-249.01869
1004.102	342.51088
1004.27	148.86836
1004.437	-189.75347
1004.605	-182.20564
1004.773	121.70417
1004.94	390.39319
1005.108	-152.54735
1005.275	-195.7532
1005.443	237.6579
1005.61	128.7293
1005.778	-76.68412
1005.945	-225.31483
1006.113	166.97489
1006.28	89.30879
1006.448	-241.13872
1006.615	-189.888
1006.783	183.57248
1006.95	91.58025
1007.118	-205.80918
1007.285	-220.7098
1007.452	521.99819
1007.62	29.59821
1007.787	-119.55914
1007.954	-195.94034
1008.122	133.95764
1008.289	48.68348
1008.456	-225.2521
1008.623	-190.0684
1008.791	139.84163
1008.958	151.0679
1009.125	-185.49197
1009.292	-209.24366
1009.459	109.42614
1009.627	93.92869
1009.794	-250.08743
1009.961	-223.7512
1010.128	195.15939
1010.295	109.46783
1010.462	-137.94747
1010.629	-299.15581
1010.796	103.99289
1010.963	18.3511
1011.13	-212.6457
1011.297	-15.5098
1011.464	114.15841
1011.631	201.35927
1011.798	-245.00501
1011.965	-138.84736
1012.132	161.23544
1012.299	123.00373
1012.466	-170.47968
1012.633	-228.64772
1012.799	166.043
1012.966	84.70699
1013.133	-224.45443
1013.3	-198.88128
1013.467	158.90565
1013.633	244.63189
1013.8	-172.99349
1013.967	-109.52799
1014.134	280.66255
1014.3	211.69749
1014.467	-217.26234
1014.634	-147.94896
1014.8	357.10566
1014.967	45.32475
1015.134	-241.10039
1015.3	-249.16732
1015.467	251.86902
1015.633	130.99788
1015.8	-142.28277
1015.966	-165.41767
1016.133	201.51133
1016.3	117.24251
1016.466	-264.05053
1016.632	-156.81678
1016.799	64.5362
1016.965	133.28235
1017.132	-84.3972
1017.298	-200.18278
1017.465	103.93697
1017.631	101.49759
1017.797	-211.37522
1017.964	-227.19498
1018.13	129.64061
1018.296	143.1936
1018.463	-202.48006
1018.629	-203.49611
1018.795	146.63379
1018.961	34.12158
1019.128	-204.5516
1019.294	-178.5469
1019.46	93.81291
1019.626	74.62007
1019.792	-200.27007
1019.959	-252.20355
1020.125	-15.5098
1020.291	154.45259
1020.457	-222.9942
1020.623	-203.50415
1020.789	96.07038
1020.955	111.77888
1021.121	-268.49218
1021.287	-22.25884
1021.453	128.71943
1021.619	115.15541
1021.785	-199.11721
1021.951	-176.54868
1022.117	90.49665
1022.283	29.57773
1022.449	-201.3114
1022.615	-195.72213
1022.781	611.63631
1022.946	65.60429
1023.112	-196.68776
1023.278	-212.46107
1023.444	76.92586
1023.61	174.62937
1023.775	-278.46107
1023.941	-247.86085
1024.107	114.23776
1024.273	55.52444
1024.438	-297.22035
1024.604	-234.04099
1024.77	2768.12555
1024.935	75.75076
1025.101	-216.23664
1025.267	-162.61128
1025.432	134.25253
1025.598	78.19038
1025.763	-180.90347
1025.929	-236.79345
1026.095	53.21242
1026.26	161.34017
1026.426	-225.41363
1026.591	-129.84919
1026.757	176.79193
1026.922	262.98259
1027.087	-192.2888
1027.253	-221.7859
1027.418	94.93798
1027.584	59.97186
1027.749	-226.47107
1027.914	-268.17218
1028.08	61.20276
1028.245	106.27615
1028.41	-257.028
1028.576	-255.15817
1028.741	163.41814
1028.906	14.93918
1029.072	-224.23024
1029.237	-221.72437
1029.402	94.90158
1029.567	39.66332
1029.732	-233.39496
1029.898	-204.90016
1030.063	98.24517
1030.228	46.55375
1030.393	-183.24089
1030.558	-244.39847
1030.723	63.41015
1030.888	92.72345
1031.053	-258.56941
1031.218	-251.73697
1031.383	79.09822
1031.548	121.82438
1031.713	-211.89642
1031.878	-294.59505
1032.043	0.28217
1032.208	71.18528
1032.373	-233.39496
1032.538	-244.13796
1032.703	87.03155
1032.868	92.54621
1033.033	-258.30047
1033.198	-225.52175
1033.362	135.54705
1033.527	117.4844
1033.692	-220.47391
1033.857	-191.15221
1034.021	189.40741
1034.186	207.4516
1034.351	-236.49209
1034.516	-243.52201
1034.68	73.51767
1034.845	57.78814
1035.01	-254.41788
1035.174	-250.38611
1035.339	32.95741
1035.504	124.20803
1035.668	-22.28893
1035.833	-274.14645
1035.997	86.0624
1036.162	112.91161
1036.326	-275.27503
1036.491	-268.90129
1036.655	112.94189
1036.82	56.60941
1036.984	-219.16476
1037.149	-219.17338
1037.313	209.37694
1037.478	46.4927
1037.642	-260.1655
1037.807	-295.92443
1037.971	96.06669
1038.135	83.60844
1038.3	-234.21692
1038.464	-113.91733
1038.628	123.06019
1038.792	127.45872
1038.957	-258.38302
1039.121	-271.4792
1039.285	102.8083
1039.449	35.22444
1039.614	-234.19836
1039.778	-235.65436
1039.942	37.44432
1040.106	112.89433
1040.27	-239.11956
1040.434	-243.23192
1040.599	175.93842
1040.763	93.80571
1040.927	-260.41321
1041.091	-214.1658
1041.255	132.12222
1041.419	56.6704
1041.583	-257.96186
1041.747	-220.61349
1041.911	126.40801
1042.075	18.32411
1042.239	-306.13304
1042.403	-292.83888
1042.567	149.87139
1042.731	27.28247
1042.894	-244.7195
1043.058	-215.91985
1043.222	44.29488
1043.386	115.11142
1043.55	-224.03422
1043.714	-236.69899
1043.877	124.24139
1044.041	160.16181
1044.205	-269.48138
1044.369	-159.39661
1044.532	79.20449
1044.696	85.79508
1044.86	-258.40368
1045.023	-237.34822
1045.187	1.40914
1045.351	66.77278
1045.514	-221.00933
1045.678	-207.86902
1045.841	38.56678
