Data from mildly cloudy_Subt2__10__14-22-21-006.txt Node

Date: Mon Oct 13 14:22:21 EDT 2025
User: brett
Spectrometer: USB4F03499
Trigger mode: 4
Integration Time (sec): 4.400000E-4
Scans to average: 1
Electric dark correction enabled: true
Nonlinearity correction enabled: true
Boxcar width: 0
XAxis mode: Wavelengths
Number of Pixels in Spectrum: 3648
>>>>>Begin Spectral Data<<<<<
345.386	51.2714
345.605	51.2714
345.824	51.2714
346.044	62.61414
346.263	29.82496
346.482	-37.87666
346.701	-18.71747
346.92	19.64209
347.139	20.78392
347.358	15.1304
347.577	-23.21876
347.796	18.52828
348.015	45.62595
348.234	-2.91432
348.453	-13.06769
348.672	-30.01721
348.891	6.11636
349.11	2.72709
349.329	-15.32872
349.548	49.0231
349.767	16.26662
349.986	0.47021
350.205	-27.71914
350.424	-13.08749
350.643	83.96927
350.862	45.62949
351.08	27.5413
351.299	-19.8312
351.518	-33.3976
351.737	18.53619
351.956	56.82917
352.174	-14.1972
352.393	8.37568
352.612	-2.91454
352.831	29.79494
353.049	2.72783
353.268	-9.69358
353.487	11.75515
353.705	2.72635
353.924	-16.44355
354.143	2.72762
354.361	21.91798
354.58	3.85502
354.798	42.26639
355.017	-19.82508
355.236	33.22171
355.454	20.77909
355.673	12.8894
355.891	-23.22954
356.11	-18.70588
356.328	10.62604
356.547	-35.65824
356.765	-6.3037
356.984	-26.62503
357.202	47.88931
357.42	33.20365
357.639	38.83454
357.857	3.85427
358.076	6.11185
358.294	-11.93977
358.512	-24.35009
358.731	-32.23434
358.949	-19.83273
359.167	-0.65812
359.386	4.98284
359.604	-0.65792
359.822	-11.95042
360.04	10.62522
360.259	-36.768
360.477	44.48067
360.695	-6.2976
360.913	-32.24804
361.131	-2.91331
361.35	-4.0444
361.568	6.11541
361.786	17.38721
362.004	0.46982
362.222	47.87073
362.44	-24.34726
362.658	69.29911
362.876	-27.72876
363.094	-31.13973
363.312	-20.98626
363.53	30.94017
363.749	-33.36787
363.967	-35.64302
364.184	-17.59595
364.402	6.11351
364.62	24.16907
364.838	-16.43722
365.056	48.9813
365.274	15.12982
365.492	-7.42969
365.71	17.40607
365.928	-28.86285
366.146	26.44458
366.364	-18.69507
366.581	-22.10655
366.799	1.5983
367.017	-11.93746
367.235	-25.47483
367.453	10.62111
367.67	-5.17397
367.888	25.29416
368.106	42.21392
368.323	-10.81014
368.541	16.27292
368.759	-1.78678
368.977	35.44464
369.194	-35.60725
369.412	32.083
369.629	36.61475
369.847	-8.55345
370.065	30.93778
370.282	18.52541
370.5	-24.36992
370.717	-31.12886
370.935	-4.04393
371.152	29.82264
371.37	-28.88074
371.588	-31.12284
371.805	41.10401
372.022	-19.84117
372.24	43.36649
372.457	-2.91342
372.675	0.47022
372.892	14.02467
373.11	24.17469
373.327	3.85666
373.544	36.59057
373.762	-0.65777
373.979	-10.80347
374.196	51.23963
374.414	36.60478
374.631	2.72698
374.848	-4.04833
375.066	-34.50981
375.283	39.94052
375.5	-4.04205
375.717	35.42003
375.935	35.45974
376.152	4.98284
376.369	73.78682
376.586	-46.95211
376.803	-23.21159
377.02	6.11564
377.238	-27.75024
377.455	23.05531
377.672	-10.81181
377.889	55.79356
378.106	9.49743
378.323	35.47489
378.54	-7.43257
378.757	-41.28812
378.974	-7.43257
379.191	-32.25678
379.408	3.85412
379.625	41.10401
379.842	28.6787
380.059	10.62934
380.276	25.31281
380.493	-20.97811
380.71	-2.91601
380.927	29.82496
381.143	-6.30125
381.36	11.76291
381.577	-29.99742
381.794	-6.30052
382.011	50.08723
382.228	-24.35103
382.444	-26.57777
382.661	-24.3832
382.878	34.31709
383.095	3.85606
383.311	49.00407
383.528	-4.04409
383.745	36.56932
383.962	2.72698
384.178	-61.59828
384.395	11.75561
384.612	25.32266
384.828	-46.89397
385.045	-23.23675
385.261	2.72593
385.478	50.14346
385.695	-18.71747
385.911	-28.86843
386.128	-1.78595
386.344	44.543
386.561	50.15125
386.777	-19.83963
386.994	-59.32516
387.21	-31.11923
387.427	19.64512
387.643	15.15329
387.86	-5.17077
388.076	-5.17177
388.292	-13.07325
388.509	-0.65866
388.725	35.47076
388.942	33.20751
389.158	12.89692
389.374	-34.52854
389.591	-19.83733
389.807	-28.87962
390.023	3.85086
390.239	-7.41995
390.456	4.98457
390.672	-13.07123
390.888	23.03743
391.104	9.49633
391.321	-30.00207
391.537	11.76383
391.753	-5.17097
391.969	16.2641
392.185	3.85801
392.401	-13.06415
392.618	-60.48735
392.834	28.6787
393.05	34.31311
393.266	20.78151
393.482	-4.04299
393.698	30.94977
393.914	29.80185
394.13	-27.75132
394.346	-44.65924
394.562	-1.78582
394.778	8.37178
394.994	15.14681
395.21	-39.00526
395.426	9.49633
395.642	6.11375
395.858	24.17469
396.073	61.41852
396.289	7.23363
396.505	-22.10398
396.721	-10.81768
396.937	-14.19501
397.153	57.99322
397.369	-31.14336
397.584	17.42576
397.8	-23.22414
398.016	30.92821
398.232	19.64968
398.447	-32.23434
398.663	-49.19886
398.879	-7.42681
399.094	6.1128
399.31	-28.86061
399.526	12.87345
399.741	-1.78734
399.957	-15.3311
400.173	53.54587
400.388	7.24005
400.604	24.16439
400.82	-14.20105
401.035	39.96987
401.251	-30.00556
401.466	-18.7262
401.682	27.56157
401.897	-11.93378
402.113	-33.34858
402.328	8.37895
402.544	-17.56942
402.759	9.49927
402.974	14.01432
403.19	-15.3222
403.405	35.42685
403.621	33.20493
403.836	17.39999
404.051	12.87891
404.267	18.53187
404.482	-0.65835
404.697	27.55409
404.913	4.98689
405.128	33.19078
405.343	-13.07274
405.559	15.14387
405.774	30.9294
405.989	-28.84392
406.204	60.2537
406.42	14.01323
406.635	43.3648
406.85	-4.03987
407.065	6.10925
407.28	16.27671
407.495	11.75424
407.71	8.36756
407.926	27.54876
408.141	49.00027
408.356	9.49927
408.571	45.61356
408.786	25.30004
409.001	11.74698
409.216	-0.65795
409.431	44.48412
409.646	-9.68756
409.861	53.50226
410.076	-26.60338
410.291	-19.84886
410.506	51.23764
410.721	-16.45881
410.936	20.78151
411.15	-19.82814
411.365	2.72635
411.58	2.72741
411.795	-43.53522
412.01	17.40269
412.225	-1.78568
412.439	-4.04299
412.654	17.38385
412.869	0.47002
413.084	12.8819
413.299	36.58347
413.513	23.058
413.728	11.75242
413.943	-8.55577
414.157	16.2685
414.372	-25.47778
414.587	-14.2005
414.801	-17.57619
415.016	28.69315
415.231	49.00977
415.445	34.33971
415.66	8.36789
415.874	-19.82737
416.089	23.03565
416.304	69.36099
416.518	21.89848
416.733	4.98072
416.947	-5.17257
417.162	23.02675
417.376	-17.58639
417.59	-4.04346
417.805	1.59904
418.019	46.72496
418.234	30.92343
418.448	30.90555
418.663	52.36885
418.877	-24.3285
419.091	7.23865
419.306	6.11209
419.52	-9.68381
419.734	36.57215
419.949	-7.41909
420.163	46.71233
420.377	-20.96998
420.591	18.50896
420.806	45.56251
421.02	67.04761
421.234	-14.20215
421.448	-35.62235
421.663	29.84121
421.877	-19.81441
422.091	25.28927
422.305	43.3162
422.519	26.4302
422.733	26.44149
422.947	-36.75379
423.161	-25.47975
423.376	17.39999
423.59	21.88247
423.804	44.45832
424.018	45.57304
424.232	18.50326
424.446	15.12632
424.66	27.52856
424.874	21.90695
425.088	88.42808
425.302	-46.89036
425.515	-6.30223
425.729	-29.98466
425.943	62.53872
426.157	-22.11256
426.371	-28.8662
426.585	-15.31747
426.799	-43.52512
427.013	36.55943
427.226	9.49119
427.44	-13.0546
427.654	32.04577
427.868	-19.82814
428.081	26.40467
428.295	-11.94439
428.509	30.94617
428.723	6.11091
428.936	-69.40815
429.15	1.59917
429.364	39.94052
429.577	42.22209
429.791	-37.86206
430.005	1.59811
430.218	55.72665
430.432	0.47012
430.645	11.74743
430.859	73.747
431.073	-33.38724
431.286	35.45837
431.5	10.62193
431.713	1.59719
431.927	-27.74486
432.14	66.98293
432.354	-11.94393
432.567	12.8869
432.781	27.54876
432.994	8.37601
433.207	-31.10841
433.421	-33.36143
433.634	20.79764
433.848	-35.63888
434.061	42.22372
434.274	7.23726
434.488	12.88041
434.701	13.99916
434.914	12.8859
435.127	67.01651
435.341	42.22699
435.554	45.58358
435.767	56.92371
435.98	7.23754
436.194	0.46972
436.407	83.94005
436.62	48.97562
436.833	25.29514
437.046	27.55729
437.259	74.88156
437.473	16.2641
437.686	81.66833
437.899	20.78231
438.112	2.72498
438.325	27.53811
438.538	-10.81474
438.751	-30.01488
438.964	-112.16789
439.177	26.39755
439.39	-41.29934
439.603	78.35625
439.816	-0.6584
440.029	6.11375
440.242	-6.29906
440.455	2.72582
440.668	17.40066
440.881	117.77955
441.094	34.32905
441.306	69.30179
441.519	44.46691
441.732	12.88141
441.945	67.02686
442.158	41.0865
442.37	-4.04723
442.583	34.31975
442.796	28.68203
443.009	-5.17337
443.222	-4.04644
443.434	30.93538
443.647	15.13391
443.86	54.58528
444.072	20.7799
444.285	7.24426
444.498	6.11327
444.71	21.92054
444.923	52.38305
445.136	42.18948
445.348	-5.17377
445.561	57.92854
445.773	53.56673
445.986	28.68647
446.198	-10.81014
446.411	36.57215
446.623	18.50967
446.836	1.59836
447.048	1.59898
447.261	38.83454
447.473	19.63301
447.686	3.8513
447.898	-14.19336
448.11	70.40432
448.323	-54.71959
448.535	41.04848
448.748	0.4697
448.96	12.87991
449.172	56.91266
449.385	19.63301
449.597	61.39237
449.809	21.90949
450.021	48.96806
450.234	43.3564
450.446	-35.6375
450.658	6.11138
450.87	30.91269
451.083	27.54237
451.295	28.65215
451.507	-36.77655
451.719	71.53091
451.931	76.03393
452.143	30.9306
452.356	72.60988
452.568	64.76068
452.78	26.38943
452.992	-22.08432
453.204	47.82267
453.416	88.51706
453.628	74.9423
453.84	37.65028
454.052	48.96995
454.264	17.39393
454.476	-18.70878
454.688	60.21885
454.9	45.6171
455.112	16.25343
455.324	91.79872
455.536	35.46938
455.747	19.64588
455.959	21.87827
456.171	-13.0561
456.383	64.78322
456.595	91.79519
456.807	19.64133
457.018	45.57479
457.23	3.85577
457.442	30.92223
457.654	52.3466
457.865	38.81803
458.077	59.07674
458.289	38.78814
458.501	59.09037
458.712	59.11999
458.924	70.39345
459.136	2.72268
459.347	86.19934
459.559	69.2243
459.77	53.45685
459.982	65.89241
460.194	10.62275
460.405	4.97842
460.617	45.54849
460.828	20.77187
461.04	41.0469
461.251	18.49971
461.463	30.8842
461.674	69.26698
461.886	-10.80722
462.097	42.19599
462.309	17.36849
462.52	53.46302
462.731	53.47333
462.943	79.43428
463.154	122.13164
463.366	12.86306
463.577	24.15505
463.788	41.01072
464	57.93743
464.211	64.73571
464.422	89.51955
464.634	97.46077
464.845	56.81606
465.056	126.80346
465.267	1.59682
465.478	54.61055
465.69	34.30251
465.901	89.48859
466.112	100.8034
466.323	89.57131
466.534	97.45701
466.745	34.25511
466.957	106.45451
467.168	111.96516
467.379	117.64814
467.59	61.3521
467.801	21.87995
468.012	69.14478
468.223	104.16742
468.434	97.3895
468.645	107.60483
468.856	69.15799
469.067	66.98035
469.278	65.83153
469.489	64.75319
469.7	91.67902
469.911	79.36085
470.122	94.0574
470.333	142.42533
470.543	163.88521
470.754	104.07558
470.965	100.78401
471.176	160.51956
471.387	116.55945
471.598	128.7824
471.808	85.01394
472.019	89.47829
472.23	82.69591
472.441	106.32384
472.651	125.58106
472.862	126.74966
473.073	117.53569
473.283	104.11544
473.494	108.5512
473.705	151.47341
473.915	72.60988
474.126	97.32604
474.337	100.726
474.547	108.59686
474.758	117.57608
474.968	95.01185
475.179	100.726
475.389	100.61453
475.6	115.15739
475.81	110.81986
476.021	129.96005
476.231	205.22827
476.442	128.82664
476.652	154.76217
476.863	106.29541
477.073	108.52635
477.284	114.06541
477.494	155.67771
477.704	163.54147
477.915	218.7127
478.125	161.52583
478.335	199.55357
478.546	153.52161
478.756	170.38653
478.966	175.8761
479.177	173.83199
479.387	154.57352
479.597	192.72438
479.807	177.02401
480.018	234.40943
480.228	192.8487
480.438	244.40724
480.648	251.362
480.858	142.03596
481.068	208.50457
481.279	243.20493
481.489	268.91625
481.699	253.2573
481.909	250.15609
482.119	355.1635
482.329	262.10766
482.539	312.46038
482.749	263.43391
482.959	300.03041
483.169	281.98334
483.379	331.44748
483.589	301.36112
483.799	341.57787
484.009	332.98772
484.219	318.07809
484.429	322.66431
484.639	412.3917
484.849	363.98049
485.059	389.56274
485.268	308.85683
485.478	446.01823
485.688	308.00558
485.898	409.71811
486.108	400.76215
486.317	435.29136
486.527	296.60341
486.737	469.42152
486.947	451.7277
487.156	505.24263
487.366	405.68527
487.576	394.78147
487.785	409.03629
487.995	430.23565
488.205	453.15749
488.414	493.57582
488.624	452.11225
488.834	539.95552
489.043	451.99495
489.253	485.65157
489.462	475.14967
489.672	580.91908
489.882	523.05752
490.091	555.22078
490.301	575.90718
490.51	627.83516
490.72	567.34999
490.929	573.24629
491.138	580.62192
491.348	580.77035
491.557	643.00271
491.767	563.92282
491.976	626.78518
492.185	688.72758
492.395	617.7397
492.604	657.41351
492.813	694.29435
493.023	793.70233
493.232	758.22688
493.441	798.49374
493.651	807.97569
493.86	903.00961
494.069	881.49534
494.278	1039.70552
494.488	1055.94912
494.697	1124.03991
494.906	1013.3232
495.115	1189.16713
495.324	1255.98899
495.533	1400.23799
495.743	1402.03411
495.952	1616.32273
496.161	1609.86595
496.37	1752.91739
496.579	1794.78073
496.788	1990.39195
496.997	2011.34613
497.206	2187.0377
497.415	2219.0792
497.624	2540.03239
497.833	2539.43116
498.042	2789.34089
498.251	2936.05373
498.46	3222.58174
498.669	3107.7137
498.878	3327.21719
499.087	3547.33103
499.296	3813.62112
499.504	3989.89788
499.713	4198.40165
499.922	4472.59274
500.131	4751.43983
500.34	4987.58759
500.549	5282.79776
500.757	5473.26091
500.966	5779.92926
501.175	6038.54853
501.384	6372.17177
501.592	6499.51078
501.801	6909.01049
502.01	7239.00674
502.218	7599.27946
502.427	7933.52428
502.636	8158.00253
502.844	8495.4732
503.053	8906.32204
503.262	9229.27463
503.47	9489.2576
503.679	9871.15828
503.887	10353.69299
504.096	10592.66405
504.304	10953.49391
504.513	11389.33251
504.721	11698.26896
504.93	11984.29297
505.138	12376.3972
505.347	12794.33636
505.555	13031.88602
505.764	13277.43623
505.972	13629.27578
506.18	13917.38104
506.389	14282.29397
506.597	14351.29573
506.806	14970.10391
507.014	15229.55996
507.222	15292.01722
507.431	15744.76037
507.639	15852.80543
507.847	16497.37213
508.055	16468.36258
508.264	16583.91583
508.472	17016.28773
508.68	17197.04045
508.888	17495.18351
509.096	17652.97853
509.305	17727.889
509.513	17819.69766
509.721	18030.38219
509.929	18323.21802
510.137	18294.38091
510.345	18477.66603
510.553	18572.44783
510.762	18668.00676
510.97	18674.45721
511.178	18978.05304
511.386	19125.90571
511.594	19143.11664
511.802	19189.0669
512.01	19137.98945
512.218	19351.25028
512.426	19509.84048
512.634	19569.34808
512.842	19485.57894
513.049	19467.28969
513.257	19429.58748
513.465	19538.07036
513.673	19623.06827
513.881	19645.01932
514.089	19621.73121
514.297	19488.57856
514.504	19664.4243
514.712	19612.6051
514.92	19743.99527
515.128	19908.36872
515.336	19716.99317
515.543	19757.09912
515.751	19839.32298
515.959	19489.56278
516.166	19513.67049
516.374	19634.99023
516.582	19684.86302
516.789	19676.68677
516.997	19463.41743
517.205	19522.56016
517.412	19559.0542
517.62	19483.6739
517.827	19557.34897
518.035	19459.20531
518.243	19210.05968
518.45	19067.85795
518.658	19183.81113
518.865	19151.74452
519.073	19233.89438
519.28	18994.99162
519.488	19125.80806
519.695	18958.46367
519.902	18869.44868
520.11	19020.29001
520.317	19260.11034
520.525	18974.84339
520.732	18493.16968
520.939	18746.40258
521.147	18659.24454
521.354	18719.19751
521.561	18769.93636
521.769	18740.64533
521.976	18667.94652
522.183	18746.91846
522.391	18600.42507
522.598	18602.93222
522.805	18642.98409
523.012	18510.67224
523.219	18614.15269
523.427	18858.91159
523.634	18447.75619
523.841	18503.24193
524.048	18577.83163
524.255	18760.85051
524.462	18799.05217
524.669	18750.14202
524.877	18837.00928
525.084	18684.00138
525.291	18648.06131
525.498	18815.85103
525.705	18733.22247
525.912	18853.20113
526.119	18598.33224
526.326	18668.59094
526.533	18944.34212
526.74	18975.54879
526.947	18960.95635
527.153	19081.01373
527.36	18982.06244
527.567	19089.20473
527.774	18819.36942
527.981	19034.98019
528.188	18831.8596
528.395	19066.7296
528.602	18951.14343
528.808	19054.12214
529.015	18808.09617
529.222	19216.92858
529.429	18763.64929
529.635	19072.759
529.842	19021.10728
530.049	18991.54033
530.256	19005.60549
530.462	19132.06521
530.669	18946.89784
530.876	19204.74023
531.082	19208.90337
531.289	19059.03717
531.495	19230.18194
531.702	19176.62102
531.909	19057.15403
532.115	19502.5111
532.322	19111.74189
532.528	19074.05526
532.735	19269.1701
532.941	19259.75856
533.148	19200.67652
533.354	19059.66143
533.561	19283.83241
533.767	19029.58893
533.974	19092.07488
534.18	19114.12855
534.387	19158.14615
534.593	19270.81432
534.799	19202.67584
535.006	19170.10618
535.212	18969.4641
535.418	19153.08014
535.625	19238.9776
535.831	19102.81807
536.037	19093.56025
536.244	19125.64958
536.45	18898.43109
536.656	19043.19697
536.862	19263.97966
537.068	19202.90755
537.275	19069.34211
537.481	19234.25276
537.687	19255.53045
537.893	19376.81723
538.099	19261.62949
538.305	19132.0585
538.512	19147.49067
538.718	19110.83928
538.924	19102.32781
539.13	18915.06614
539.336	19134.67449
539.542	19260.91492
539.748	19169.43016
539.954	19082.72247
540.16	19241.04968
540.366	19053.47806
540.572	19096.49018
540.778	19039.12922
540.984	19176.24716
541.19	18985.40257
541.396	18827.99123
541.602	19054.57732
541.807	18895.67036
542.013	18869.64039
542.219	18846.61148
542.425	18795.75475
542.631	18911.29469
542.837	18855.19987
543.042	18824.09106
543.248	18777.42656
543.454	18639.58288
543.66	18915.00738
543.865	18647.47889
544.071	18781.09552
544.277	18620.05408
544.483	18718.58599
544.688	18784.76235
544.894	18771.10274
545.1	18768.84468
545.305	18583.51505
545.511	18473.92901
545.716	18781.96504
545.922	18500.54671
546.128	18405.6479
546.333	18607.71267
546.539	18500.20246
546.744	18634.43099
546.95	18629.10696
547.155	18431.57555
547.361	18538.47864
547.566	18258.09037
547.772	18423.6291
547.977	18491.97117
548.182	18318.57427
548.388	18289.05455
548.593	18488.74385
548.799	18549.69222
549.004	18421.81357
549.209	18525.55024
549.415	18561.3172
549.62	18175.05525
549.825	18419.72436
550.031	18242.14446
550.236	18346.70132
550.441	18414.30625
550.646	18328.60467
550.852	18532.13261
551.057	18083.38599
551.262	18467.36504
551.467	18411.99056
551.672	18222.98651
551.878	18395.52979
552.083	18213.91057
552.288	18074.04995
552.493	18158.6369
552.698	18083.1167
552.903	18213.21001
553.108	18588.73018
553.313	18323.92871
553.518	18186.33728
553.723	18260.33208
553.928	18367.39077
554.133	18293.99161
554.338	18247.87854
554.543	18275.75316
554.748	18140.7175
554.953	18195.97933
555.158	18175.82812
555.363	18286.7799
555.568	18044.52944
555.773	18290.99507
555.978	18259.18569
556.182	18078.57513
556.387	18153.20498
556.592	17959.67392
556.797	18465.14932
557.002	18160.63166
557.206	18200.41818
557.411	18044.39728
557.616	17974.16901
557.821	18248.69489
558.025	18101.89716
558.23	18198.23643
558.435	18004.2786
558.64	17880.73135
558.844	18075.04858
559.049	17987.21798
559.253	18165.01904
559.458	18112.04878
559.663	17967.24749
559.867	17819.12801
560.072	17798.51281
560.276	17842.57008
560.481	17829.63218
560.685	17844.20298
560.89	17799.72987
561.094	17623.25348
561.299	17821.42848
561.503	17566.48693
561.708	17788.71136
561.912	17614.07379
562.117	17597.78121
562.321	17467.49874
562.525	17757.79549
562.73	17633.93079
562.934	17646.01466
563.139	17524.48072
563.343	17390.95912
563.547	17427.67317
563.752	17637.17825
563.956	17331.95453
564.16	17505.12502
564.364	17437.42014
564.569	17285.87551
564.773	17388.70377
564.977	17214.65841
565.181	17373.81933
565.385	17280.67209
565.59	17300.67796
565.794	17203.14413
565.998	17059.55222
566.202	17097.14268
566.406	17110.22753
566.61	17219.20189
566.814	17117.51847
567.018	17291.09313
567.222	17245.01289
567.426	16978.5469
567.63	16918.98253
567.834	16995.83121
568.038	16940.64552
568.242	16811.50399
568.446	16891.08056
568.65	16971.48103
568.854	16841.20227
569.058	16801.10918
569.262	16659.37384
569.466	16905.46451
569.67	16694.3853
569.874	16674.75117
570.078	16754.35146
570.281	16718.94105
570.485	16722.97007
570.689	16749.14939
570.893	16355.96158
571.097	16482.50467
571.3	16499.37741
571.504	16481.56449
571.708	16423.27633
571.912	16632.36417
572.115	16437.10023
572.319	16270.70271
572.523	16421.9439
572.726	16298.71802
572.93	16266.85693
573.133	16259.24236
573.337	16197.2674
573.541	16083.82433
573.744	16126.13459
573.948	16003.7063
574.151	16191.8637
574.355	16109.3917
574.558	16035.0603
574.762	16057.12525
574.965	15857.789
575.169	16188.4643
575.372	16064.30717
575.576	16080.42923
575.779	16042.04698
575.983	15793.10923
576.186	15736.12936
576.389	15945.78695
576.593	15837.53134
576.796	15700.80238
577	15682.0345
577.203	15777.30342
577.406	15717.53509
577.609	15615.41591
577.813	15628.63187
578.016	15556.33917
578.219	15578.1744
578.423	15668.33307
578.626	15566.02127
578.829	15565.75532
579.032	15603.14604
579.235	15652.66356
579.438	15591.29569
579.642	15495.58622
579.845	15275.22761
580.048	15366.08806
580.251	15241.64637
580.454	15425.64662
580.657	15313.71345
580.86	15445.33799
581.063	15071.64187
581.266	15284.17789
581.469	15230.03145
581.672	15328.24799
581.875	15336.56489
582.078	15184.30407
582.281	15221.33034
582.484	15017.89467
582.687	15342.45097
582.89	15291.61656
583.093	15118.93821
583.296	15025.29143
583.499	15304.95083
583.702	15219.2155
583.904	14950.87805
584.107	15108.08217
584.31	14929.05229
584.513	15172.43309
584.716	15271.50252
584.918	15037.66949
585.121	15083.50515
585.324	15122.20664
585.527	15074.09157
585.729	15172.75331
585.932	15036.20099
586.135	15030.56929
586.337	14931.31099
586.54	15170.16584
586.743	15086.35832
586.945	14855.55629
587.148	14974.90067
587.35	15159.8647
587.553	14822.05457
587.755	15030.13261
587.958	15090.80602
588.161	14930.71037
588.363	14957.45009
588.566	14975.34915
588.768	14979.38103
588.971	15231.12552
589.173	14709.91382
589.375	14947.76575
589.578	14949.81833
589.78	14947.23248
589.983	14817.94061
590.185	14816.08483
590.387	14633.74945
590.59	14871.22119
590.792	14449.1626
590.994	14554.40083
591.197	14567.11751
591.399	14351.78313
591.601	14475.36367
591.803	14355.10231
592.006	14373.79392
592.208	14428.89043
592.41	14299.06266
592.612	14222.87363
592.815	14191.54973
593.017	14199.50309
593.219	14069.68239
593.421	14053.03101
593.623	13966.64118
593.825	14014.249
594.027	13888.42471
594.229	14155.48404
594.432	13834.26767
594.634	13832.82419
594.836	13810.51245
595.038	13857.50267
595.24	13628.22973
595.442	13726.41143
595.644	13669.7446
595.846	13716.79527
596.048	13501.54903
596.249	13428.77427
596.451	13644.66037
596.653	13512.25707
596.855	13330.98532
597.057	13430.03236
597.259	13364.79199
597.461	13340.11159
597.663	13239.64906
597.864	13411.39049
598.066	13373.09855
598.268	13303.34689
598.47	13234.95408
598.671	13269.76096
598.873	13116.69484
599.075	13240.82444
599.277	13204.89006
599.478	13108.53862
599.68	13204.5823
599.882	13287.38929
600.083	13077.51124
600.285	13219.05086
600.487	12947.31746
600.688	13041.4943
600.89	13154.37887
601.091	12985.1258
601.293	13022.17746
601.494	13071.97278
601.696	13071.11635
601.898	12915.53489
602.099	13043.81504
602.301	12985.39809
602.502	12935.07631
602.703	13034.09247
602.905	12839.3625
603.106	13102.88601
603.308	12850.51236
603.509	13002.68403
603.711	12787.15694
603.912	13006.65556
604.113	12849.92136
604.315	12863.11116
604.516	12639.66446
604.717	12754.48584
604.919	12854.02759
605.12	12773.07636
605.321	12807.06663
605.522	12818.84249
605.724	12703.28631
605.925	12655.00137
606.126	12587.95811
606.327	12757.97992
606.528	12766.35284
606.729	12684.60212
606.931	12863.78769
607.132	12872.54919
607.333	12524.84702
607.534	12785.50084
607.735	12685.32251
607.936	12802.45407
608.137	12715.64497
608.338	12762.92464
608.539	12667.85669
608.74	12755.49238
608.941	12657.4202
609.142	12556.01608
609.343	12599.03271
609.544	12766.87899
609.745	12602.12493
609.946	12736.93825
610.147	12637.36784
610.348	12614.29783
610.549	12512.70814
610.75	12736.93069
610.95	12575.55945
611.151	12610.01749
611.352	12683.60953
611.553	12538.93749
611.754	12562.15318
611.954	12665.02301
612.155	12537.9265
612.356	12516.36391
612.557	12480.55744
612.757	12619.5831
612.958	12436.56533
613.159	12440.48687
613.359	12447.08923
613.56	12529.71549
613.761	12478.60397
613.961	12631.13956
614.162	12362.58646
614.362	12450.10387
614.563	12517.04344
614.764	12501.52017
614.964	12422.00703
615.165	12306.5681
615.365	12388.50563
615.566	12336.60852
615.766	12209.87245
615.967	12428.08178
616.167	12163.30228
616.368	12282.75364
616.568	12338.5911
616.768	12379.00653
616.969	12276.17637
617.169	12325.92593
617.37	12169.91286
617.57	12273.51092
617.77	12127.51428
617.971	12149.8575
618.171	12153.62158
618.371	12193.85546
618.571	11935.63485
618.772	12400.44853
618.972	12124.81823
619.172	12065.56389
619.372	11961.16358
619.573	12025.33544
619.773	12063.74723
619.973	12034.43972
620.173	12011.75258
620.373	11996.35641
620.573	11819.92
620.774	11980.59647
620.974	11974.82168
621.174	11880.94724
621.374	11871.16364
621.574	11991.87801
621.774	11793.85611
621.974	11794.34356
622.174	11822.55872
622.374	11835.86647
622.574	11821.74121
622.774	11685.6748
622.974	11679.53235
623.174	11846.05408
623.374	11802.17438
623.574	11684.61157
623.774	11659.78929
623.973	11780.21593
624.173	11923.05145
624.373	11771.17908
624.573	11638.81716
624.773	11661.70854
624.973	11702.88823
625.172	11636.31007
625.372	11590.11343
625.572	11626.81083
625.772	11618.03978
625.971	11559.77829
626.171	11672.33424
626.371	11749.0508
626.57	11485.5318
626.77	11512.3429
626.97	11613.47303
627.169	11572.99726
627.369	11602.426
627.569	11634.682
627.768	11305.65104
627.968	11473.69919
628.167	11442.30608
628.367	11442.99283
628.566	11391.28521
628.766	11327.05863
628.965	11258.73392
629.165	11409.38325
629.364	11463.78155
629.564	11284.07427
629.763	11259.17816
629.963	11216.3054
630.162	11105.40594
630.362	11238.56355
630.561	11233.50549
630.76	11145.17109
630.96	11119.32007
631.159	11271.62615
631.358	11153.50285
631.558	11064.74984
631.757	10989.88297
631.956	11137.06595
632.155	10913.99341
632.355	10882.56501
632.554	10852.40397
632.753	10797.04902
632.952	10932.36896
633.152	10782.54949
633.351	10763.13017
633.55	10918.92529
633.749	10874.66196
633.948	10923.56017
634.147	10734.53798
634.346	10741.31464
634.545	10606.03637
634.744	10632.26518
634.944	10679.9619
635.143	10641.11686
635.342	10651.96154
635.541	10582.41191
635.74	10549.45716
635.939	10647.51155
636.138	10599.02438
636.336	10566.19831
636.535	10466.69281
636.734	10596.15863
636.933	10703.72561
637.132	10601.0831
637.331	10430.32477
637.53	10505.47346
637.729	10410.85403
637.928	10585.35461
638.126	10488.96747
638.325	10378.23662
638.524	10478.93417
638.723	10419.1455
638.921	10295.54396
639.12	10347.66121
639.319	10301.93764
639.518	10458.39677
639.716	10353.30268
639.915	10335.35511
640.114	10589.43185
640.312	10438.24167
640.511	10241.6498
640.71	10516.8898
640.908	10378.40342
641.107	10297.34963
641.305	10307.23892
641.504	10466.21991
641.702	10149.8649
641.901	10288.96559
642.099	10272.52936
642.298	10397.00307
642.496	10310.82779
642.695	10244.45237
642.893	10132.79501
643.092	10374.98645
643.29	10288.08774
643.489	10237.58491
643.687	10153.77736
643.885	10134.2689
644.084	10193.26705
644.282	10163.3409
644.48	10191.79062
644.679	10231.18738
644.877	10080.7933
645.075	10172.4008
645.274	10194.22105
645.472	10142.73258
645.67	10123.3476
645.868	10086.47283
646.067	10086.38162
646.265	10073.98642
646.463	10046.81754
646.661	10055.8211
646.859	9978.61834
647.057	9986.02906
647.256	10002.93881
647.454	10110.69025
647.652	10130.0602
647.85	10103.83066
648.048	10048.97586
648.246	10072.39892
648.444	9809.51301
648.642	9866.12301
648.84	9768.67378
649.038	9767.62318
649.236	9810.9079
649.434	9963.91209
649.632	9697.96001
649.83	9824.66736
650.028	9518.48476
650.226	9742.33701
650.423	9691.11924
650.621	9604.88507
650.819	9534.72882
651.017	9515.64054
651.215	9585.16102
651.413	9684.88344
651.61	9595.01968
651.808	9411.31015
652.006	9378.33495
652.204	9514.98512
652.401	9559.36319
652.599	9447.74767
652.797	9367.37205
652.995	9288.60209
653.192	9201.88766
653.39	9423.80315
653.588	9393.62411
653.785	9252.64772
653.983	9277.19051
654.18	9249.12955
654.378	9166.292
654.576	9289.5225
654.773	9230.90562
654.971	9174.04689
655.168	9106.7646
655.366	9340.94378
655.563	9113.17908
655.761	9197.48973
655.958	9050.40321
656.156	9147.40653
656.353	8998.9923
656.55	9049.31472
656.748	9004.36237
656.945	9040.52248
657.143	8999.36201
657.34	8937.78288
657.537	8834.37382
657.735	8774.8049
657.932	8735.42243
658.129	8821.22246
658.326	8741.54044
658.524	8681.20247
658.721	8594.10876
658.918	8730.36974
659.115	8525.42053
659.313	8620.33764
659.51	8435.07597
659.707	8625.67167
659.904	8385.52373
660.101	8473.1862
660.298	8602.05885
660.496	8440.29144
660.693	8331.79226
660.89	8356.95642
661.087	8304.14574
661.284	8344.73772
661.481	8343.93026
661.678	8473.1608
661.875	8393.24435
662.072	8311.02396
662.269	8237.58138
662.466	8429.13656
662.663	8228.73702
662.86	8197.33118
663.057	8273.13023
663.254	8310.35135
663.45	8281.85992
663.647	8224.60631
663.844	8157.35405
664.041	8100.73576
664.238	8213.11999
664.435	8090.48453
664.631	8103.23919
664.828	8171.81829
665.025	8147.81065
665.222	8012.19553
665.419	8209.59719
665.615	8098.30934
665.812	8058.30339
666.009	8151.59465
666.205	8089.30703
666.402	8100.46682
666.599	7976.56514
666.795	7981.86494
666.992	8038.68299
667.188	8225.72971
667.385	8115.04648
667.582	8223.9302
667.778	8086.10207
667.975	8166.14167
668.171	8169.29595
668.368	8148.5929
668.564	8054.65627
668.761	8165.90718
668.957	8142.48978
669.154	8124.40467
669.35	7974.43283
669.547	8047.23924
669.743	8083.72103
669.939	8212.26224
670.136	8160.28118
670.332	8061.88611
670.528	7995.53507
670.725	8127.29849
670.921	8034.56774
671.117	8020.49881
671.314	8016.99566
671.51	8061.57488
671.706	7959.3134
671.902	7927.64212
672.099	8015.30928
672.295	7915.83103
672.491	7968.12957
672.687	8023.80332
672.883	7895.3826
673.08	7925.78925
673.276	8005.36116
673.472	7865.38674
673.668	7886.55355
673.864	7952.66458
674.06	7736.34962
674.256	7867.97137
674.452	7823.81444
674.648	7887.21694
674.844	7875.80132
675.04	7921.40285
675.236	7839.34946
675.432	7770.27494
675.628	7623.31433
675.824	7705.72684
676.02	7750.82781
676.216	7737.74335
676.412	7678.48711
676.608	7573.90547
676.804	7674.66221
676.999	7746.25053
677.195	7670.28267
677.391	7620.94507
677.587	7642.98405
677.783	7746.92366
677.978	7661.82031
678.174	7716.48619
678.37	7577.93954
678.566	7701.67988
678.761	7560.41407
678.957	7620.11421
679.153	7604.74675
679.348	7673.17827
679.544	7554.27686
679.74	7544.61868
679.935	7414.02917
680.131	7589.71964
680.327	7633.3019
680.522	7435.02696
680.718	7452.62096
680.913	7590.64333
681.109	7423.8114
681.304	7485.13011
681.5	7521.92394
681.695	7358.46268
681.891	7382.53659
682.086	7428.73851
682.282	7269.42969
682.477	7268.71101
682.672	7388.64025
682.868	7437.20644
683.063	7258.06076
683.259	7421.01181
683.454	7295.33905
683.649	7302.97718
683.845	7154.9671
684.04	7396.83035
684.235	7371.36105
684.43	7261.791
684.626	7221.60698
684.821	7337.51467
685.016	7240.4808
685.211	7187.16666
685.407	7116.37143
685.602	7107.32516
685.797	7239.53881
685.992	7187.12716
686.187	7154.43143
686.382	7177.35755
686.577	7052.66823
686.773	7266.45909
686.968	7038.89892
687.163	7113.43886
687.358	7076.8336
687.553	7070.16512
687.748	6970.06597
687.943	7052.24285
688.138	6867.36098
688.333	7052.24285
688.528	6967.45357
688.723	6741.18837
688.918	6986.18822
689.112	6842.52105
689.307	6653.11629
689.502	6629.14872
689.697	6701.52475
689.892	6710.76856
690.087	6553.12654
690.282	6555.48634
690.476	6493.89057
690.671	6454.64666
690.866	6482.71992
691.061	6404.52707
691.255	6524.56317
691.45	6543.59502
691.645	6402.27688
691.84	6261.64724
692.034	6234.90847
692.229	6229.28374
692.424	6179.95324
692.618	6260.39112
692.813	6094.92466
693.007	6212.35042
693.202	6090.36189
693.397	6146.02084
693.591	6063.35813
693.786	6027.92486
693.98	5953.87763
694.175	6123.13152
694.369	5804.90628
694.564	5984.28064
694.758	5899.20184
694.953	5877.61581
695.147	5829.41487
695.342	5805.85009
695.536	5802.89142
695.73	5849.39159
695.925	5762.98227
696.119	5793.13294
696.313	5607.76011
696.508	5674.42404
696.702	5700.40055
696.896	5757.57499
697.091	5692.66366
697.285	5663.18243
697.479	5645.49195
697.673	5692.37763
697.868	5604.38201
698.062	5740.52942
698.256	5572.8028
698.45	5690.16654
698.644	5612.31494
698.839	5699.19146
699.033	5538.3104
699.227	5771.10302
699.421	5673.19566
699.615	5648.04003
699.809	5671.17913
700.003	5808.02871
700.197	5675.02464
700.391	5799.56971
700.585	5632.54071
700.779	5700.6359
700.973	5607.04554
701.167	5723.43185
701.361	5623.46024
701.555	5693.91247
701.749	5568.9481
701.943	5697.85914
702.137	5653.50734
702.331	5515.08682
702.525	5575.05772
702.718	5687.97714
702.912	5553.3596
703.106	5621.40579
703.3	5556.79781
703.494	5570.76444
703.687	5511.99838
703.881	5608.42337
704.075	5510.75069
704.269	5611.90883
704.462	5468.80469
704.656	5587.49146
704.85	5503.38518
705.043	5602.43845
705.237	5504.87153
705.431	5562.13561
705.624	5525.18375
705.818	5581.71004
706.012	5569.73211
706.205	5536.88433
706.399	5369.11974
706.592	5554.7093
706.786	5432.74755
706.979	5478.43166
707.173	5306.46175
707.366	5453.35764
707.56	5388.66104
707.753	5372.73962
707.947	5483.30288
708.14	5493.77186
708.333	5300.31033
708.527	5381.63335
708.72	5177.30903
708.914	5319.76225
709.107	5239.18985
709.3	5356.58832
709.494	5232.76317
709.687	5375.58482
709.88	5304.74379
710.073	5268.77213
710.267	5364.91645
710.46	5317.93631
710.653	5270.62246
710.846	5292.87585
711.04	5224.62464
711.233	5280.42184
711.426	5256.32914
711.619	5248.15571
711.812	5220.19176
712.005	5148.41127
712.198	5178.14845
712.391	5185.50134
712.585	5192.68092
712.778	5155.574
712.971	5195.88764
713.164	5156.8891
713.357	5264.35798
713.55	5133.85803
713.743	5126.87906
713.936	5248.10897
714.129	5153.48342
714.322	5215.04519
714.514	5113.26438
714.707	5188.39529
714.9	5134.31873
715.093	5163.33302
715.286	5149.51913
715.479	5074.73715
715.672	5114.37189
715.864	5114.60165
716.057	5037.17201
716.25	5055.56715
716.443	5031.88696
716.636	5000.46462
716.828	5073.09575
717.021	5100.37702
717.214	5099.18686
717.406	5124.1624
717.599	4925.34808
717.792	4973.78448
717.984	4946.53894
718.177	5016.45188
718.37	4928.93876
718.562	5042.08604
718.755	4924.20491
718.947	4882.23255
719.14	4779.43446
719.333	4830.06603
719.525	4682.39928
719.718	4802.78827
719.91	4628.41777
720.103	4773.24128
720.295	4571.94746
720.487	4650.87789
720.68	4573.00581
720.872	4609.42118
721.065	4415.86731
721.257	4511.25572
721.449	4427.59777
721.642	4421.30467
721.834	4321.98882
722.026	4351.19768
722.219	4212.56559
722.411	4269.0194
722.603	4083.8031
722.796	4173.43576
722.988	4186.80014
723.18	4131.50092
723.372	3970.90469
723.565	4171.19352
723.757	3912.23604
723.949	4049.64165
724.141	3931.67503
724.333	4032.9687
724.525	3821.52203
724.717	4030.00212
724.91	3902.34866
725.102	3847.40675
725.294	3776.69405
725.486	3945.80556
725.678	3801.75105
725.87	3762.21093
726.062	3764.20548
726.254	3839.21281
726.446	3662.10165
726.638	3683.32097
726.83	3580.40789
727.022	3618.43566
727.213	3618.49953
727.405	3679.89799
727.597	3567.53288
727.789	3644.04431
727.981	3611.51565
728.173	3618.95782
728.365	3525.13857
728.556	3544.50547
728.748	3604.75885
728.94	3623.13603
729.132	3544.52802
729.324	3542.06136
729.515	3476.39778
729.707	3533.41857
729.899	3471.9644
730.09	3503.32022
730.282	3442.86878
730.474	3600.12815
730.665	3436.55973
730.857	3530.68271
731.049	3524.95951
731.24	3560.1333
731.432	3491.3498
731.623	3571.20581
731.815	3466.52271
732.006	3553.06481
732.198	3448.826
732.389	3481.77332
732.581	3399.12932
732.772	3479.58595
732.964	3378.26663
733.155	3440.68673
733.347	3447.55472
733.538	3398.48586
733.729	3383.13089
733.921	3506.04222
734.112	3380.00279
734.304	3479.94825
734.495	3290.46649
734.686	3445.37692
734.877	3356.1087
735.069	3407.35714
735.26	3268.91824
735.451	3380.01432
735.643	3351.7566
735.834	3448.40495
736.025	3316.70961
736.216	3315.16566
736.407	3290.09257
736.599	3393.94308
736.79	3357.45356
736.981	3484.1862
737.172	3376.77596
737.363	3443.30266
737.554	3377.56245
737.745	3476.227
737.936	3452.07241
738.127	3599.48341
738.318	3407.66199
738.509	3470.15483
738.7	3466.57886
738.891	3538.11228
739.082	3464.5626
739.273	3483.8768
739.464	3416.13415
739.655	3530.58849
739.846	3543.19894
740.037	3492.12339
740.228	3435.8213
740.419	3531.91004
740.609	3493.98274
740.8	3571.10233
740.991	3455.68724
741.182	3613.12148
741.373	3403.54389
741.563	3580.52115
741.754	3516.2892
741.945	3595.44488
742.136	3537.74103
742.326	3526.45659
742.517	3527.29777
742.708	3607.57307
742.898	3527.58157
743.089	3568.95672
743.28	3501.06469
743.47	3424.66098
743.661	3482.31932
743.851	3548.08818
744.042	3428.96097
744.233	3621.27488
744.423	3364.47732
744.614	3617.48904
744.804	3453.08167
744.995	3523.46337
745.185	3219.1714
745.376	3455.09994
745.566	3371.82885
745.756	3582.67272
745.947	3389.30736
746.137	3448.77717
746.328	3416.5938
746.518	3475.16418
746.708	3447.8826
746.899	3568.66507
747.089	3439.0643
747.279	3486.00644
747.47	3355.01359
747.66	3433.93365
747.85	3350.17534
748.04	3433.91334
748.231	3381.13158
748.421	3500.19528
748.611	3387.44621
748.801	3379.42362
748.991	3370.88286
749.182	3429.51291
749.372	3379.81972
749.562	3454.55897
749.752	3374.5117
749.942	3435.84448
750.132	3258.74065
750.322	3363.58782
750.512	3306.77123
750.702	3374.69508
750.892	3297.10333
751.082	3366.48615
751.272	3222.04878
751.462	3339.62901
751.652	3368.0121
751.842	3392.44796
752.032	3248.90332
752.222	3397.54083
752.412	3281.70764
752.602	3320.76301
752.792	3173.66329
752.981	3289.21002
753.171	3151.70943
753.361	3478.55041
753.551	3142.53606
753.741	3337.55312
753.93	3209.39076
754.12	3246.68153
754.31	3192.14641
754.5	3180.29443
754.689	3121.42961
754.879	3266.18132
755.069	3129.32804
755.258	3322.29594
755.448	3089.29503
755.638	3258.92023
755.827	3097.91507
756.017	3205.74014
756.206	3101.80766
756.396	3217.80008
756.586	3118.73825
756.775	3184.58293
756.965	3062.51727
757.154	3121.77804
757.344	3069.91402
757.533	3123.16908
757.723	2971.19414
757.912	3078.43773
758.101	3064.51172
758.291	3112.23304
758.48	2982.99333
758.67	3071.7518
758.859	2899.47294
759.048	3071.66592
759.238	2939.47089
759.427	2963.91858
759.616	2950.42036
759.806	2975.82833
759.995	2848.14639
760.184	2943.77828
760.373	2985.48092
760.563	3078.17944
760.752	2862.4951
760.941	2914.93515
761.13	2797.96861
761.319	2811.10956
761.509	2840.53928
761.698	2781.11766
761.887	2672.17632
762.076	2685.20847
762.265	2642.08851
762.454	2709.94455
762.643	2474.20518
762.832	2567.72093
763.021	2328.79222
763.21	2412.3843
763.399	2272.32194
763.588	2278.99691
763.777	2144.81917
763.966	2180.57509
764.155	2096.92642
764.344	2093.06265
764.533	1961.46419
764.722	2022.8364
764.911	1892.70849
765.1	1896.06555
765.288	1749.41908
765.477	1780.37753
765.666	1733.49585
765.855	1740.21921
766.044	1635.90824
766.232	1689.70132
766.421	1511.15825
766.61	1546.88009
766.799	1337.89951
766.987	1312.17617
767.176	1317.63668
767.365	1334.91091
767.553	1280.69782
767.742	1342.17898
767.931	1284.69265
768.119	1242.1118
768.308	1225.73628
768.497	1154.57663
768.685	1105.62546
768.874	1192.90762
769.062	1125.86627
769.251	1134.50887
769.439	1153.15164
769.628	1151.17106
769.816	1161.74628
770.005	1120.97615
770.193	1079.03006
770.382	1300.99194
770.57	1259.44794
770.758	1296.29474
770.947	1245.63657
771.135	1337.52801
771.323	1227.36685
771.512	1411.80653
771.7	1336.39922
771.888	1432.33251
772.077	1523.6059
772.265	1405.97633
772.453	1469.12176
772.642	1496.98647
772.83	1466.36956
773.018	1654.45264
773.206	1519.83562
773.394	1639.34669
773.583	1578.12486
773.771	1690.64246
773.959	1771.25984
774.147	1842.29168
774.335	1804.07474
774.523	1792.84542
774.711	1773.8474
774.899	1878.44714
775.087	1855.21167
775.275	1968.14282
775.463	1972.64126
775.651	2004.12749
775.839	1906.46194
776.027	2011.07979
776.215	1902.06813
776.403	2100.68654
776.591	1974.66265
776.779	2101.70168
776.967	1967.9412
777.155	2233.38177
777.343	2034.84072
777.531	2165.73366
777.718	1988.70508
777.906	2202.48482
778.094	2072.55997
778.282	2180.86953
778.47	2112.87461
778.657	2137.14082
778.845	2140.83528
779.033	2165.53304
779.22	2078.55508
779.408	2155.37832
779.596	2131.66798
779.783	2222.46688
779.971	2126.69173
780.159	2077.52276
780.346	2106.82268
780.534	2239.23239
780.722	2140.90148
780.909	2154.11391
781.097	2083.58172
781.284	2240.31014
781.472	2098.15019
781.659	2185.10148
781.847	2059.75572
782.034	2165.93446
782.222	2096.04549
782.409	2198.37558
782.597	2083.03529
782.784	2187.76228
782.971	2040.07056
783.159	2163.5518
783.346	2022.60157
783.533	2055.77495
783.721	2090.32689
783.908	2123.36191
784.095	2003.18416
784.283	2017.66737
784.47	2058.59084
784.657	2099.77046
784.844	1941.02566
785.032	2049.30294
785.219	2045.5808
785.406	1996.09966
785.593	1911.84311
785.78	1998.29566
785.968	2010.10228
786.155	1999.49768
786.342	1946.6672
786.529	2054.56187
786.716	1883.95667
786.903	1971.91349
787.09	1868.70247
787.277	2043.28495
787.464	1880.75175
787.651	1935.96523
787.838	1841.88959
788.025	1962.9791
788.212	1803.43888
788.399	1969.30652
788.586	1808.47799
788.773	1925.19904
788.96	1758.44475
789.147	1881.05569
789.334	1703.46778
789.521	1873.63171
789.707	1859.13705
789.894	1896.18554
790.081	1781.04363
790.268	1818.34527
790.455	1788.06404
790.641	1834.43802
790.828	1763.69777
791.015	1811.16487
791.202	1748.74435
791.388	1796.57704
791.575	1699.67894
791.762	1763.52077
791.948	1790.49483
792.135	1794.24091
792.322	1701.93282
792.508	1748.19869
792.695	1733.82934
792.881	1742.41664
793.068	1660.75295
793.254	1825.84026
793.441	1673.4757
793.627	1721.5965
793.814	1574.27521
794	1736.61052
794.187	1605.32471
794.373	1689.0426
794.56	1508.9365
794.746	1667.0178
794.933	1642.99952
795.119	1723.3239
795.305	1533.43097
795.492	1605.77156
795.678	1584.32541
795.864	1642.67874
796.051	1496.93056
796.237	1620.45546
796.423	1512.18684
796.61	1571.86504
796.796	1546.1649
796.982	1691.79466
797.168	1551.29838
797.355	1635.90076
797.541	1465.09454
797.727	1558.37919
797.913	1415.66017
798.099	1594.60514
798.285	1472.11262
798.471	1534.72697
798.658	1391.45578
798.844	1558.08036
799.03	1512.08705
799.216	1565.92271
799.402	1413.07522
799.588	1549.08785
799.774	1475.45288
799.96	1515.50265
800.146	1433.50742
800.332	1523.29615
800.518	1396.19907
800.704	1493.9969
800.89	1402.87152
801.075	1443.65669
801.261	1430.68145
801.447	1428.13438
801.633	1482.61606
801.819	1512.68663
802.005	1404.70921
802.19	1590.93272
802.376	1429.35976
802.562	1518.30681
802.748	1372.58372
802.934	1490.71916
803.119	1394.96847
803.305	1434.38361
803.491	1336.98579
803.676	1454.62048
803.862	1372.51416
804.048	1433.7925
804.233	1331.21293
804.419	1491.16619
804.605	1306.15791
804.79	1477.51761
804.976	1300.91326
805.161	1417.54384
805.347	1387.47708
805.532	1420.83526
805.718	1359.56236
805.903	1426.62273
806.089	1390.91975
806.274	1437.29119
806.46	1311.86454
806.645	1434.0516
806.831	1375.53169
807.016	1405.12993
807.201	1313.32368
807.387	1448.43804
807.572	1317.90177
807.757	1460.32
807.943	1348.27295
808.128	1439.98243
808.313	1292.63146
808.499	1389.20069
808.684	1317.68958
808.869	1390.79153
809.054	1175.8717
809.24	1349.17477
809.425	1233.42502
809.61	1420.64554
809.795	1311.53287
809.98	1427.84742
810.165	1250.33195
810.35	1367.92938
810.536	1262.99081
810.721	1340.1928
810.906	1182.02788
811.091	1260.99085
811.276	1173.88812
811.461	1265.63268
811.646	1202.57344
811.831	1341.5014
812.016	1218.62629
812.201	1298.58139
812.386	1252.87094
812.571	1361.42683
812.756	1170.74415
812.941	1268.33121
813.125	1183.31858
813.31	1212.235
813.495	1166.23188
813.68	1243.91446
813.865	1106.0453
814.05	1283.91256
814.234	1160.97682
814.419	1124.08923
814.604	1231.21286
814.789	1215.48821
814.973	1105.26049
815.158	1195.45124
815.343	1132.21789
815.528	1131.16219
815.712	1093.74335
815.897	1187.27575
816.081	1091.34018
816.266	1073.43657
816.451	1110.00874
816.635	1109.22367
816.82	952.82009
817.004	1107.67262
817.189	978.85586
817.374	1142.63753
817.558	936.12505
817.743	1015.89594
817.927	917.11104
818.111	1047.75734
818.296	906.72653
818.48	988.04828
818.665	869.08396
818.849	901.1478
819.034	895.88516
819.218	872.77665
819.402	860.57725
819.587	896.35074
819.771	787.91884
819.955	855.45064
820.14	718.65977
820.324	791.1067
820.508	731.65588
820.692	815.03941
820.877	759.70873
821.061	769.65014
821.245	753.69417
821.429	722.45166
821.613	663.29045
821.798	759.03005
821.982	628.92763
822.166	763.04103
822.35	652.7186
822.534	722.43806
822.718	602.28297
822.902	703.7286
823.086	608.40817
823.27	688.72758
823.454	577.19398
823.638	711.63534
823.822	646.01549
824.006	650.27209
824.19	615.33946
824.374	689.39926
824.558	493.9576
824.742	592.01909
824.926	498.01458
825.11	593.58357
825.294	524.87267
825.477	566.99832
825.661	537.91465
825.845	623.94418
826.029	572.9732
826.213	574.27023
826.396	568.70764
826.58	556.99012
826.764	532.28572
826.948	588.352
827.131	515.1188
827.315	546.13143
827.499	579.68377
827.682	583.413
827.866	502.96678
828.05	547.15985
828.233	550.12212
828.417	539.4014
828.6	474.76563
828.784	564.0671
828.967	484.75496
829.151	504.83499
829.335	509.51442
829.518	576.92092
829.701	497.50737
829.885	535.12381
830.068	515.1377
830.252	481.20153
830.435	545.32252
830.619	507.18346
830.802	518.98184
830.985	552.74081
831.169	539.61858
831.352	496.12314
831.535	486.54422
831.719	471.72974
831.902	491.04307
832.085	462.68818
832.269	467.13121
832.452	554.43765
832.635	474.759
832.818	472.70149
833.002	446.71536
833.185	505.79632
833.368	472.82319
833.551	478.74727
833.734	431.87285
833.917	564.00523
834.1	469.62906
834.284	501.54307
834.467	507.4815
834.65	589.04124
834.833	420.85353
835.016	439.61177
835.199	444.40649
835.382	471.97336
835.565	433.00155
835.748	461.84954
835.931	463.35532
836.114	450.68265
836.297	399.3367
836.479	490.60898
836.662	430.71227
836.845	460.77205
837.028	403.98364
837.211	469.90685
837.394	427.54876
837.577	405.11217
837.759	448.69143
837.942	418.39381
838.125	401.86112
838.308	443.70033
838.49	450.39009
838.673	284.42848
838.856	393.18362
839.039	400.71742
839.221	429.91881
839.404	455.12942
839.587	391.58727
839.769	457.47085
839.952	383.83426
840.134	417.6999
840.317	397.33145
840.499	426.19843
840.682	323.18997
840.865	495.65226
841.047	409.85549
841.23	417.73105
841.412	323.67181
841.595	391.36983
841.777	405.17238
841.959	421.01016
842.142	383.74878
842.324	324.00514
842.507	412.87508
842.689	443.44202
842.871	436.71242
843.054	435.38832
843.236	386.96066
843.418	397.13976
843.601	381.81945
843.783	379.29366
843.965	389.56274
844.147	445.48631
844.33	343.60418
844.512	429.39315
844.694	357.07497
844.876	412.06824
845.059	378.25002
845.241	379.13904
845.423	370.71283
845.605	379.26551
845.787	310.93789
845.969	440.72403
846.151	393.87272
846.333	485.81078
846.515	331.74568
846.697	384.2381
846.879	349.41344
847.061	459.02497
847.243	305.46392
847.425	395.05968
847.607	359.73463
847.789	350.45047
847.971	388.86961
848.153	341.70575
848.335	340.44935
848.517	359.34476
848.699	370.78213
848.881	363.96689
849.062	318.07809
849.244	382.8627
849.426	315.95173
849.608	395.65013
849.789	379.74612
849.971	324.53358
850.153	270.85796
850.335	337.19016
850.516	264.32382
850.698	384.2782
850.88	289.27692
851.061	331.45986
851.243	367.20275
851.425	373.08252
851.606	291.30512
851.788	264.43313
851.969	287.95238
852.151	328.46914
852.333	262.87151
852.514	319.48218
852.696	292.33484
852.877	312.51889
853.059	320.73245
853.24	244.07609
853.422	218.08765
853.603	338.30632
853.784	240.76683
853.966	283.29013
854.147	248.54811
854.329	315.75066
854.51	229.61518
854.691	276.60771
854.873	313.93038
855.054	252.31954
855.235	201.56674
855.416	230.87339
855.598	197.16205
855.779	270.08528
855.96	248.03851
856.141	276.85735
856.323	218.46441
856.504	222.95092
856.685	210.75368
856.866	183.66028
857.047	238.9266
857.228	250.97236
857.409	184.98386
857.591	187.163
857.772	207.39181
857.953	193.7279
858.134	206.41224
858.315	221.73116
858.496	166.85539
858.677	187.18431
858.858	197.25907
859.039	222.16799
859.22	216.37235
859.401	234.44502
859.582	215.51412
859.762	174.808
859.943	202.84723
860.124	209.76052
860.305	220.82031
860.486	143.35206
860.667	180.41486
860.848	242.1314
861.028	163.66587
861.209	188.3127
861.39	215.46477
861.571	225.2408
861.751	187.09918
861.932	136.49284
862.113	182.81714
862.293	209.61721
862.474	150.00577
862.655	208.65511
862.835	152.35852
863.016	222.24423
863.197	190.83874
863.377	139.97948
863.558	194.02911
863.738	223.31467
863.919	188.29841
864.099	186.07715
864.28	196.42976
864.46	161.26158
864.641	173.84526
864.821	191.80027
865.002	114.19579
865.182	180.45595
865.363	189.49154
865.543	189.51317
865.723	200.86562
865.904	224.28238
866.084	101.74558
866.264	138.78324
866.445	121.95936
866.625	144.54592
866.805	189.52038
866.986	196.22761
867.166	184.91362
867.346	122.99336
867.526	118.64099
867.707	161.50112
867.887	192.93681
868.067	185.04724
868.247	147.86363
868.427	189.35497
868.607	122.02434
868.788	136.73709
868.968	110.7649
869.148	168.22568
869.328	164.71302
869.508	116.51024
869.688	123.21806
869.868	99.54429
870.048	134.41794
870.228	145.70211
870.408	153.56844
870.588	124.37991
870.768	131.10862
870.948	111.97802
871.128	93.94909
871.307	118.74528
871.487	119.80528
871.667	117.49987
871.847	143.43398
872.027	143.44492
872.207	88.30593
872.387	125.53284
872.566	161.4826
872.746	134.4847
872.926	141.22027
873.106	138.94699
873.285	148.07278
873.465	116.46563
873.645	121.98718
873.824	157.03871
874.004	104.1434
874.184	113.07193
874.363	132.21209
874.543	141.24187
874.723	119.92922
874.902	102.9632
875.082	121.03065
875.261	75.95499
875.441	62.35649
875.62	89.47486
875.8	13.99593
875.979	128.91544
876.159	81.56795
876.338	80.42772
876.518	86.15945
876.697	108.62599
876.876	86.04711
877.056	79.28487
877.235	70.24249
877.415	119.897
877.594	70.34197
877.773	135.72796
877.953	72.51537
878.132	51.20601
878.311	105.24809
878.49	154.73259
878.67	93.95269
878.849	81.57732
879.028	91.72818
879.207	73.68192
879.387	99.60524
879.566	86.10976
879.745	96.26067
879.924	51.15295
880.103	77.092
880.282	156.02903
880.461	120.08195
880.64	121.04459
880.819	64.74569
880.998	112.064
881.178	51.15883
881.357	73.71017
881.536	86.14949
881.715	157.04472
881.893	105.27637
882.072	55.65605
882.251	56.8117
882.43	47.81531
882.609	64.69342
882.788	34.28798
882.967	74.84701
883.146	80.48014
883.325	66.97004
883.503	117.67976
883.682	99.68564
883.861	55.7374
884.04	54.61899
884.219	87.19148
884.397	105.28446
884.576	73.64812
884.755	36.55802
884.933	63.55815
885.112	135.74885
885.291	91.7634
885.469	110.91758
885.648	92.9352
885.827	82.72127
886.005	81.65574
886.184	79.37916
886.363	119.97074
886.541	90.72547
886.72	79.40362
886.898	-37.75955
887.077	123.36951
887.255	110.85802
887.434	147.13008
887.612	108.68441
887.791	118.79995
887.969	69.21366
888.147	48.94541
888.326	60.20959
888.504	30.88539
888.682	90.60673
888.861	42.22372
889.039	21.88667
889.218	104.09948
889.396	42.13929
889.574	34.26691
889.752	36.55943
889.931	69.18181
890.109	57.97086
890.287	124.46589
890.465	46.65845
890.643	106.48735
890.822	123.32204
891	96.17956
891.178	61.29558
891.356	98.46925
891.534	95.17946
891.712	-26.58799
891.89	26.40365
892.068	38.81204
892.247	59.08582
892.425	95.22354
892.603	29.76743
892.781	115.44345
892.959	46.68175
893.137	92.9173
893.314	77.13944
893.492	127.88457
893.67	26.39349
893.848	39.92206
894.026	46.6513
894.204	57.93966
894.382	29.79035
894.56	32.02603
894.738	89.52644
894.915	36.52148
895.093	98.55248
895.271	57.9597
895.449	41.03429
895.626	15.12166
895.804	63.58255
895.982	73.76974
896.16	65.85685
896.337	113.1586
896.515	96.42809
896.693	53.46096
896.87	65.84418
897.048	17.37382
897.225	51.20601
897.403	12.87047
897.581	53.48572
897.758	-0.65779
897.936	6.10619
898.113	86.15945
898.291	18.51467
898.468	7.22974
898.646	70.39345
898.823	7.22946
899.001	6.10996
899.178	83.93357
899.356	77.19307
899.533	61.35447
899.71	8.36143
899.888	60.28401
900.065	-23.19106
900.242	52.35671
900.42	68.151
900.597	71.56412
900.774	50.09496
900.952	108.83991
901.129	59.13827
901.306	34.30914
901.483	34.31444
901.661	38.80157
901.838	34.30914
902.015	59.05633
902.192	54.5958
902.369	46.71774
902.546	33.169
902.723	11.74517
902.901	43.32623
903.078	63.65368
903.255	81.71253
903.432	42.20087
903.609	10.62316
903.786	17.39191
903.963	6.11114
904.14	36.57781
904.317	32.05319
904.494	47.84481
904.671	32.047
904.848	35.46112
905.024	58.05616
905.201	60.27467
905.378	-10.80972
905.555	-20.96592
905.732	23.03565
905.909	1.59811
906.086	-10.79808
906.262	98.61714
906.439	12.8819
906.616	26.40772
906.793	11.74517
906.969	23.04457
907.146	-2.91342
907.323	-13.06214
907.5	58.00218
907.676	59.13141
907.853	71.55304
908.03	25.28731
908.206	-5.16997
908.383	14.01323
908.559	45.56601
908.736	15.138
908.912	18.50255
909.089	60.27934
909.266	6.10619
909.442	48.97941
909.619	42.20413
909.795	48.97562
909.972	54.60212
910.148	-16.44863
910.324	67.0606
910.501	29.80185
910.677	47.87073
910.854	91.85189
911.03	33.17284
911.206	107.53029
911.383	0.4695
911.559	30.94617
911.735	6.10549
911.912	-14.19885
912.088	12.8839
912.264	15.12457
912.44	-6.29954
912.617	15.13976
912.793	24.15319
912.969	42.23682
913.145	52.36885
913.321	87.31556
913.498	28.64884
913.674	25.28145
913.85	43.35976
914.026	21.8892
914.202	26.40365
914.378	21.89426
914.554	73.79823
914.73	-27.71807
914.906	-20.97567
915.082	27.53811
915.258	76.04861
915.434	8.36336
915.61	23.04636
915.786	55.76543
915.962	29.82844
916.138	21.90525
916.314	36.54113
916.49	12.87593
916.665	-0.65807
916.841	68.1431
917.017	-1.78706
917.193	7.23921
917.369	58.04038
917.545	-27.73734
917.72	58.02688
917.896	10.62152
918.072	53.53339
918.247	36.58631
918.423	51.28335
918.599	30.93299
918.775	-0.65784
918.95	-20.96592
919.126	-25.46598
919.301	50.12596
919.477	9.49449
919.653	55.7784
919.828	2.72646
920.004	16.27103
920.179	-22.09542
920.355	-129.17022
920.53	14.00402
920.706	47.84666
920.881	6.11375
921.057	-48.0393
921.232	12.8829
921.408	20.76546
921.583	32.05071
921.759	28.67315
921.934	42.20739
922.109	38.83604
922.285	21.92735
922.46	-0.65795
922.635	-9.68419
922.811	10.62687
922.986	41.08015
923.161	-26.60852
923.336	23.02852
923.512	29.79955
923.687	20.77749
923.862	-14.20215
924.037	-14.19008
924.212	9.49339
924.388	53.51677
924.563	52.38305
924.738	11.74562
924.913	44.51869
925.088	24.13924
925.263	41.06588
925.438	28.64333
925.613	-0.658
925.788	3.85726
925.963	1.59855
926.138	3.85801
926.313	50.10657
926.488	68.2091
926.663	3.85591
926.838	11.74471
927.013	44.46175
927.188	68.1431
927.363	3.85442
927.538	-16.45117
927.713	34.32241
927.888	-4.04299
928.062	0.47013
928.237	9.49706
928.412	55.72021
928.587	21.89848
928.761	-5.16997
928.936	24.15692
929.111	-8.55742
929.286	-1.78499
929.46	35.43369
929.635	43.34129
929.81	4.98168
929.984	46.75031
930.159	1.59805
930.334	-13.05912
930.508	14.0154
930.683	34.32506
930.857	26.42201
931.032	52.3003
931.206	34.33704
931.381	-6.30688
931.556	-6.30052
931.73	61.4376
931.904	0.47026
932.079	24.15505
932.253	-4.03847
932.428	39.93898
932.602	-6.29468
932.777	-9.68306
932.951	-16.45754
933.125	16.25657
933.3	33.20751
933.474	20.7807
933.648	39.99004
933.823	-0.6583
933.997	11.76154
934.171	57.99546
934.345	-61.57683
934.52	-11.93977
934.694	24.16626
934.868	49.00407
935.042	16.27292
935.217	-20.97323
935.391	7.24146
935.565	44.47378
935.739	12.8894
935.913	-4.04049
936.087	-63.86027
936.261	44.49274
936.435	-19.83733
936.609	-11.94301
936.783	11.75652
936.957	12.8884
937.131	-51.3969
937.305	-17.59049
937.479	39.97607
937.653	16.25657
937.827	2.72572
938.001	17.38788
938.175	-19.8427
938.349	-8.5551
938.523	20.77829
938.697	-29.98814
938.87	1.5983
939.044	-13.07173
939.218	52.38508
939.392	-19.83963
939.566	55.79356
939.739	9.49596
939.913	43.37154
940.087	-24.34726
940.261	-13.07274
940.434	-14.20601
940.608	-67.21358
940.782	33.22688
940.955	25.31478
941.129	10.61661
941.302	6.10925
941.476	42.26474
941.65	44.48929
941.823	-11.94301
941.997	9.50001
942.17	1.5983
942.344	-33.38206
942.517	-14.18298
942.691	32.06559
942.864	46.73581
943.038	-5.17237
943.211	45.56601
943.385	28.6887
943.558	2.72551
943.731	-45.74247
943.905	-31.12525
944.078	0.47004
944.251	-28.86173
944.425	24.17751
944.598	-9.68344
944.771	52.41763
944.945	-7.43923
945.118	51.27538
945.291	36.58773
945.464	-8.5644
945.638	-20.97892
945.811	59.1543
945.984	16.25907
946.157	-15.32576
946.33	65.94601
946.503	29.80416
946.677	35.49285
946.85	20.78312
947.023	-22.08517
947.196	-2.915
947.369	-5.17578
947.542	24.18126
947.715	-42.41591
947.888	-28.86173
948.061	30.93898
948.234	21.8892
948.407	32.047
948.58	10.62851
948.753	-29.98235
948.926	-20.98463
949.099	12.8829
949.271	11.7588
949.444	29.80877
949.617	46.75575
949.79	12.8829
949.963	38.87527
950.136	-40.14475
950.308	-37.91481
950.481	56.8818
950.654	7.23781
950.827	8.37081
950.999	23.05711
951.172	-6.29735
951.345	15.14387
951.517	37.72006
951.69	26.43328
951.863	-26.62193
952.035	-9.69132
952.208	1.59787
952.381	29.84121
952.553	17.39729
952.726	35.47076
952.898	-18.69867
953.071	-67.26567
953.243	33.19592
953.416	2.72593
953.588	-44.64889
953.761	64.80329
953.933	-10.80889
954.106	59.14743
954.278	-41.26736
954.45	11.74562
954.623	59.14285
954.795	-8.5644
954.967	8.36951
955.14	38.86015
955.312	32.08549
955.484	10.62481
955.657	27.56799
955.829	14.01976
956.001	-17.57755
956.173	-32.24929
956.346	48.98509
956.518	17.38721
956.69	32.07056
956.862	-6.30272
957.034	-32.24305
957.207	-2.91828
957.379	-1.78547
957.551	53.55004
957.723	-32.24305
957.895	17.40269
958.067	0.47013
958.239	-35.60313
958.411	21.89595
958.583	1.59762
958.755	20.79198
958.927	0.47001
959.099	18.52541
959.271	-31.10841
959.443	38.86015
959.615	11.75106
959.787	-16.44926
959.959	11.75789
960.13	-1.78568
960.302	-13.06567
960.474	-20.98626
960.646	-17.57823
960.818	46.74668
960.99	8.37178
961.161	20.7799
961.333	1.59694
961.505	-36.75379
961.677	-8.55643
961.848	28.67094
962.02	44.45488
962.192	35.46387
962.363	-4.04597
962.535	-14.20436
962.707	2.72593
962.878	34.34371
963.05	-14.19446
963.221	-7.43315
963.393	-53.6872
963.564	0.46995
963.736	-17.58503
963.907	42.21065
964.079	2.72825
964.25	-35.64302
964.422	-35.6251
964.593	-6.29687
964.765	45.59768
964.936	-20.96592
965.108	24.14853
965.279	-37.90157
965.45	11.74925
965.622	17.40201
965.793	34.31975
965.964	38.84206
966.136	-7.42567
966.307	4.99
966.478	3.85831
966.65	16.27418
966.821	-50.32478
966.992	4.98496
967.163	12.87345
967.334	35.42685
967.506	32.06931
967.677	21.93333
967.848	-39.0294
968.019	43.32957
968.19	9.49816
968.361	43.38671
968.532	-36.74811
968.703	-27.71914
968.874	-26.58288
969.045	-17.58367
969.216	-24.35668
969.387	27.54769
969.558	-36.75237
969.729	50.1182
969.9	-33.38594
970.071	-6.30541
970.242	15.13859
970.413	-32.26679
970.584	-25.48469
970.755	1.59861
970.926	65.94345
971.097	1.59811
971.267	-33.37174
971.438	32.05195
971.609	9.50517
971.78	11.75061
971.951	16.27671
972.121	7.24624
972.292	-0.65805
972.463	-14.19117
972.633	10.63471
972.804	-18.71167
972.975	-36.75095
973.145	16.2641
973.316	-1.78623
973.487	25.30494
973.657	32.06683
973.828	6.10949
973.998	32.06187
974.169	29.82264
974.339	-2.91545
974.51	-11.94301
974.68	-13.07528
974.851	9.50111
975.021	-32.26428
975.192	17.40607
975.362	3.85591
975.533	-1.7852
975.703	1.59892
975.874	-26.59414
976.044	23.03119
976.214	30.95458
976.385	11.75061
976.555	32.05319
976.725	4.98419
976.896	82.87462
977.066	2.7272
977.236	43.3648
977.406	-11.95275
977.577	42.21065
977.747	-4.04644
977.917	24.17001
978.087	7.24398
978.257	-83.05148
978.427	2.72804
978.598	14.02685
978.768	-15.32991
978.938	9.49192
979.108	-28.89197
979.278	-1.78644
979.448	-10.81474
979.618	3.85606
979.788	7.24061
979.958	34.31311
980.128	15.13566
980.298	33.1895
980.468	2.73006
980.638	-0.65767
980.808	23.02764
980.978	-40.13854
981.148	-32.2331
981.317	33.17668
981.487	34.31709
981.657	39.94052
981.827	30.92701
981.997	44.50138
982.167	21.92565
982.336	19.6718
982.506	63.6734
982.676	-44.67654
982.846	-32.2244
983.015	-22.08944
983.185	-35.6444
983.355	-41.24667
983.524	-51.41673
983.694	-0.65789
983.864	-59.35965
984.033	-68.39062
984.203	0.47026
984.372	-40.15874
984.542	-26.61574
984.712	26.41384
984.881	25.28829
985.051	-39.01731
985.22	-26.62296
985.39	-6.29881
985.559	-1.78602
985.728	-6.30272
985.898	34.33038
986.067	37.7069
986.237	-44.65061
986.406	6.11304
986.576	2.72878
986.745	42.22536
986.914	16.28241
987.084	10.63099
987.253	-23.22774
987.422	14.01269
987.591	-2.91443
987.761	12.8839
987.93	15.13449
988.099	2.72783
988.268	10.62152
988.438	29.78575
988.607	62.52661
988.776	16.26536
988.945	37.73177
989.114	6.11398
989.283	24.18785
989.452	-17.59869
989.621	-8.5551
989.791	30.94377
989.96	-14.19227
990.129	6.10925
990.298	4.98457
990.467	14.02358
990.636	30.95699
990.805	36.54675
990.974	-6.30394
991.142	-22.10483
991.311	-29.98582
991.48	-29.99742
991.649	-4.04315
991.818	-18.70516
991.987	-60.47327
992.156	64.80832
992.325	-8.56041
992.493	-34.51381
992.662	-199.57099
992.831	-5.17337
993	-15.32398
993.168	-8.55875
993.337	16.27987
993.506	12.8889
993.675	18.52254
993.843	1.59731
994.012	39.97452
994.181	-4.04049
994.349	24.17375
994.518	-14.19775
994.686	33.21267
994.855	-2.91421
995.024	-29.9893
995.192	16.26284
995.361	-52.55384
995.529	-6.30052
995.698	-17.57145
995.866	12.8844
996.035	-20.97486
996.203	19.64057
996.371	48.97373
996.54	-28.88748
996.708	9.49339
996.877	28.69315
997.045	21.91713
997.213	0.47022
997.382	7.2423
997.55	-42.40277
997.718	-17.57484
997.887	18.51967
998.055	-28.86843
998.223	-20.96268
998.391	-10.81265
998.56	76.04567
998.728	10.62769
998.896	38.89044
999.064	28.68536
999.232	-46.91934
999.401	-20.94975
999.569	-24.3775
999.737	25.30887
999.905	-17.59049
1000.073	58.03588
1000.241	-5.17077
1000.409	43.39009
1000.577	-14.19446
1000.745	2.72825
1000.913	11.75242
1001.081	-14.1857
1001.249	20.77267
1001.417	-31.10241
1001.585	-9.68756
1001.753	-13.0768
1001.921	21.9061
1002.089	-9.68681
1002.256	-10.81936
1002.424	41.09604
1002.592	37.6836
1002.76	-5.17337
1002.928	-33.39371
1003.096	52.39727
1003.263	2.72751
1003.431	7.24258
1003.599	-1.78665
1003.767	8.36821
1003.934	7.24483
1004.102	14.00618
1004.27	15.13274
1004.437	-8.55477
1004.605	19.66415
1004.773	8.37016
1004.94	-0.65817
1005.108	-40.13544
1005.275	-1.78789
1005.443	11.75515
1005.61	17.38654
1005.778	3.85532
1005.945	11.74698
1006.113	27.54876
1006.28	-26.62193
1006.448	35.43369
1006.615	-1.78637
1006.783	44.51522
1006.95	-10.81474
1007.118	25.2971
1007.285	28.68647
1007.452	10.62481
1007.62	27.56157
1007.787	23.01964
1007.954	19.66415
1008.122	-0.65807
1008.289	30.93538
1008.456	52.39523
1008.623	10.63347
1008.791	0.47044
1008.958	-11.95135
1009.125	-15.32872
1009.292	38.84356
1009.459	25.30298
1009.627	-39.0143
1009.794	3.85338
1009.961	-17.57755
1010.128	20.80737
1010.295	12.88041
1010.462	58.08328
1010.629	11.76704
1010.796	-25.50746
1010.963	-0.65871
1011.13	-23.21517
1011.297	2.72751
1011.464	-51.42667
1011.631	-19.8404
1011.798	-10.81181
1011.965	32.07429
1012.132	-6.30296
1012.299	-0.6584
1012.466	-5.16937
1012.633	-4.04221
1012.799	-1.78685
1012.966	-7.42911
1013.133	0.47048
1013.3	10.62522
1013.467	-63.79615
1013.633	27.57657
1013.8	-7.42969
1013.967	19.6474
1014.134	-2.91511
1014.3	24.17094
1014.467	-13.06466
1014.634	-49.20459
1014.8	-5.17598
1014.967	35.42685
1015.134	54.60633
1015.3	10.61988
1015.467	-33.35629
1015.633	-13.07173
1015.8	4.98361
1015.966	53.47539
1016.133	-1.78602
1016.3	-60.46859
1016.466	-15.33586
1016.632	-50.28196
1016.799	35.44327
1016.965	-37.8869
1017.132	19.64816
1017.298	17.39864
1017.465	21.92479
1017.631	-26.61677
1017.797	41.13758
1017.964	72.69682
1018.13	-34.47652
1018.296	4.98689
1018.463	33.19721
1018.629	28.6787
1018.795	-17.58163
1018.961	-14.1994
1019.128	3.8519
1019.294	-4.04112
1019.46	-6.30468
1019.626	30.93658
1019.792	-5.17177
1019.959	11.74789
1020.125	27.58947
1020.291	-49.1817
1020.457	10.61988
1020.623	-14.18134
1020.789	51.24557
1020.955	-46.91934
1021.121	18.53259
1021.287	-25.4837
1021.453	25.29122
1021.619	26.4343
1021.785	8.36821
1021.951	-1.78713
1022.117	-23.24397
1022.283	15.13566
1022.449	15.15152
1022.615	21.9265
1022.781	-32.21449
1022.946	30.94617
1023.112	34.35173
1023.278	-38.99924
1023.444	21.94703
1023.61	-13.07123
1023.775	46.72316
1023.941	17.40336
1024.107	-5.17257
1024.273	1.59861
1024.438	-52.55588
1024.604	-44.64372
1024.77	-72.77118
1024.935	-25.49259
1025.101	36.60193
1025.267	-25.49061
1025.432	1.59917
1025.598	15.15329
1025.763	-22.10141
1025.929	-8.55908
1026.095	33.18693
1026.26	24.17845
1026.426	41.06588
1026.591	-48.06535
1026.757	-13.07934
1026.922	-6.29833
1027.087	3.85308
1027.253	-10.81642
1027.418	-2.91624
1027.584	7.23252
1027.749	23.04189
1027.914	-37.90304
1028.08	3.85816
1028.245	1.5983
1028.41	-22.10827
1028.576	-16.46073
1028.741	-17.58027
1028.906	-37.86936
1029.072	-34.5272
1029.237	-33.40539
1029.402	-23.23224
1029.567	-20.95863
1029.732	52.38914
1029.898	0.47008
1030.063	-6.31009
1030.228	10.63595
1030.393	-11.95275
1030.558	32.08176
1030.723	24.19444
1030.888	-5.17177
1031.053	77.20801
1031.218	-18.71675
1031.383	10.61784
1031.548	11.75652
1031.713	3.85427
1031.878	11.74743
1032.043	-0.65853
1032.208	21.90356
1032.373	4.9811
1032.538	8.36498
1032.703	-41.29613
1032.868	0.4703
1033.033	-4.04818
1033.198	39.98382
1033.362	-15.32932
1033.527	8.37081
1033.692	-43.54196
1033.857	24.15505
1034.021	55.79356
1034.186	15.13976
1034.351	-18.70227
1034.516	18.53403
1034.68	19.655
1034.845	-8.5614
1035.01	28.67759
1035.174	15.14798
1035.339	-2.91601
1035.504	21.91798
1035.668	-48.02076
1035.833	14.00672
1035.997	2.72709
1036.162	25.31872
1036.326	95.26776
1036.491	-0.65817
1036.655	-1.78582
1036.82	-41.26895
1036.984	-48.00596
1037.149	-48.00042
1037.313	-48.04674
1037.478	-0.6584
1037.642	-22.10226
1037.807	-26.63331
1037.971	27.55729
1038.135	24.16533
1038.3	0.47037
1038.464	-15.34661
1038.628	17.40336
1038.792	-39.04
1038.957	6.11375
1039.121	-14.20988
1039.285	11.75288
1039.449	-18.71747
1039.614	-2.9159
1039.778	23.04189
1039.942	-31.12645
1040.106	1.60066
1040.27	-59.37118
1040.434	-44.61449
1040.599	18.51967
1040.763	-20.96025
1040.927	25.27755
1041.091	23.02675
1041.255	-18.71457
1041.419	30.94497
1041.583	-11.93931
1041.747	-68.32976
1041.911	-45.77774
1042.075	-13.07629
1042.239	20.79602
1042.403	-11.93102
1042.567	-32.22937
1042.731	-20.96836
1042.894	-36.74953
1043.058	52.38102
1043.222	-16.45945
1043.386	-63.83062
1043.55	9.49816
1043.714	-1.78644
1043.877	15.14328
1044.041	26.42406
1044.205	19.64133
1044.369	17.40336
1044.532	-7.42883
1044.696	-24.34444
1044.86	-32.26428
1045.023	-18.69435
1045.187	26.4169
1045.351	1.59688
1045.514	33.19592
1045.678	-33.36658
1045.841	37.71274
