Data from mildly cloudy_Subt2__0__14-15-27-068.txt Node

Date: Mon Oct 13 14:15:27 EDT 2025
User: brett
Spectrometer: USB4F03499
Trigger mode: 4
Integration Time (sec): 8.500000E-4
Scans to average: 1
Electric dark correction enabled: true
Nonlinearity correction enabled: true
Boxcar width: 0
XAxis mode: Wavelengths
Number of Pixels in Spectrum: 3648
>>>>>Begin Spectral Data<<<<<
345.386	67.15194
345.605	67.15194
345.824	67.15194
346.044	60.45079
346.263	29.919
346.482	-20.85898
346.701	2.82069
346.92	26.49961
347.139	10.72297
347.358	-26.52062
347.577	-21.99625
347.796	26.51908
348.015	8.47209
348.234	-8.46173
348.453	-12.97365
348.672	1.69284
348.891	14.11273
349.11	21.99753
349.329	328.18046
349.548	1112.62965
349.767	1048.06521
349.986	1104.70217
350.205	1030.35678
350.424	1105.65798
350.643	1185.59722
350.862	1175.67214
351.08	1086.16051
351.299	1131.02072
351.518	1064.15024
351.737	1264.4975
351.956	1197.06313
352.174	1193.51575
352.393	1272.10121
352.612	1351.02311
352.831	1339.42492
353.049	1302.92305
353.268	1297.85075
353.487	1472.74398
353.705	1356.48244
353.924	1395.49967
354.143	1463.02443
354.361	1522.98804
354.58	1414.01202
354.798	1621.39849
355.017	1421.29155
355.236	1497.93595
355.454	1574.0623
355.673	1656.53037
355.891	1631.48503
356.11	1584.66285
356.328	1582.62526
356.547	1650.02434
356.765	1606.62152
356.984	1756.44706
357.202	1754.08563
357.42	1835.85806
357.639	1707.93748
357.857	1767.83947
358.076	1711.40034
358.294	1695.71563
358.512	1735.12558
358.731	1757.91588
358.949	1674.83264
359.167	1758.25178
359.386	1785.15058
359.604	1742.79673
359.822	1814.9308
360.04	1866.8294
360.259	1797.25502
360.477	1849.71304
360.695	1851.92682
360.913	1851.63324
361.131	1812.18011
361.35	2007.78698
361.568	1860.11558
361.786	1898.35081
362.004	1807.78483
362.222	1966.4429
362.44	1901.84234
362.658	2022.1597
362.876	1827.87837
363.094	1915.67907
363.312	1829.86005
363.53	1924.24888
363.749	1866.18241
363.967	2117.36179
364.184	1980.38248
364.402	2082.57824
364.62	2060.55143
364.838	1992.4444
365.056	2094.80148
365.274	2191.8789
365.492	2094.82319
365.71	2218.44795
365.928	2225.27078
366.146	2449.91943
366.364	2337.48387
366.581	2451.7901
366.799	2436.72359
367.017	2528.61606
367.235	2534.6358
367.453	2601.91515
367.67	2711.31413
367.888	2824.73645
368.106	2820.87076
368.323	2670.7415
368.541	2795.79905
368.759	2836.57347
368.977	2859.37774
369.194	2972.32099
369.412	2953.90064
369.629	3088.68277
369.847	3008.76671
370.065	3155.11074
370.282	3264.93763
370.5	3262.50119
370.717	3270.42302
370.935	3241.35732
371.152	3332.86667
371.37	3467.25798
371.588	3348.86246
371.805	3428.31928
372.022	3533.87379
372.24	3457.71346
372.457	3501.15092
372.675	3701.33567
372.892	3620.38761
373.11	3507.52872
373.327	3476.65883
373.544	3630.04918
373.762	3580.4892
373.979	3541.21583
374.196	3579.85874
374.414	3566.90306
374.631	3581.34583
374.848	3640.86348
375.066	3547.69495
375.283	3669.24562
375.5	3502.65113
375.717	3596.09005
375.935	3721.75416
376.152	3688.37404
376.369	3630.89023
376.586	3570.44095
376.803	3655.11602
377.02	3720.23497
377.238	3690.43781
377.455	3673.91865
377.672	3666.02886
377.889	3688.31579
378.106	3702.46423
378.323	3768.22131
378.54	3724.71183
378.757	3732.69573
378.974	3672.08098
379.191	3734.95143
379.408	3811.6936
379.625	3887.97058
379.842	3760.90451
380.059	3946.43383
380.276	3907.92694
380.493	3863.96279
380.71	4012.62784
380.927	3923.15981
381.143	3967.8406
381.36	4253.35431
381.577	3989.03494
381.794	3862.63611
382.011	3939.4598
382.228	4156.06737
382.444	3947.82985
382.661	4108.30269
382.878	4233.55436
383.095	4131.57848
383.311	4223.04578
383.528	3951.49554
383.745	3972.75865
383.962	4215.09819
384.178	4162.2116
384.395	4114.34935
384.612	4207.80647
384.828	4163.02936
385.045	4058.22308
385.261	4161.80992
385.478	4078.03479
385.695	4074.33736
385.911	4113.21782
386.128	4106.24416
386.344	4204.57876
386.561	4221.02405
386.777	4014.9122
386.994	4004.68332
387.21	4002.80949
387.427	3973.70436
387.643	4026.27288
387.86	4014.18869
388.076	3870.7703
388.292	4052.88691
388.509	3866.48337
388.725	4012.91602
388.942	3927.07334
389.158	4025.65521
389.374	4079.46793
389.591	4030.00952
389.807	3969.4932
390.023	4067.48596
390.239	4000.27563
390.456	4198.20423
390.672	4163.24784
390.888	4129.83717
391.104	4356.31381
391.321	4262.17539
391.537	4538.76776
391.753	4363.64375
391.969	4524.82707
392.185	4629.78281
392.401	4624.60504
392.618	4556.53747
392.834	4651.32076
393.05	4829.09819
393.266	4715.26186
393.482	4813.41118
393.698	4730.16282
393.914	4704.85952
394.13	4729.31299
394.346	4649.52472
394.562	4713.85072
394.778	4720.68457
394.994	4844.56743
395.21	4875.66536
395.426	4873.03658
395.642	4912.5453
395.858	5208.85458
396.073	4956.91672
396.289	4942.56298
396.505	5112.08487
396.721	5077.40519
396.937	5104.74404
397.153	4839.93843
397.369	4889.29364
397.584	5306.77717
397.8	5013.59922
398.016	5060.39457
398.232	5180.77902
398.447	5067.44617
398.663	5170.83037
398.879	5029.1558
399.094	5342.83955
399.31	5179.02583
399.526	5001.42486
399.741	5328.13665
399.957	5458.37499
400.173	5295.70884
400.388	5357.53968
400.604	5469.54235
400.82	5472.28086
401.035	5771.77135
401.251	5805.7727
401.466	5692.82321
401.682	6032.5016
401.897	6274.06693
402.113	6300.06249
402.328	6422.80254
402.544	6408.74325
402.759	6479.80314
402.974	6680.5602
403.19	6578.86229
403.405	7119.77745
403.621	7436.47967
403.836	7406.23315
404.051	7574.79344
404.267	7770.76925
404.482	7633.39697
404.697	7448.262
404.913	7647.20817
405.128	8232.85328
405.343	8050.89143
405.559	7933.57081
405.774	8279.92618
405.989	8629.19923
406.204	8573.57524
406.42	8633.25074
406.635	8653.57722
406.85	8634.50855
407.065	8668.31489
407.28	9040.02121
407.495	9046.78093
407.71	8669.52598
407.926	8783.14376
408.141	9716.58718
408.356	9450.3291
408.571	9341.2275
408.786	9118.77076
409.001	9225.29556
409.216	9527.84776
409.431	9485.98356
409.646	9538.54509
409.861	9324.08083
410.076	9175.44009
410.291	9521.67682
410.506	9625.06826
410.721	9282.957
410.936	9372.92191
411.15	9294.73385
411.365	9574.44055
411.58	9486.4997
411.795	9428.3926
412.01	9759.00254
412.225	9579.03577
412.439	9429.56827
412.654	9427.76164
412.869	9647.45233
413.084	9578.6429
413.299	9572.75575
413.513	9260.93313
413.728	9405.57455
413.943	9751.61993
414.157	9763.72243
414.372	9825.78834
414.587	9999.1558
414.801	10270.70599
415.016	10004.9755
415.231	10169.58979
415.445	10013.46118
415.66	10128.63718
415.874	10402.64106
416.089	10063.14432
416.304	10785.35242
416.518	10144.95104
416.733	10425.23212
416.947	10079.18438
417.162	10111.36722
417.376	10532.56542
417.59	10807.65428
417.805	10740.60222
418.019	10485.72314
418.234	10540.46388
418.448	10303.39233
418.663	10558.66314
418.877	10413.90867
419.091	10496.01135
419.306	10422.45775
419.52	10676.79678
419.734	10470.29904
419.949	11036.9197
420.163	11109.48623
420.377	10681.75486
420.591	10625.54271
420.806	10940.1211
421.02	10534.39687
421.234	10855.38853
421.448	10805.10604
421.663	11070.40316
421.877	10596.68617
422.091	10761.01487
422.305	10448.82219
422.519	10738.00946
422.733	11359.30199
422.947	10586.22998
423.161	10560.95092
423.376	10748.22983
423.59	10956.51071
423.804	10898.26901
424.018	10839.79629
424.232	10794.02094
424.446	11233.14148
424.66	11156.60802
424.874	10785.94227
425.088	10650.30607
425.302	10741.14553
425.515	11034.70202
425.729	11337.17523
425.943	11352.49804
426.157	11240.24859
426.371	10932.80779
426.585	11242.96318
426.799	11227.681
427.013	11728.50789
427.226	11785.9782
427.44	10954.47879
427.654	11113.07548
427.868	11076.09164
428.081	11360.31371
428.295	11123.1287
428.509	11167.79658
428.723	11091.12257
428.936	11039.50401
429.15	10746.8263
429.364	11050.15739
429.577	10537.83874
429.791	10813.39833
430.005	11342.46275
430.218	11200.7187
430.432	10679.59923
430.645	10729.21604
430.859	10825.88106
431.073	10730.07131
431.286	11134.08038
431.5	11209.84855
431.713	10484.63483
431.927	10590.66214
432.14	11084.28394
432.354	10811.62074
432.567	10869.3442
432.781	11031.28385
432.994	10965.06213
433.207	11151.18639
433.421	11324.32609
433.634	11125.26683
433.848	11524.71177
434.061	11070.47755
434.274	10599.45035
434.488	10738.65162
434.701	10607.42123
434.914	10779.82415
435.127	11126.72597
435.341	11192.72576
435.554	11186.69829
435.767	11548.26117
435.98	11577.3743
436.194	10866.00158
436.407	11086.31678
436.62	12068.27824
436.833	11807.1076
437.046	11598.64695
437.259	11289.38969
437.473	11744.24154
437.686	11863.03592
437.899	11520.32645
438.112	11986.67336
438.325	11655.69188
438.538	11829.99278
438.751	12736.61317
438.964	11885.8205
439.177	12280.89419
439.39	12134.9979
439.603	13000.32841
439.816	12393.75836
440.029	13199.24092
440.242	13498.88988
440.455	13849.36655
440.668	13392.59612
440.881	12869.14399
441.094	12737.08078
441.306	13451.39145
441.519	14020.43028
441.732	14021.07043
441.945	14156.83748
442.158	13307.17822
442.37	13262.58131
442.583	14126.79256
442.796	14781.30081
443.009	14484.66546
443.222	13923.56674
443.434	13079.49341
443.647	14252.89143
443.86	15136.80598
444.072	15436.25637
444.285	14841.26404
444.498	15140.59154
444.71	14572.4844
444.923	14891.36138
445.136	14504.74734
445.348	14211.48174
445.561	14253.27506
445.773	14785.57217
445.986	13715.01628
446.198	14990.50144
446.411	15158.04611
446.623	15198.65113
446.836	15075.5607
447.048	15172.44257
447.261	15769.08119
447.473	15740.67728
447.686	15045.64063
447.898	15150.34264
448.11	16204.14477
448.323	16323.43699
448.535	16116.33917
448.748	15355.22338
448.96	15376.58247
449.172	15539.57014
449.385	14870.55874
449.597	15861.52332
449.809	15741.25724
450.021	16141.76476
450.234	16278.16049
450.446	15466.93128
450.658	15414.2842
450.87	15700.29308
451.083	16064.24239
451.295	16124.91376
451.507	15899.12577
451.719	15893.26838
451.931	16172.12197
452.143	16180.49791
452.356	16025.51424
452.568	16128.87338
452.78	15996.18562
452.992	16401.29315
453.204	17000.88423
453.416	16185.82179
453.628	15753.28692
453.84	16016.97914
454.052	15969.51609
454.264	16898.80089
454.476	16598.26793
454.688	17342.49152
454.9	17325.68221
455.112	16372.69413
455.324	16061.5126
455.536	16695.6625
455.747	17137.5548
455.959	17042.25835
456.171	17067.2904
456.383	16592.56528
456.595	16126.14931
456.807	16235.32754
457.018	16255.44892
457.23	16979.59399
457.442	16388.88116
457.654	16869.40462
457.865	16561.87512
458.077	16005.39481
458.289	16029.98554
458.501	16472.61848
458.712	17286.1872
458.924	17863.49057
459.136	16744.4641
459.347	16513.20488
459.559	16619.17827
459.77	17504.90046
459.982	17671.07817
460.194	17448.6196
460.405	16639.57877
460.617	16749.96847
460.828	17553.41603
461.04	17437.59871
461.251	16840.89559
461.463	18320.65653
461.674	17863.49057
461.886	17657.88654
462.097	17244.83441
462.309	17730.08388
462.52	17023.35361
462.731	18480.52501
462.943	17137.24151
463.154	16734.03681
463.366	17101.33988
463.577	17624.415
463.788	18128.49862
464	18344.20548
464.211	18479.39627
464.422	19517.49525
464.634	19183.77788
464.845	18754.09365
465.056	19181.9972
465.267	18936.5411
465.478	18010.74426
465.69	19012.09681
465.901	18771.63021
466.112	18793.81972
466.323	18894.66357
466.534	19512.56637
466.745	19428.3602
466.957	19648.29877
467.168	19450.82881
467.379	19405.64022
467.59	18709.93487
467.801	18298.32332
468.012	19062.35241
468.223	19497.14329
468.434	19000.39491
468.645	20023.12555
468.856	20336.0754
469.067	19784.46795
469.278	20082.38305
469.489	20337.92572
469.7	19326.18368
469.911	19278.37966
470.122	20643.1379
470.333	21150.57339
470.543	19919.13985
470.754	20727.618
470.965	20792.35117
471.176	20857.75115
471.387	21408.72556
471.598	20699.21457
471.808	20390.56812
472.019	20931.55239
472.23	21049.39109
472.441	20415.40768
472.651	21248.18793
472.862	21130.22398
473.073	21765.98067
473.283	21267.39579
473.494	21200.41797
473.705	21151.8593
473.915	21535.70848
474.126	22248.33044
474.337	21855.62426
474.547	22398.46119
474.758	22776.74627
474.968	22493.47365
475.179	22675.94202
475.389	22324.68723
475.6	22804.91
475.81	23288.36406
476.021	23601.03134
476.231	23968.24024
476.442	23432.41902
476.652	22920.67411
476.863	23252.41067
477.073	23186.77568
477.284	23817.87966
477.494	23600.64336
477.704	24894.0093
477.915	25463.57395
478.125	24140.78105
478.335	24692.86674
478.546	25790.12871
478.756	25157.96812
478.966	25370.30278
479.177	25503.43464
479.387	25709.39538
479.597	25834.26005
479.807	25923.40023
480.018	25669.2865
480.228	26275.72111
480.438	26335.15672
480.648	26850.95812
480.858	26774.25995
481.068	26128.64259
481.279	27007.21758
481.489	28078.83382
481.699	27536.81704
481.909	27311.39024
482.119	29062.33544
482.329	28890.88685
482.539	28703.96254
482.749	28155.49608
482.959	28896.17172
483.169	29736.89824
483.379	29342.85646
483.589	30090.02421
483.799	29611.95695
484.009	29409.36938
484.219	29610.33358
484.429	30039.63418
484.639	29674.08845
484.849	30249.93887
485.059	30560.0665
485.268	30756.10987
485.478	31175.41226
485.688	30423.11707
485.898	30638.34587
486.108	30839.07577
486.317	31200.25605
486.527	31166.68522
486.737	31928.32607
486.947	31609.90104
487.156	32229.26592
487.366	31808.66565
487.576	31213.80787
487.785	31458.58866
487.995	31539.68835
488.205	31837.64912
488.414	32207.77193
488.624	31859.27567
488.834	32055.04059
489.043	31586.70252
489.253	31494.68993
489.462	32046.31056
489.672	32441.30643
489.882	32451.16419
490.091	32716.06418
490.301	32424.23591
490.51	32659.04515
490.72	32661.30345
490.929	32808.07708
491.138	33300.04819
491.348	32900.79553
491.557	32914.2246
491.767	33185.66367
491.976	32972.82102
492.185	33103.30297
492.395	32860.90023
492.604	33189.95768
492.813	33238.60325
493.023	33612.723
493.232	33306.14103
493.441	33262.89204
493.651	33694.29014
493.86	33249.81105
494.069	33674.76785
494.278	33643.29361
494.488	33757.78392
494.697	33635.72543
494.906	33495.90067
495.115	34036.81062
495.324	33621.55849
495.533	34130.2208
495.743	34113.41557
495.952	34632.63496
496.161	34422.62734
496.37	34619.86547
496.579	34688.65305
496.788	34768.43787
496.997	34875.80717
497.206	34717.58256
497.415	34716.93016
497.624	34770.75369
497.833	34955.31202
498.042	34955.96582
498.251	34953.74066
498.46	35065.97631
498.669	35006.49127
498.878	34967.53436
499.087	34983.24381
499.296	35263.8835
499.504	35110.12698
499.713	35184.41306
499.922	35173.80302
500.131	35183.12581
500.34	35232.15056
500.549	35225.42755
500.757	35210.66028
500.966	35263.09961
501.175	35250.8519
501.384	35313.08952
501.592	35223.45187
501.801	35362.339
502.01	35336.29273
502.218	35357.63929
502.427	35422.39542
502.636	35255.23844
502.844	35327.91804
503.053	35257.45101
503.262	35416.83353
503.47	35271.07668
503.679	35355.23801
503.887	35352.8784
504.096	35306.99488
504.304	35339.61855
504.513	35393.08751
504.721	35368.93354
504.93	35318.61145
505.138	35358.90233
505.347	35312.33429
505.555	35286.28966
505.764	35321.90438
505.972	35292.32916
506.18	35175.1572
506.389	35273.44211
506.597	35142.62523
506.806	35294.96567
507.014	35241.64706
507.222	35287.65526
507.431	35268.2801
507.639	35227.12982
507.847	35288.48474
508.055	35259.55828
508.264	35278.3217
508.472	35328.57565
508.68	35245.74141
508.888	35357.9627
509.096	35275.94558
509.305	35318.65516
509.513	35254.03558
509.721	35248.98173
509.929	35318.70256
510.137	35288.49574
510.345	35335.5341
510.553	35302.05833
510.762	35370.0632
510.97	35260.80373
511.178	35287.19764
511.386	35347.57701
511.594	35326.25
511.802	35382.9296
512.01	35319.05613
512.218	35400.75292
512.426	35341.4364
512.634	35396.1093
512.842	35429.77092
513.049	35384.59595
513.257	35410.56235
513.465	35425.6567
513.673	35400.38098
513.881	35456.66304
514.089	35522.55037
514.297	35503.57767
514.504	35486.97957
514.712	35484.69233
514.92	35437.52347
515.128	35578.10247
515.336	35453.70033
515.543	35508.49139
515.751	35433.04549
515.959	35413.05748
516.166	35402.65807
516.374	35374.84201
516.582	35354.50597
516.789	35362.62438
516.997	35316.97827
517.205	35335.21245
517.412	35328.20596
517.62	35299.54817
517.827	35305.13212
518.035	35196.30675
518.243	35211.09022
518.45	35067.35256
518.658	35117.87795
518.865	34942.27586
519.073	35089.76979
519.28	34932.14805
519.488	34929.64075
519.695	34868.73126
519.902	34843.60348
520.11	34824.89087
520.317	34909.85142
520.525	34813.53194
520.732	34700.47239
520.939	34760.65886
521.147	34521.02753
521.354	34698.75068
521.561	34584.34222
521.769	34582.86302
521.976	34384.55831
522.183	34583.39218
522.391	34447.91484
522.598	34499.13023
522.805	34446.80334
523.012	34540.39123
523.219	34458.31235
523.427	34503.87008
523.634	34560.88572
523.841	34533.74743
524.048	34476.06977
524.255	34386.28613
524.462	34398.04655
524.669	34150.63288
524.877	34424.66508
525.084	34282.49266
525.291	34244.43286
525.498	34470.02278
525.705	34442.22099
525.912	34614.10322
526.119	34410.92596
526.326	34515.386
526.533	34494.95733
526.74	34704.27461
526.947	34371.79931
527.153	34617.90242
527.36	34486.64207
527.567	34633.40813
527.774	34646.18594
527.981	34594.44845
528.188	34534.92558
528.395	34689.42454
528.602	34579.7706
528.808	34646.35547
529.015	34405.52024
529.222	34765.40854
529.429	34417.01655
529.635	34649.97864
529.842	34551.49793
530.049	34699.22503
530.256	34598.12853
530.462	34788.46309
530.669	34573.12472
530.876	34701.42397
531.082	34636.59275
531.289	34551.62888
531.495	34562.66241
531.702	34706.35439
531.909	34660.43378
532.115	34834.68515
532.322	34543.95361
532.528	34591.95235
532.735	34646.47411
532.941	34626.64096
533.148	34567.23628
533.354	34615.1931
533.561	34761.86083
533.767	34554.05389
533.974	34550.48821
534.18	34606.91385
534.387	34460.45801
534.593	34539.02422
534.799	34524.82879
535.006	34445.36885
535.212	34452.02494
535.418	34559.51449
535.625	34562.04014
535.831	34460.04709
536.037	34384.43984
536.244	34448.22255
536.45	34177.22833
536.656	34271.6968
536.862	34444.18578
537.068	34470.26243
537.275	34479.03905
537.481	34504.34248
537.687	34529.75854
537.893	34559.65343
538.099	34483.49479
538.305	34454.57163
538.512	34396.68369
538.718	34347.26759
538.924	34400.29369
539.13	34140.91312
539.336	34471.03234
539.542	34371.61302
539.748	34397.38392
539.954	34258.32499
540.16	34376.77928
540.366	34329.75093
540.572	34324.64679
540.778	34279.87778
540.984	34227.81098
541.19	34158.49307
541.396	33968.8323
541.602	34142.20309
541.807	33963.03536
542.013	34108.36133
542.219	33736.15596
542.425	33971.62019
542.631	33866.34217
542.837	33794.60279
543.042	33566.55304
543.248	33776.85571
543.454	33824.14846
543.66	33699.40734
543.865	33705.963
544.071	33720.5868
544.277	33606.55215
544.483	33604.17473
544.688	33460.26966
544.894	33738.74107
545.1	33750.60329
545.305	33580.65095
545.511	33420.78201
545.716	33488.53119
545.922	33140.44982
546.128	33261.09744
546.333	33344.77314
546.539	33461.3084
546.744	33365.93581
546.95	33436.36054
547.155	33320.37151
547.361	33352.87424
547.566	32909.86551
547.772	33132.08352
547.977	33117.57886
548.182	33078.58977
548.388	33070.0909
548.593	33230.7166
548.799	32880.48088
549.004	32939.47739
549.209	33056.06854
549.415	33217.43529
549.62	32920.36131
549.825	32904.50064
550.031	32776.82777
550.236	32918.74128
550.441	32863.87766
550.646	32940.26846
550.852	33067.22095
551.057	33004.49943
551.262	33072.34199
551.467	32949.38023
551.672	32765.42659
551.878	33000.72616
552.083	32800.53049
552.288	32706.87643
552.493	32793.30969
552.698	32810.09212
552.903	32773.05398
553.108	33166.59287
553.313	32718.5826
553.518	32791.8288
553.723	32763.77625
553.928	32829.57929
554.133	32741.40705
554.338	32769.53412
554.543	32836.87368
554.748	32582.97564
554.953	32784.60546
555.158	33075.48662
555.363	32514.49079
555.568	32525.12014
555.773	32786.74144
555.978	32721.62661
556.182	32347.02571
556.387	32434.16576
556.592	32499.1811
556.797	32680.13181
557.002	32614.29451
557.206	32619.96088
557.411	32468.37525
557.616	32322.41619
557.821	32666.46146
558.025	32360.51947
558.23	32305.42465
558.435	32456.19961
558.64	32328.77898
558.844	32174.13444
559.049	32339.23201
559.253	32411.70702
559.458	32076.66682
559.663	32382.53209
559.867	32141.70605
560.072	31964.71547
560.276	32051.62077
560.481	31985.14895
560.685	32065.59085
560.89	31756.85846
561.094	31773.23954
561.299	31728.22187
561.503	31672.72255
561.708	31810.23589
561.912	31618.59346
562.117	31516.14506
562.321	31355.46827
562.525	31675.13125
562.73	31530.08666
562.934	31446.5414
563.139	31433.8899
563.343	31487.69434
563.547	31217.60226
563.752	31481.22915
563.956	31285.14498
564.16	31550.23363
564.364	31079.38273
564.569	31132.15109
564.773	31221.85527
564.977	31043.08289
565.181	31155.40802
565.385	30846.25868
565.59	31120.79408
565.794	30992.49682
565.998	30983.23406
566.202	31038.3202
566.406	30736.94653
566.61	31136.27242
566.814	30769.34416
567.018	30721.922
567.222	30661.48924
567.426	30447.38951
567.63	30485.65456
567.834	30590.04981
568.038	30569.70337
568.242	30376.50657
568.446	30307.88518
568.65	30271.3296
568.854	30364.37167
569.058	30603.17471
569.262	30308.50168
569.466	30525.07725
569.67	30102.76262
569.874	30093.94026
570.078	30588.06069
570.281	30110.24831
570.485	30204.5598
570.689	30023.22044
570.893	29784.51403
571.097	30081.98402
571.3	29716.06434
571.504	30002.57403
571.708	29865.39725
571.912	29917.25814
572.115	29734.64656
572.319	29531.68601
572.523	29852.9553
572.726	29532.12763
572.93	29344.09568
573.133	29626.93826
573.337	29406.81596
573.541	29341.46644
573.744	29309.68311
573.948	29358.02473
574.151	29258.61645
574.355	29189.26408
574.558	29254.06276
574.762	29325.65566
574.965	29068.37861
575.169	29273.50316
575.372	28710.24849
575.576	28923.11496
575.779	28833.38198
575.983	28942.97219
576.186	28905.55314
576.389	28936.04605
576.593	28715.49571
576.796	28807.6333
577	28425.48265
577.203	28614.71699
577.406	28687.8776
577.609	28327.92287
577.813	28407.62913
578.016	28317.7901
578.219	28471.99182
578.423	28272.82975
578.626	28134.53945
578.829	28275.8416
579.032	28064.80158
579.235	28465.84653
579.438	28278.93696
579.642	28277.34516
579.845	27915.5778
580.048	28098.52295
580.251	27679.36669
580.454	28119.92518
580.657	27943.43589
580.86	28052.97379
581.063	27568.58384
581.266	27978.94866
581.469	27807.80058
581.672	27926.13734
581.875	27752.47389
582.078	27765.77204
582.281	27513.10481
582.484	27732.82587
582.687	27777.82958
582.89	27724.36759
583.093	27571.57839
583.296	27429.55981
583.499	27749.96712
583.702	27454.64215
583.904	27454.28043
584.107	27463.92794
584.31	27494.55874
584.513	27320.5832
584.716	27582.72908
584.918	27358.92844
585.121	27444.49334
585.324	27110.94503
585.527	27120.72678
585.729	27388.91631
585.932	27133.77337
586.135	27263.89184
586.337	26918.67044
586.54	27077.20622
586.743	27048.99149
586.945	26934.88502
587.148	26875.27371
587.35	27078.47769
587.553	26924.94496
587.755	27052.12715
587.958	26842.66633
588.161	26830.88609
588.363	26575.7944
588.566	26791.13981
588.768	26905.63525
588.971	27017.89399
589.173	26618.05538
589.375	26615.17099
589.578	26695.55923
589.78	26519.36392
589.983	26519.63152
590.185	26620.94329
590.387	26240.12434
590.59	26247.00802
590.792	25959.00535
590.994	25919.29141
591.197	25749.00942
591.399	25784.48741
591.601	25504.93154
591.803	25506.71687
592.006	25530.87993
592.208	25461.05826
592.41	25481.1682
592.612	25316.40773
592.815	25022.99751
593.017	25254.62377
593.219	25044.43399
593.421	24867.91276
593.623	24824.45322
593.825	24724.45978
594.027	24725.6978
594.229	24817.70723
594.432	24455.04632
594.634	24757.53597
594.836	24343.7899
595.038	24664.28836
595.24	24283.59227
595.442	24165.06154
595.644	24038.88278
595.846	24136.36533
596.048	24057.80636
596.249	23672.09668
596.451	23783.70847
596.653	23826.55088
596.855	23886.53101
597.057	23832.92227
597.259	23825.27512
597.461	23635.21835
597.663	23503.56973
597.864	23617.80948
598.066	23664.17866
598.268	23604.91373
598.47	23480.77336
598.671	23426.77748
598.873	23447.47296
599.075	23454.71063
599.277	23597.77225
599.478	23310.8414
599.68	23343.09558
599.882	23456.16254
600.083	23477.26182
600.285	23461.09542
600.487	23275.49767
600.688	23183.40286
600.89	23570.84001
601.091	23417.01745
601.293	23547.66411
601.494	23282.01909
601.696	23201.98465
601.898	23332.83331
602.099	23314.28535
602.301	23386.43669
602.502	23301.39892
602.703	23411.37482
602.905	23181.77772
603.106	23385.80891
603.308	23130.81298
603.509	23429.67589
603.711	22929.89496
603.912	23028.86632
604.113	23014.18753
604.315	23025.70391
604.516	23028.23232
604.717	22918.87848
604.919	23101.48441
605.12	22942.67252
605.321	23302.29855
605.522	23090.74771
605.724	23013.21624
605.925	22995.66384
606.126	22994.15615
606.327	23224.64876
606.528	23127.16457
606.729	23026.4819
606.931	23071.96485
607.132	23095.7742
607.333	22910.37448
607.534	23042.03361
607.735	22992.16257
607.936	22929.04182
608.137	22964.61592
608.338	23192.79986
608.539	23031.84489
608.74	22928.14044
608.941	22935.72052
609.142	22807.79008
609.343	22878.84968
609.544	22946.99681
609.745	22501.50928
609.946	22949.07997
610.147	22756.35344
610.348	22720.83403
610.549	22661.78085
610.75	22780.4531
610.95	22702.00137
611.151	22525.65951
611.352	22756.97439
611.553	22818.22852
611.754	22520.28885
611.954	22794.29621
612.155	22400.70656
612.356	22643.37854
612.557	22580.03856
612.757	22766.60143
612.958	22279.61326
613.159	22727.26528
613.359	22310.83872
613.56	22441.52288
613.761	22584.38523
613.961	22323.05003
614.162	22218.77832
614.362	22171.72822
614.563	22463.69765
614.764	22358.00459
614.964	22133.30359
615.165	22250.33366
615.365	22366.82098
615.566	22148.42532
615.766	21893.29748
615.967	22087.57347
616.167	21794.06404
616.368	21688.50861
616.568	21942.34142
616.768	21928.84235
616.969	21995.20624
617.169	21913.21376
617.37	21619.67192
617.57	21931.4791
617.77	21573.08583
617.971	21652.36551
618.171	21594.95091
618.371	21763.2123
618.571	21526.64957
618.772	21483.66394
618.972	21586.13638
619.172	21295.04433
619.372	21212.81157
619.573	21251.48801
619.773	21335.54586
619.973	21223.69638
620.173	21191.48707
620.373	21222.11214
620.573	21098.11283
620.774	21180.39683
620.974	21002.45876
621.174	20903.63674
621.374	21034.88496
621.574	21155.6409
621.774	21163.92373
621.974	21101.16605
622.174	20972.53107
622.374	21091.02768
622.574	20879.98091
622.774	20874.73861
622.974	20811.65537
623.174	20949.44114
623.374	20785.15496
623.574	20741.4149
623.774	20902.74723
623.973	20738.99103
624.173	20835.7711
624.373	20966.86044
624.573	20648.11413
624.773	20692.0739
624.973	20581.98659
625.172	20552.27061
625.372	20433.95155
625.572	20590.04931
625.772	20424.59982
625.971	20378.30503
626.171	20416.91894
626.371	20640.23682
626.57	20249.37003
626.77	20591.66687
626.97	20301.39417
627.169	20386.39906
627.369	20348.28927
627.569	20508.79243
627.768	20124.03732
627.968	20409.65953
628.167	20344.80076
628.367	20109.34351
628.566	20061.19905
628.766	20340.7498
628.965	20114.67453
629.165	20219.41668
629.364	19940.46984
629.564	20203.22181
629.763	20080.14998
629.963	19994.69599
630.162	20013.21215
630.362	19878.15481
630.561	19876.78321
630.76	19696.17755
630.96	19495.98159
631.159	19664.24709
631.358	19822.21613
631.558	19703.46718
631.757	19593.20873
631.956	19567.94651
632.155	19420.80194
632.355	19393.15981
632.554	19253.07429
632.753	19321.28942
632.952	19201.29207
633.152	19270.32008
633.351	19237.71928
633.55	19337.72866
633.749	19260.28815
633.948	19162.35125
634.147	19057.27429
634.346	19031.80522
634.545	18889.74716
634.744	19080.87358
634.944	18963.22022
635.143	19158.90357
635.342	18784.17195
635.541	18974.92919
635.74	18934.79774
635.939	18746.61476
636.138	18674.70359
636.336	18754.60897
636.535	18560.31972
636.734	18891.84676
636.933	18847.19118
637.132	18690.63753
637.331	18570.92499
637.53	18933.08002
637.729	18594.93794
637.928	18777.7012
638.126	18654.98372
638.325	18516.05198
638.524	18345.97934
638.723	18549.68715
638.921	18390.87695
639.12	18493.29252
639.319	18562.1883
639.518	18472.87779
639.716	18487.18811
639.915	18423.21972
640.114	18527.95426
640.312	18468.75813
640.511	18495.56747
640.71	18509.07173
640.908	18442.34355
641.107	18627.85345
641.305	18279.9243
641.504	18290.03239
641.702	18088.28876
641.901	18359.61471
642.099	18265.94058
642.298	18312.02043
642.496	18196.901
642.695	18264.5901
642.893	18290.94862
643.092	18315.00338
643.29	17986.95428
643.489	18023.0875
643.687	18169.47533
643.885	18151.69199
644.084	17845.86939
644.282	18001.24761
644.48	18188.64545
644.679	17914.76277
644.877	17834.33382
645.075	17991.16474
645.274	17796.68844
645.472	17866.76699
645.67	17758.42356
645.868	17870.02002
646.067	17599.43965
646.265	17929.31779
646.463	17754.0582
646.661	17753.24143
646.859	17627.45392
647.057	17555.29552
647.256	17504.12884
647.454	17771.14031
647.652	17698.98014
647.85	17663.56689
648.048	17656.23617
648.246	17396.42697
648.444	17317.51366
648.642	17365.57383
648.84	17220.71042
649.038	17297.19943
649.236	17153.99281
649.434	17212.51375
649.632	17080.5843
649.83	17106.2584
650.028	16899.53739
650.226	16939.85854
650.423	16831.45283
650.621	16903.42869
650.819	16752.98397
651.017	16652.08284
651.215	16789.67528
651.413	16717.61987
651.61	16466.4832
651.808	16543.27134
652.006	16473.41694
652.204	16639.36551
652.401	16526.43718
652.599	16336.50023
652.797	16365.55972
652.995	16313.41074
653.192	15983.1381
653.39	16345.4924
653.588	16298.25058
653.785	16167.61477
653.983	16222.1641
654.18	16122.34464
654.378	15990.49969
654.576	16079.26953
654.773	16091.93999
654.971	16235.27399
655.168	15973.37934
655.366	16250.12456
655.563	15930.92577
655.761	16000.53562
655.958	15937.79402
656.156	16118.64408
656.353	15781.57503
656.55	15963.54779
656.748	15995.16748
656.945	15739.46581
657.143	15679.24329
657.34	15545.85542
657.537	15631.45336
657.735	15599.56888
657.932	15472.43307
658.129	15377.24802
658.326	15302.23691
658.524	15311.6084
658.721	15150.67258
658.918	15171.70808
659.115	15053.9652
659.313	15195.81024
659.51	14806.35143
659.707	15163.351
659.904	14837.3411
660.101	15181.81775
660.298	15113.84521
660.496	14903.08737
660.693	14968.67557
660.89	15032.64274
661.087	14829.53926
661.284	14814.4291
661.481	14942.00494
661.678	14966.88713
661.875	14857.02646
662.072	14977.71753
662.269	14708.25173
662.466	14966.56175
662.663	14714.32343
662.86	14899.81307
663.057	14912.94989
663.254	14894.45705
663.45	14829.1357
663.647	14700.2461
663.844	14753.36746
664.041	14779.33868
664.238	14642.00929
664.435	14565.14042
664.631	14683.35096
664.828	14879.2641
665.025	14587.66689
665.222	14696.79645
665.419	14668.32726
665.615	14619.72446
665.812	14529.00445
666.009	14692.89549
666.205	14737.06958
666.402	14594.04589
666.599	14617.43066
666.795	14695.32588
666.992	14587.99441
667.188	14521.33007
667.385	14574.79503
667.582	14801.0406
667.778	14846.28311
667.975	14878.56111
668.171	14648.92754
668.368	14620.25894
668.564	14758.13412
668.761	14703.22465
668.957	14518.67141
669.154	14707.4944
669.35	14396.48043
669.547	14654.23465
669.743	14636.97734
669.939	14607.33338
670.136	14441.98167
670.332	14472.90826
670.528	14437.44508
670.725	14579.07595
670.921	14624.6624
671.117	14535.01087
671.314	14408.20475
671.51	14475.60761
671.706	14547.48455
671.902	14367.64224
672.099	14458.19611
672.295	14282.24336
672.491	14319.58882
672.687	14188.26628
672.883	14128.61667
673.08	14344.93297
673.276	14319.99191
673.472	14242.79865
673.668	14151.61601
673.864	14098.33649
674.06	14111.07257
674.256	14215.6281
674.452	14006.48236
674.648	14029.02241
674.844	14034.50324
675.04	14188.40039
675.236	13915.66369
675.432	13866.49827
675.628	13698.10661
675.824	13718.76606
676.02	13865.1133
676.216	13905.72513
676.412	13707.51894
676.608	13683.58502
676.804	13646.97454
676.999	13690.58843
677.195	13434.96175
677.391	13744.5545
677.587	13733.6111
677.783	13685.26863
677.978	13607.39796
678.174	13558.62382
678.37	13545.55474
678.566	13501.09695
678.761	13477.52568
678.957	13397.88693
679.153	13322.03021
679.348	13432.95984
679.544	13296.49182
679.74	13274.00024
679.935	13250.25072
680.131	13447.13717
680.327	13435.05124
680.522	13285.10057
680.718	13292.78455
680.913	13226.59763
681.109	13044.73254
681.304	13321.23936
681.5	13177.97941
681.695	13224.66214
681.891	13042.07726
682.086	13140.94388
682.282	12996.08466
682.477	12815.88179
682.672	13033.46835
682.868	13000.33239
683.063	12953.97868
683.259	12989.08824
683.454	12910.61204
683.649	12852.85271
683.845	12696.58974
684.04	12925.42201
684.235	12818.65247
684.43	12955.83048
684.626	12815.73903
684.821	12858.40101
685.016	12609.07651
685.211	12731.00088
685.407	12728.67159
685.602	12603.43527
685.797	12550.32654
685.992	12599.63786
686.187	12853.02955
686.382	12682.35142
686.577	12594.85503
686.773	12654.90519
686.968	12547.6204
687.163	12566.40721
687.358	12341.1095
687.553	12514.00952
687.748	12613.26127
687.943	12466.5537
688.138	12326.82727
688.333	12341.51685
688.528	12046.07766
688.723	12149.5727
688.918	11988.26525
689.112	12143.81216
689.307	11821.19503
689.502	11893.27026
689.697	11764.69829
689.892	11815.45412
690.087	11568.95768
690.282	11720.82488
690.476	11555.1451
690.671	11538.83018
690.866	11322.72939
691.061	11480.73347
691.255	11311.54721
691.45	11251.94513
691.645	11058.11156
691.84	11172.78385
692.034	10939.39293
692.229	10960.09017
692.424	11002.59358
692.618	10932.86654
692.813	10682.71078
693.007	10643.80064
693.202	10723.13522
693.397	10692.69931
693.591	10662.67608
693.786	10648.8805
693.98	10507.02196
694.175	10636.78827
694.369	10225.53717
694.564	10491.53564
694.758	10434.11949
694.953	10204.39685
695.147	10283.86987
695.342	10200.25411
695.536	10142.53585
695.73	10196.55948
695.925	10146.80579
696.119	10085.20217
696.313	9934.0032
696.508	10138.90058
696.702	10049.36359
696.896	10021.96812
697.091	10019.67519
697.285	10035.27133
697.479	9990.8511
697.673	9940.15449
697.868	9851.62817
698.062	10143.66556
698.256	9875.56342
698.45	9908.03953
698.644	9978.88344
698.839	10058.36998
699.033	9990.57927
699.227	10160.06242
699.421	9929.89953
699.615	10003.2015
699.809	9890.22349
700.003	10043.03418
700.197	9938.45952
700.391	10079.42424
700.585	9776.41603
700.779	10046.88374
700.973	10095.84737
701.167	10116.32613
701.361	9896.44602
701.555	10035.81786
701.749	9833.60771
701.943	10015.19844
702.137	9942.34688
702.331	9910.56921
702.525	9683.38807
702.718	9900.52243
702.912	9925.01815
703.106	9819.38781
703.3	9781.48399
703.494	9954.0598
703.687	9751.95474
703.881	9804.97688
704.075	9842.94549
704.269	9822.84574
704.462	9762.49753
704.656	9985.13811
704.85	9644.36377
705.043	9894.49335
705.237	9802.65165
705.431	9861.01066
705.624	9619.90543
705.818	9773.67856
706.012	9734.47544
706.205	9702.93363
706.399	9519.14785
706.592	9615.55764
706.786	9581.42707
706.979	9644.87944
707.173	9555.53808
707.366	9713.02762
707.56	9706.42296
707.753	9731.15752
707.947	9644.50063
708.14	9601.58453
708.333	9658.39061
708.527	9461.68029
708.72	9465.11615
708.914	9551.93261
709.107	9565.06051
709.3	9609.71052
709.494	9411.82962
709.687	9491.01459
709.88	9535.43217
710.073	9404.21925
710.267	9459.15837
710.46	9534.67493
710.653	9349.81284
710.846	9509.14903
711.04	9371.89257
711.233	9338.28484
711.426	9437.1583
711.619	9386.6531
711.812	9279.93794
712.005	9476.57324
712.198	9396.84038
712.391	9344.942
712.585	9364.69934
712.778	9295.86002
712.971	9360.33124
713.164	9242.21605
713.357	9275.48679
713.55	9212.1686
713.743	9194.4364
713.936	9305.43245
714.129	9237.62558
714.322	9198.63897
714.514	9164.3421
714.707	9138.89963
714.9	9143.22237
715.093	9182.29587
715.286	9160.09917
715.479	9215.96244
715.672	9223.80873
715.864	9281.65109
716.057	9049.27516
716.25	9105.67459
716.443	9042.49404
716.636	8992.5332
716.828	9117.56764
717.021	8940.6712
717.214	8963.91248
717.406	8983.1402
717.599	8841.25388
717.792	8794.17312
717.984	8683.2523
718.177	8862.70295
718.37	8758.57871
718.562	8813.98838
718.755	8690.65777
718.947	8680.21364
719.14	8543.37214
719.333	8627.36217
719.525	8270.76404
719.718	8345.189
719.91	8262.06266
720.103	8229.84015
720.295	8026.74966
720.487	8130.05547
720.68	7993.96151
720.872	7874.62522
721.065	7620.4408
721.257	7783.67456
721.449	7697.83829
721.642	7753.69987
721.834	7490.09679
722.026	7635.64517
722.219	7287.6967
722.411	7474.72182
722.603	7303.27619
722.796	7343.63526
722.988	7120.59794
723.18	7232.96871
723.372	7094.92223
723.565	7069.07353
723.757	6961.30542
723.949	7037.27872
724.141	6899.16276
724.333	7009.49891
724.525	6824.42956
724.717	6840.05096
724.91	6853.79862
725.102	6812.27071
725.294	6543.41922
725.486	6696.6263
725.678	6552.84128
725.87	6541.66933
726.062	6448.35134
726.254	6544.68048
726.446	6432.67296
726.638	6452.47661
726.83	6275.04848
727.022	6396.82895
727.213	6295.98707
727.405	6295.23398
727.597	6175.03022
727.789	6201.5639
727.981	6143.98338
728.173	6267.1261
728.365	6182.06053
728.556	6244.30304
728.748	6074.25318
728.94	6289.23288
729.132	6196.57158
729.324	6121.27748
729.515	6078.80405
729.707	6140.52901
729.899	6033.54419
730.09	6165.86734
730.282	6050.51383
730.474	6143.27592
730.665	6038.3255
730.857	6151.12832
731.049	5974.44266
731.24	6089.80117
731.432	5899.71292
731.623	6092.73374
731.815	6013.72541
732.006	6037.05355
732.198	6054.82418
732.389	5888.61337
732.581	6015.42272
732.772	5949.54339
732.964	5980.44312
733.155	6048.73121
733.347	5874.51651
733.538	5997.46321
733.729	5941.53125
733.921	5933.5004
734.112	5967.53096
734.304	6076.47241
734.495	6037.56623
734.686	6015.63545
734.877	6017.16867
735.069	5942.52669
735.26	5882.99523
735.451	5944.26803
735.643	5870.21688
735.834	6049.34937
736.025	6101.10812
736.216	5969.47362
736.407	5900.03868
736.599	5976.05674
736.79	5964.88101
736.981	6181.12547
737.172	5998.79124
737.363	6079.11815
737.554	6028.39341
737.745	6132.47167
737.936	6022.93919
738.127	6237.52383
738.318	6069.80751
738.509	6221.55944
738.7	6134.53409
738.891	6289.22412
739.082	6097.94168
739.273	6198.55185
739.464	6152.91603
739.655	6243.40864
739.846	6241.01833
740.037	6291.61281
740.228	6293.48765
740.419	6351.56384
740.609	6198.08656
740.8	6194.37474
740.991	6310.79738
741.182	6254.20322
741.373	6220.60445
741.563	6338.13793
741.754	6185.77709
741.945	6434.30332
742.136	6343.03213
742.326	6338.52427
742.517	6514.40287
742.708	6391.18234
742.898	6181.55066
743.089	6292.72519
743.28	6153.56735
743.47	6386.30237
743.661	6340.89707
743.851	6348.04941
744.042	6179.17112
744.233	6298.87963
744.423	6261.61778
744.614	6346.55281
744.804	6247.4623
744.995	6236.00752
745.185	6096.01342
745.376	6325.84501
745.566	6283.82506
745.756	6398.07775
745.947	6183.82208
746.137	6322.08351
746.328	6158.55757
746.518	6291.8494
746.708	6173.51572
746.899	6248.81619
747.089	6225.57685
747.279	6110.98314
747.47	6145.35992
747.66	6288.71876
747.85	6250.46115
748.04	6268.00845
748.231	6256.0863
748.421	6172.97319
748.611	6106.54146
748.801	6248.55384
748.991	5961.39798
749.182	6070.39367
749.372	6048.74948
749.562	6074.66038
749.752	6050.98936
749.942	6016.89098
750.132	6079.8838
750.322	6267.25442
750.512	5826.43786
750.702	6080.39315
750.892	5958.06118
751.082	6100.62151
751.272	5914.07709
751.462	5994.81447
751.652	5838.29421
751.842	6059.05005
752.032	5874.57549
752.222	5991.55109
752.412	5818.58546
752.602	5906.24295
752.792	5815.68523
752.981	5875.89244
753.171	5697.81564
753.361	5807.59104
753.551	5753.23079
753.741	5757.21474
753.93	5796.02471
754.12	5786.96117
754.31	5684.75669
754.5	5779.79972
754.689	5613.84325
754.879	5752.78513
755.069	5609.21078
755.258	5730.04511
755.448	5537.80291
755.638	5789.26688
755.827	5579.29626
756.017	5678.39189
756.206	5535.36392
756.396	5566.24292
756.586	5527.64382
756.775	5633.53999
756.965	5533.65766
757.154	5611.8794
757.344	5481.84242
757.533	5492.06319
757.723	5526.45775
757.912	5447.31522
758.101	5597.57781
758.291	5581.06458
758.48	5456.64392
758.67	5434.59873
758.859	5451.29451
759.048	5551.63476
759.238	5398.16765
759.427	5301.67632
759.616	5325.05977
759.806	5397.32189
759.995	5340.58061
760.184	5369.40155
760.373	5376.44481
760.563	5397.43966
760.752	5241.96894
760.941	5349.95148
761.13	5089.57243
761.319	5171.4587
761.509	5001.69218
761.698	4945.38177
761.887	4969.53626
762.076	4997.04819
762.265	4755.65954
762.454	4912.02275
762.643	4541.06541
762.832	4646.6667
763.021	4463.38172
763.21	4438.11273
763.399	4234.97452
763.588	4235.33608
763.777	4261.93794
763.966	4224.67334
764.155	4078.74869
764.344	3987.97134
764.533	3869.47208
764.722	3820.5616
764.911	3699.43914
765.1	3674.57345
765.288	3516.38193
765.477	3511.02202
765.666	3404.49248
765.855	3324.36814
766.044	3193.16819
766.232	3198.14355
766.421	3087.2178
766.61	3205.96019
766.799	2831.89043
766.987	2923.35553
767.176	2747.60509
767.365	2874.09363
767.553	2680.15545
767.742	2816.99383
767.931	2681.48593
768.119	2648.60562
768.308	2515.73294
768.497	2563.36124
768.685	2469.72521
768.874	2577.50059
769.062	2479.34626
769.251	2421.14068
769.439	2403.3986
769.628	2643.06239
769.816	2421.14068
770.005	2444.62017
770.193	2498.48154
770.382	2603.49734
770.57	2497.64233
770.758	2617.61565
770.947	2562.69502
771.135	2741.83055
771.323	2586.3638
771.512	2747.40945
771.7	2692.41312
771.888	2752.92583
772.077	2796.20804
772.265	2808.29604
772.453	2756.92868
772.642	2932.49183
772.83	2958.74291
773.018	2991.01439
773.206	2915.05203
773.394	3054.98264
773.583	3018.63792
773.771	3264.8144
773.959	3140.88007
774.147	3177.1955
774.335	3296.28693
774.523	3238.32764
774.711	3316.69586
774.899	3388.45134
775.087	3406.54458
775.275	3506.4173
775.463	3443.14025
775.651	3602.31682
775.839	3516.65832
776.027	3624.73042
776.215	3671.50271
776.403	3771.65653
776.591	3572.78711
776.779	3808.11715
776.967	3697.85362
777.155	3815.32853
777.343	3744.50386
777.531	3878.53672
777.718	3753.70149
777.906	3831.61099
778.094	3789.37745
778.282	3917.00991
778.47	3817.63005
778.657	3844.04665
778.845	3736.6997
779.033	4049.90297
779.22	3742.42387
779.408	3828.48085
779.596	3901.07646
779.783	3903.93574
779.971	3814.54007
780.159	3813.11655
780.346	3825.3328
780.534	3991.04001
780.722	3803.79908
780.909	3951.09369
781.097	3834.24955
781.284	3916.01962
781.472	3760.26596
781.659	3821.74979
781.847	3748.68414
782.034	3923.0816
782.222	3696.19135
782.409	3831.80877
782.597	3613.28698
782.784	3793.69208
782.971	3767.89645
783.159	3917.08732
783.346	3706.40776
783.533	3767.50827
783.721	3703.43346
783.908	3834.46274
784.095	3702.07731
784.283	3780.39273
784.47	3618.01055
784.657	3739.34721
784.844	3641.73056
785.032	3747.94553
785.219	3644.05964
785.406	3706.78508
785.593	3564.7063
785.78	3644.35046
785.968	3736.09548
786.155	3697.99974
786.342	3576.08248
786.529	3627.09873
786.716	3606.88597
786.903	3633.82017
787.09	3540.26974
787.277	3722.87497
787.464	3540.73816
787.651	3613.64235
787.838	3619.73882
788.025	3596.19611
788.212	3367.94881
788.399	3582.21251
788.586	3489.02639
788.773	3545.90804
788.96	3454.29552
789.147	3485.97848
789.334	3313.5363
789.521	3519.19763
789.707	3316.30383
789.894	3402.7467
790.081	3377.75112
790.268	3434.83314
790.455	3368.0071
790.641	3393.17525
790.828	3256.29969
791.015	3369.35097
791.202	3332.92375
791.388	3311.86577
791.575	3215.31221
791.762	3291.73206
791.948	3256.29969
792.135	3262.11247
792.322	3101.05325
792.508	3113.21833
792.695	3220.82591
792.881	3160.84436
793.068	3147.93371
793.254	3170.99267
793.441	3055.22515
793.627	3048.04217
793.814	3032.22686
794	3105.3714
794.187	2992.32092
794.373	3062.7113
794.56	2801.12505
794.746	2990.90611
794.933	2959.21193
795.119	3004.76257
795.305	2920.3144
795.492	3062.61337
795.678	2959.74334
795.864	2986.27503
796.051	2894.00915
796.237	2932.26324
796.423	2847.92793
796.61	2937.84848
796.796	2956.56905
796.982	2969.69684
797.168	2828.52026
797.355	2977.01063
797.541	2802.48991
797.727	2969.69684
797.913	2751.08765
798.099	2875.74531
798.285	2764.58114
798.471	2883.34578
798.658	2724.92847
798.844	2728.18109
799.03	2807.9698
799.216	2900.68927
799.402	2740.6604
799.588	2909.72396
799.774	2819.57346
799.96	2831.65014
800.146	2657.59671
800.332	2818.4431
800.518	2606.94465
800.704	2790.5586
800.89	2762.40295
801.075	2842.84617
801.261	2759.49046
801.447	2827.00576
801.633	2756.05337
801.819	2792.17019
802.005	2743.232
802.19	2881.83004
802.376	2775.87539
802.562	2849.45153
802.748	2668.21197
802.934	2810.07425
803.119	2716.72124
803.305	2767.88863
803.491	2712.34178
803.676	2757.63273
803.862	2718.2459
804.048	2828.99423
804.233	2708.76945
804.419	2849.58186
804.605	2684.39208
804.79	2870.14414
804.976	2685.75385
805.161	2740.62226
805.347	2780.63689
805.532	2812.00179
805.718	2719.37504
805.903	2674.13072
806.089	2720.34567
806.274	2771.52211
806.46	2640.57078
806.645	2777.25531
806.831	2657.97638
807.016	2772.00397
807.201	2798.8622
807.387	2661.8316
807.572	2626.30775
807.757	2758.11577
807.943	2693.38484
808.128	2745.12548
808.313	2584.48747
808.499	2822.22844
808.684	2624.43934
808.869	2687.85374
809.054	2545.70081
809.24	2692.02083
809.425	2557.1178
809.61	2780.23691
809.795	2565.5375
809.98	2697.47991
810.165	2596.2633
810.35	2743.82638
810.536	2570.20007
810.721	2611.61004
810.906	2584.86806
811.091	2674.592
811.276	2553.3585
811.461	2508.88636
811.646	2491.94523
811.831	2484.56423
812.016	2540.87473
812.201	2620.1246
812.386	2584.87513
812.571	2552.3984
812.756	2453.46128
812.941	2507.91962
813.125	2411.27096
813.31	2483.28801
813.495	2501.67107
813.68	2519.42526
813.865	2503.23202
814.05	2536.81043
814.234	2423.8365
814.419	2468.58035
814.604	2350.03527
814.789	2465.1651
814.973	2396.1457
815.158	2379.85778
815.343	2330.9329
815.528	2292.13241
815.712	2177.89419
815.897	2371.27563
816.081	2251.60586
816.266	2328.17353
816.451	2197.69648
816.635	2127.52736
816.82	2159.97782
817.004	2212.28558
817.189	2122.3324
817.374	2141.52321
817.558	2058.45954
817.743	2033.78521
817.927	2042.79476
818.111	2051.99736
818.296	1955.47652
818.48	1989.17568
818.665	1916.38369
818.849	1853.82042
819.034	1945.0515
819.218	1924.64621
819.402	1725.34869
819.587	1835.94635
819.771	1743.35707
819.955	1801.06652
820.14	1733.73758
820.324	1750.6365
820.508	1657.2773
820.692	1784.44195
820.877	1692.68319
821.061	1699.1816
821.245	1603.52849
821.429	1605.96715
821.613	1534.66532
821.798	1674.1378
821.982	1461.07159
822.166	1603.49781
822.35	1568.01254
822.534	1635.07532
822.718	1374.37908
822.902	1550.10214
823.086	1435.1234
823.27	1493.79041
823.454	1456.25288
823.638	1475.98415
823.822	1353.9618
824.006	1449.91645
824.19	1361.05719
824.374	1510.2409
824.558	1232.93147
824.742	1431.27757
824.926	1262.44176
825.11	1426.8758
825.294	1260.82529
825.477	1368.16164
825.661	1306.11094
825.845	1347.55214
826.029	1243.29941
826.213	1402.0207
826.396	1257.76433
826.58	1306.33611
826.764	1329.80163
826.948	1292.98411
827.131	1183.08526
827.315	1346.91752
827.499	1325.91932
827.682	1297.47092
827.866	1275.57858
828.05	1284.95447
828.233	1239.84216
828.417	1271.93465
828.6	1198.50363
828.784	1341.95297
828.967	1153.91741
829.151	1323.5419
829.335	1254.69537
829.518	1374.56262
829.701	1211.69314
829.885	1320.00744
830.068	1240.74615
830.252	1279.9213
830.435	1260.80872
830.619	1284.82431
830.802	1212.52324
830.985	1320.82444
831.169	1189.81609
831.352	1179.53886
831.535	1144.52582
831.719	1271.97768
831.902	1213.23689
832.085	1227.08233
832.269	1160.76248
832.452	1294.99097
832.635	1207.6224
832.818	1205.39234
833.002	1241.88927
833.185	1220.15067
833.368	1168.69846
833.551	1170.62909
833.734	1108.12612
833.917	1272.40862
834.1	1171.19546
834.284	1338.25567
834.467	1145.26058
834.65	1315.01665
834.833	1143.2785
835.016	1179.90184
835.199	1121.90622
835.382	1199.77061
835.565	1104.89281
835.748	1199.48357
835.931	1130.70847
836.114	1206.97232
836.297	1084.58288
836.479	1120.8231
836.662	1040.34639
836.845	1089.54622
837.028	1095.97788
837.211	1098.80499
837.394	1107.34168
837.577	1087.28904
837.759	1117.15695
837.942	1042.35026
838.125	995.73762
838.308	1023.17496
838.49	1006.9944
838.673	1003.27777
838.856	1065.18504
839.039	1063.42707
839.221	1073.84854
839.404	1084.99454
839.587	1061.78362
839.769	1086.34831
839.952	961.33544
840.134	1080.47551
840.317	967.11235
840.499	1135.10345
840.682	934.97529
840.865	1112.28195
841.047	1020.26056
841.23	1102.38412
841.412	1022.72117
841.595	996.81468
841.777	942.02367
841.959	1041.07109
842.142	995.04353
842.324	1008.4317
842.507	1002.02133
842.689	1116.80105
842.871	1018.35828
843.054	1136.89705
843.236	999.10425
843.418	1047.55672
843.601	1029.6714
843.783	1054.03387
843.965	981.40957
844.147	1090.18804
844.33	932.603
844.512	977.57999
844.694	942.68937
844.876	1091.24169
845.059	932.83168
845.241	1078.72103
845.423	972.89225
845.605	1005.90523
845.787	902.16689
845.969	1010.83891
846.151	1036.81701
846.333	1115.90371
846.515	989.55406
846.697	930.14639
846.879	960.577
847.061	1074.22255
847.243	855.31074
847.425	1018.42048
847.607	1017.12168
847.789	960.37519
847.971	955.01441
848.153	910.4285
848.335	870.58017
848.517	929.64298
848.699	988.39014
848.881	898.23412
849.062	857.28357
849.244	933.19192
849.426	802.59605
849.608	991.38017
849.789	842.59618
849.971	872.03761
850.153	759.73608
850.335	920.16897
850.516	833.86326
850.698	897.67688
850.88	815.07286
851.061	873.71887
851.243	817.8195
851.425	904.16651
851.606	782.62061
851.788	822.10001
851.969	838.70153
852.151	794.33364
852.333	698.75205
852.514	906.32917
852.696	739.46023
852.877	786.99442
853.059	776.90716
853.24	737.83174
853.422	680.85714
853.603	847.73061
853.784	678.44783
853.966	777.71943
854.147	638.59658
854.329	803.21023
854.51	721.54488
854.691	737.04605
854.873	701.6888
855.054	687.13306
855.235	672.83521
855.416	682.2473
855.598	575.82254
855.779	754.04834
855.96	693.18153
856.141	658.2177
856.323	552.63157
856.504	622.36537
856.685	610.53607
856.866	639.76989
857.047	565.53683
857.228	620.26679
857.409	556.31986
857.591	587.14461
857.772	564.03574
857.953	504.72449
858.134	544.44586
858.315	612.14977
858.496	480.37295
858.677	580.56604
858.858	508.47858
859.039	639.86979
859.22	559.64456
859.401	562.21076
859.582	504.78379
859.762	490.64743
859.943	467.3613
860.124	579.88214
860.305	415.19405
860.486	507.16448
860.667	490.64743
860.848	499.74721
861.028	525.27275
861.209	492.99431
861.39	485.77726
861.571	502.87458
861.751	494.97857
861.932	492.30904
862.113	485.50768
862.293	460.79663
862.474	434.75764
862.655	507.81716
862.835	472.84617
863.016	475.8758
863.197	442.52043
863.377	418.28538
863.558	465.48286
863.738	482.44179
863.919	449.6303
864.099	487.46032
864.28	429.10607
864.46	468.19688
864.641	410.98582
864.821	466.62923
865.002	382.81314
865.182	444.08758
865.363	425.32039
865.543	424.25463
865.723	388.87515
865.904	453.2166
866.084	375.82184
866.264	446.96231
866.445	368.02748
866.625	440.75151
866.805	457.64814
866.986	404.18157
867.166	418.44006
867.346	319.87945
867.526	372.63346
867.707	366.41343
867.887	376.46531
868.067	427.64152
868.247	329.23489
868.427	401.65567
868.607	332.54459
868.788	370.75037
868.968	269.95526
869.148	374.19291
869.328	337.08148
869.508	339.52817
869.688	342.7738
869.868	372.64729
870.048	294.68424
870.228	388.52693
870.408	319.38324
870.588	322.78158
870.768	327.21142
870.948	324.91755
871.128	316.98353
871.307	377.41134
871.487	292.42793
871.667	313.49417
871.847	319.32339
872.027	304.82835
872.207	259.94513
872.387	317.26888
872.566	302.73059
872.746	317.17355
872.926	293.69941
873.106	294.76167
873.285	336.39422
873.465	333.82199
873.645	233.0389
873.824	334.10998
874.004	291.50786
874.184	276.80468
874.363	237.72847
874.543	292.62576
874.723	284.8963
874.902	249.98458
875.082	261.34858
875.261	240.996
875.441	182.48189
875.62	272.37412
875.8	206.16954
875.979	274.80706
876.159	265.56475
876.338	239.79567
876.518	271.44015
876.697	251.19819
876.876	209.56791
877.056	210.64795
877.235	147.79461
877.415	289.29373
877.594	248.87508
877.773	312.97666
877.953	215.06096
878.132	253.37919
878.311	257.90311
878.49	264.68597
878.67	236.51957
878.849	247.7001
879.028	199.6167
879.207	237.56713
879.387	239.94938
879.566	253.38874
879.745	223.22139
879.924	198.3008
880.103	173.80636
880.282	296.32603
880.461	241.54554
880.64	252.4224
880.819	220.99737
880.998	209.87792
881.178	178.15771
881.357	199.57888
881.536	205.3295
881.715	216.62199
881.893	195.22938
882.072	185.98741
882.251	168.14633
882.43	145.74011
882.609	158.05664
882.788	178.23865
882.967	198.4883
883.146	247.78415
883.325	194.01194
883.503	189.67167
883.682	184.0749
883.861	190.74282
884.04	258.01034
884.219	195.05167
884.397	191.87914
884.576	141.13113
884.755	170.46706
884.933	134.46542
885.112	198.76057
885.291	187.35607
885.469	193.01559
885.648	169.48724
885.827	181.66401
886.005	184.03979
886.184	178.37414
886.363	181.87877
886.541	174.05862
886.72	210.95915
886.898	70.14519
887.077	214.46121
887.255	146.90753
887.434	207.92914
887.612	207.62715
887.791	184.05383
887.969	121.04091
888.147	119.91723
888.326	118.79804
888.504	125.40626
888.682	181.68471
888.861	210.98323
889.039	142.30158
889.218	165.97251
889.396	120.90733
889.574	179.25128
889.752	172.71749
889.931	132.21493
890.109	158.14087
890.287	174.01195
890.465	159.10614
890.643	188.65047
890.822	190.82283
891	125.48734
891.178	106.36471
891.356	107.55803
891.534	133.52118
891.712	89.45236
891.89	150.21321
892.068	136.78889
892.247	143.51661
892.425	189.76588
892.603	116.45707
892.781	161.62561
892.959	121.01318
893.137	162.71771
893.314	148.087
893.492	176.31861
893.67	110.86273
893.848	117.63828
894.026	132.15967
894.204	107.52514
894.382	65.9304
894.56	159.13027
894.738	166.0611
894.915	146.75118
895.093	147.00304
895.271	162.59983
895.449	69.26496
895.626	114.20667
895.804	101.92863
895.982	172.80966
896.16	101.96379
896.337	100.87777
896.515	168.56477
896.693	115.44415
896.87	73.81812
897.048	105.2131
897.225	74.94656
897.403	80.5122
897.581	130.11341
897.758	85.01316
897.936	127.68481
898.113	100.88553
898.291	73.80111
898.468	80.46001
898.646	115.51056
898.823	65.84466
899.001	114.28071
899.178	172.8691
899.356	142.56823
899.533	106.46642
899.71	106.36066
899.888	126.819
900.065	33.20558
900.242	67.09744
900.42	84.01446
900.597	125.70864
900.774	115.47511
900.952	139.34015
901.129	102.03042
901.306	61.44596
901.483	77.22138
901.661	112.03741
901.838	63.69841
902.015	43.38839
902.192	35.53173
902.369	55.827
902.546	64.79965
902.723	53.51984
902.901	88.46402
903.078	85.15367
903.255	116.71609
903.432	60.32199
903.609	54.67283
903.786	62.56257
903.963	70.43577
904.14	52.45468
904.317	36.65619
904.494	18.62086
904.671	36.64912
904.848	54.72561
905.024	87.46352
905.201	72.7654
905.378	25.36366
905.555	-19.74328
905.732	71.58614
905.909	40.02055
906.086	-9.57723
906.262	114.47393
906.439	37.78334
906.616	41.15185
906.793	53.51984
906.969	43.44028
907.146	7.32925
907.323	-14.09608
907.5	58.0961
907.676	58.09834
907.853	90.79828
908.03	44.54364
908.206	52.40015
908.383	63.71068
908.559	52.41828
908.736	73.82947
908.912	24.2294
909.089	106.55651
909.266	-21.99286
909.442	61.46966
909.619	63.70577
909.795	64.84456
909.972	38.91797
910.148	34.37129
910.324	108.83688
910.501	72.71209
910.677	59.23907
910.854	43.47061
911.03	45.66165
911.206	32.15957
911.383	7.32334
911.559	71.62479
911.735	-3.94576
911.912	70.42225
912.088	69.33679
912.264	36.62374
912.44	19.73604
912.617	50.18499
912.793	36.64488
912.969	62.62781
913.145	69.36621
913.321	76.14543
913.498	-8.45912
913.674	51.29199
913.85	54.72985
914.026	20.85617
914.202	25.3705
914.378	27.62353
914.554	82.90434
914.73	6.19774
914.906	25.37638
915.082	14.10125
915.258	77.26904
915.434	26.49145
915.61	70.49276
915.786	63.75007
915.962	66.01438
916.138	59.19106
916.314	56.90551
916.49	-6.20503
916.665	35.51392
916.841	37.8038
917.017	34.40308
917.193	35.52077
917.369	93.07213
917.545	-6.20335
917.72	87.41954
917.896	-7.33393
918.072	97.58475
918.247	68.24489
918.423	51.37737
918.599	52.44455
918.775	-28.77101
918.95	37.75715
919.126	-2.81802
919.301	23.14578
919.477	52.41626
919.653	71.65527
919.828	-3.94911
920.004	44.55912
920.179	9.58515
920.355	-81.66325
920.53	15.22553
920.706	47.94058
920.881	22.00349
921.057	19.71933
921.232	16.36125
921.408	41.14077
921.583	23.12516
921.759	55.81623
921.934	14.10726
922.109	18.62519
922.285	59.25054
922.46	-17.48758
922.635	7.33152
922.811	46.80444
922.986	52.44455
923.161	17.4751
923.336	14.10125
923.512	61.44596
923.687	25.38226
923.862	12.9734
924.037	6.20012
924.212	-0.56406
924.388	78.40767
924.563	97.54331
924.738	-23.12919
924.913	14.12538
925.088	23.10645
925.263	49.04683
925.438	72.63403
925.613	29.87621
925.788	49.07144
925.963	43.41177
926.138	43.44364
926.313	51.32761
926.488	69.4307
926.663	23.12784
926.838	0.56385
927.013	55.82484
927.188	40.0592
927.363	15.2267
927.538	1.69159
927.713	56.96251
927.888	-12.97717
928.062	27.63099
928.237	32.14589
928.412	-1.693
928.587	12.9719
928.761	-26.51754
928.936	15.22965
929.111	6.20491
929.286	-11.83934
929.46	38.90895
929.635	35.54273
929.81	47.9018
929.984	59.24825
930.159	23.11624
930.334	6.19869
930.508	23.1359
930.683	26.52319
930.857	37.7921
931.032	9.58441
931.206	71.63863
931.381	68.2528
931.556	28.75823
931.73	64.91487
931.904	54.68757
932.079	11.84505
932.253	-16.34516
932.428	-9.59349
932.602	15.21439
932.777	-1.69195
932.951	32.13598
933.125	23.11357
933.3	52.47497
933.474	9.59293
933.648	34.44177
933.823	-10.72276
933.997	36.6803
934.171	19.75207
934.345	-58.09498
934.52	36.635
934.694	27.6438
934.868	59.24595
935.042	19.75207
935.217	7.33237
935.391	10.72048
935.565	18.62519
935.739	28.7816
935.913	19.72464
936.087	-17.47948
936.261	63.755
936.435	-27.64434
936.609	21.99243
936.783	-7.33848
936.957	49.07714
937.131	-63.71928
937.305	-12.98018
937.479	33.30153
937.653	7.33067
937.827	-52.49635
938.001	-7.33421
938.175	12.9704
938.349	-7.33279
938.523	6.20683
938.697	-28.76545
938.87	-8.46304
939.044	1.69231
939.218	70.51455
939.392	-3.94805
939.566	25.41676
939.739	-9.59312
939.913	12.99003
940.087	-25.38177
940.261	-10.7211
940.434	19.74519
940.608	-38.8992
940.782	40.09342
940.955	44.59193
941.129	-18.61186
941.302	-29.90681
941.476	46.87343
941.65	43.45543
941.823	6.20467
941.997	0.56444
942.17	31.01019
942.344	-9.58755
942.517	-49.05913
942.691	5.08019
942.864	16.37077
943.038	-0.56421
943.211	15.22788
943.385	34.42305
943.558	-9.58829
943.731	-47.90456
943.905	3.94705
944.078	-16.3622
944.251	-52.48006
944.425	5.08177
944.598	14.09635
944.771	37.84053
944.945	63.76735
945.118	43.4723
945.291	36.68172
945.464	54.71502
945.638	2.82112
945.811	42.33246
945.984	1.69212
946.157	-36.68244
946.33	69.42262
946.503	27.64273
946.677	62.67156
946.85	-1.6934
947.023	-18.60683
947.196	27.63099
947.369	17.49673
947.542	38.94359
947.715	11.83911
947.888	-27.63899
948.061	37.79941
948.234	-15.22876
948.407	8.46157
948.58	-12.98523
948.753	-11.83888
948.926	-3.9511
949.099	26.51189
949.271	10.72422
949.444	14.1089
949.617	69.40109
949.79	36.65902
949.963	34.45384
950.136	5.07293
950.308	-3.94911
950.481	53.59413
950.654	-24.26448
950.827	34.4084
950.999	44.59193
951.172	18.60217
951.345	37.79795
951.517	60.36627
951.69	31.04018
951.863	-6.20647
952.035	20.87712
952.208	-3.94805
952.381	58.1479
952.553	-8.46731
952.726	34.43641
952.898	-21.98862
953.071	-1.6915
953.243	35.54548
953.416	-5.07655
953.588	-56.97462
953.761	50.23746
953.933	-19.74099
954.106	19.76051
954.278	-14.09391
954.45	-0.56391
954.623	73.88641
954.795	53.58791
954.967	-31.05405
955.14	50.23551
955.312	32.17954
955.484	0.56425
955.657	52.47904
955.829	47.95913
956.001	-18.61186
956.173	-26.51138
956.346	47.95171
956.518	-5.07714
956.69	51.33356
956.862	51.31176
957.034	-6.20144
957.207	22.01886
957.379	-14.0988
957.551	68.30838
957.723	-3.94622
957.895	41.18523
958.067	31.01258
958.239	-52.43342
958.411	44.52649
958.583	-23.12829
958.755	-3.9531
958.927	-26.52062
959.099	17.4913
959.271	-70.53503
959.443	52.49125
959.615	15.22847
959.787	9.5833
959.959	17.49402
960.13	-0.56389
960.302	2.81916
960.474	17.49266
960.646	-20.86945
960.818	43.45711
960.99	37.79502
961.161	-1.69313
961.333	-24.24666
961.505	-33.27382
961.677	-10.71944
961.848	-9.59461
962.02	-20.88806
962.192	31.045
962.363	0.56451
962.535	-5.07891
962.707	-0.56402
962.878	50.23161
963.05	-15.22876
963.221	29.9016
963.393	-41.17329
963.564	23.11267
963.736	-11.84757
963.907	38.92248
964.079	8.46616
964.25	6.20251
964.422	-26.50319
964.593	-33.2854
964.765	50.2005
964.936	-19.74328
965.108	-1.69208
965.279	3.94721
965.45	-22.00732
965.622	51.32959
965.793	34.41372
965.964	25.39897
966.136	-16.35777
966.307	52.49329
966.478	17.49945
966.65	56.96691
966.821	-8.45977
966.992	24.25838
967.163	25.36562
967.334	-38.95342
967.506	37.80234
967.677	53.62738
967.848	-9.58792
968.019	56.94493
968.19	18.61725
968.361	50.25113
968.532	-31.01198
968.703	-41.16534
968.874	-35.51187
969.045	29.87736
969.216	-11.84665
969.387	18.61869
969.558	-5.07302
969.729	73.87785
969.9	-10.71695
970.071	51.33356
970.242	-3.95049
970.413	-11.84895
970.584	-23.13277
970.755	10.7184
970.926	54.75957
971.097	-12.97616
971.267	-7.32911
971.438	26.50882
971.609	28.7883
971.78	3.94873
971.951	46.82977
972.121	54.72561
972.292	17.47981
972.463	6.2006
972.633	-1.69438
972.804	17.47847
972.975	-36.6569
973.145	31.01617
973.316	21.98989
973.487	46.82977
973.657	47.94614
973.828	-32.16642
973.998	26.51702
974.169	59.23907
974.339	-1.69281
974.51	-10.72027
974.68	14.10343
974.851	23.1359
975.021	7.33208
975.192	14.11383
975.362	17.4886
975.533	0.56372
975.703	-51.40038
975.874	-40.04139
976.044	10.71882
976.214	26.53452
976.385	6.20491
976.555	15.232
976.725	11.8478
976.896	43.48922
977.066	42.2899
977.236	38.94662
977.406	59.22075
977.577	28.77379
977.747	20.88198
977.917	20.87955
978.087	45.69162
978.257	-38.9097
978.427	3.95087
978.598	70.5364
978.768	9.58885
978.938	11.84094
979.108	15.23436
979.278	12.9719
979.448	-11.84941
979.618	-1.69307
979.788	-23.14443
979.958	14.10616
980.128	14.1018
980.298	20.87712
980.468	35.56478
980.638	1.69107
980.808	-10.7211
980.978	-26.50217
981.148	-50.19759
981.317	-12.98018
981.487	31.02816
981.657	-17.49707
981.827	-3.95049
981.997	79.54661
982.167	96.42493
982.336	24.28192
982.506	43.46724
982.676	-6.20359
982.846	-63.73159
983.015	5.07351
983.185	-17.48758
983.355	-58.08152
983.524	-11.83569
983.694	1.69166
983.864	-38.93227
984.033	-11.84162
984.203	26.51087
984.372	35.50436
984.542	1.69205
984.712	0.56425
984.881	36.65619
985.051	-16.35272
985.22	-16.366
985.39	31.00422
985.559	9.58626
985.728	16.36188
985.898	5.08157
986.067	82.87237
986.237	-64.88341
986.406	18.61725
986.576	50.20632
986.745	32.16829
986.914	54.74045
987.084	32.16331
987.253	-18.61833
987.422	37.79064
987.591	-16.3622
987.761	55.82053
987.93	5.07704
988.099	6.20779
988.268	-16.36283
988.438	14.09798
988.607	25.40292
988.776	8.46288
988.945	52.49125
989.114	23.13232
989.283	38.95418
989.452	27.64701
989.621	-5.07635
989.791	5.08117
989.96	-11.84208
990.129	12.96889
990.298	18.61725
990.467	70.52001
990.636	41.20599
990.805	3.94812
990.974	-8.4683
991.142	-7.33506
991.311	-17.48015
991.48	-54.75213
991.649	0.56412
991.818	24.23313
991.987	-29.89177
992.156	59.26433
992.325	-10.72443
992.493	3.94721
992.662	-233.32494
992.831	-12.9822
993	-10.71654
993.168	12.97441
993.337	58.11408
993.506	40.0592
993.675	44.54708
993.843	-15.22582
994.012	23.14488
994.181	-8.45748
994.349	9.59666
994.518	14.0969
994.686	59.24825
994.855	-12.97516
995.024	16.34484
995.192	-1.69261
995.361	-2.81802
995.529	-5.07792
995.698	1.69081
995.866	23.13142
996.035	26.50268
996.203	6.20371
996.371	27.64594
996.54	38.91045
996.708	-2.82041
996.877	56.98234
997.045	33.29249
997.213	3.94965
997.382	-7.33819
997.55	-16.35208
997.718	-16.35272
997.887	-14.10917
998.055	-26.51651
998.223	-23.12561
998.391	-6.20503
998.56	-19.77244
998.728	10.72172
998.896	81.86356
999.064	29.90739
999.232	-28.76323
999.401	-26.49502
999.569	29.90276
999.737	31.045
999.905	8.46222
1000.073	75.03912
1000.241	17.47981
1000.409	75.06821
1000.577	2.81927
1000.745	8.46616
1000.913	-22.0133
1001.081	-21.98607
1001.249	12.9729
1001.417	-31.0084
1001.585	14.10234
1001.753	-3.95064
1001.921	-2.82172
1002.089	7.3335
1002.256	2.82178
1002.424	7.33947
1002.592	26.50575
1002.76	-18.62844
1002.928	6.20419
1003.096	60.38498
1003.263	0.56433
1003.431	-5.08029
1003.599	-8.46403
1003.767	20.86905
1003.934	42.31442
1004.102	17.48319
1004.27	10.71592
1004.437	-19.74557
1004.605	41.19481
1004.773	-40.09733
1004.94	9.58885
1005.108	5.07176
1005.275	28.77937
1005.443	60.32432
1005.61	19.73528
1005.778	-1.69274
1005.945	35.50846
1006.113	-1.69326
1006.28	5.07704
1006.448	18.61509
1006.615	-20.87915
1006.783	73.93506
1006.95	-5.07773
1007.118	27.64701
1007.285	-19.76782
1007.452	-0.56426
1007.62	45.70223
1007.787	-16.35967
1007.954	-16.38128
1008.122	15.22553
1008.289	18.62158
1008.456	37.82434
1008.623	-0.56472
1008.791	-8.46928
1008.958	-10.72776
1009.125	-9.59126
1009.292	42.32097
1009.459	44.57119
1009.627	1.69101
1009.794	5.07508
1009.961	9.5833
1010.128	33.32225
1010.295	2.82101
1010.462	70.58847
1010.629	38.95418
1010.796	25.3911
1010.963	6.20996
1011.13	-28.76323
1011.297	34.40441
1011.464	-8.4552
1011.631	-0.564
1011.798	-35.55305
1011.965	5.08157
1012.132	19.74672
1012.299	5.07861
1012.466	-50.22869
1012.633	14.09635
1012.799	1.69271
1012.966	-22.01073
1013.133	29.90739
1013.3	2.82123
1013.467	-32.11558
1013.633	31.05707
1013.8	-1.69267
1013.967	44.54021
1014.134	1.69251
1014.3	27.64916
1014.467	2.81894
1014.634	9.58663
1014.8	-26.54846
1014.967	-14.10753
1015.134	9.59405
1015.3	-11.8462
1015.467	-43.41763
1015.633	-1.69241
1015.8	18.61365
1015.966	7.33634
1016.133	-12.97466
1016.3	2.81818
1016.466	17.48995
1016.632	-61.47797
1016.799	22.00434
1016.965	-35.53517
1017.132	5.07783
1017.298	12.97943
1017.465	61.49818
1017.631	7.3318
1017.797	23.16472
1017.964	32.18579
1018.13	-26.48788
1018.296	56.96912
1018.463	11.85377
1018.629	19.74901
1018.795	12.96789
1018.961	-3.94881
1019.128	-3.94637
1019.294	-3.94713
1019.46	7.33805
1019.626	71.60269
1019.792	-16.36473
1019.959	-10.71819
1020.125	79.58979
1020.291	-11.84116
1020.457	7.33095
1020.623	-54.69706
1020.789	34.42439
1020.955	9.58146
1021.121	50.20826
1021.287	-1.69195
1021.453	-2.82194
1021.619	31.04139
1021.785	-22.0133
1021.951	16.36125
1022.117	-2.82216
1022.283	10.71799
1022.449	44.58501
1022.615	23.14938
1022.781	-25.35538
1022.946	2.8232
1023.112	69.41454
1023.278	-26.49502
1023.444	15.26108
1023.61	-25.39553
1023.775	50.19856
1023.941	29.90855
1024.107	5.07763
1024.273	-25.40144
1024.438	-24.24479
1024.604	-37.77824
1024.77	-89.60472
1024.935	-14.10753
1025.101	40.08095
1025.267	-9.59163
1025.432	-12.98472
1025.598	75.0304
1025.763	10.7155
1025.929	23.12516
1026.095	8.46485
1026.26	47.96099
1026.426	10.7184
1026.591	-19.74328
1026.757	-14.11465
1026.922	1.69186
1027.087	-0.56391
1027.253	28.76156
1027.418	0.5644
1027.584	-14.09445
1027.749	24.26401
1027.914	-22.00221
1028.08	20.88441
1028.245	33.2642
1028.41	9.59071
1028.576	29.88773
1028.741	14.09418
1028.906	-7.32573
1029.072	32.13845
1029.237	10.71923
1029.402	14.09962
1029.567	-34.4064
1029.732	61.50295
1029.898	1.69225
1030.063	-1.69511
1030.228	29.92132
1030.393	29.90739
1030.558	11.85838
1030.723	28.8051
1030.888	12.9724
1031.053	38.95872
1031.218	-0.56415
1031.383	-29.90102
1031.548	12.97893
1031.713	-11.84803
1031.878	11.84139
1032.043	11.85101
1032.208	2.82112
1032.373	-29.90449
1032.538	-19.7471
1032.703	-10.71819
1032.868	-33.31642
1033.033	-19.77553
1033.198	61.50533
1033.362	3.94858
1033.527	10.72172
1033.692	-27.64113
1033.857	15.22847
1034.021	55.88755
1034.186	27.6406
1034.351	-25.37784
1034.516	56.97573
1034.68	3.95087
1034.845	-25.40934
1035.01	43.42852
1035.174	17.49945
1035.339	9.59256
1035.504	31.03778
1035.668	-6.19786
1035.833	10.71716
1035.997	5.07783
1036.162	46.85521
1036.326	29.93997
1036.491	-5.07773
1036.655	-6.20383
1036.82	0.56364
1036.984	-25.35538
1037.149	-52.41929
1037.313	-15.22347
1037.478	31.02216
1037.642	-17.49232
1037.807	20.87551
1037.971	11.85377
1038.135	19.74748
1038.3	16.36442
1038.464	16.37331
1038.628	28.78048
1038.792	-27.65183
1038.957	31.02576
1039.121	2.82233
1039.285	15.23082
1039.449	-3.94942
1039.614	32.14962
1039.778	34.41505
1039.942	-8.4601
1040.106	63.76983
1040.27	-3.94805
1040.434	-52.41727
1040.599	-35.56824
1040.763	-42.31196
1040.927	-9.59052
1041.091	10.71674
1041.255	40.02209
1041.419	59.22761
1041.583	-19.74481
1041.747	-53.55999
1041.911	-24.24292
1042.075	34.40308
1042.239	-14.12345
1042.403	-41.16852
1042.567	-40.03366
1042.731	-3.94805
1042.894	-41.17011
1043.058	24.27437
1043.222	20.86663
1043.386	-56.96141
1043.55	-23.14713
1043.714	-1.69241
1043.877	14.1089
1044.041	14.10835
1044.205	24.24433
1044.369	38.93152
1044.532	3.94873
1044.696	-55.86263
1044.86	6.20419
1045.023	-27.623
1045.187	-25.40539
1045.351	-28.75878
1045.514	5.08058
1045.678	-31.01557
1045.841	27.65452
