Data from mildly cloudy_Subt2__8__14-22-20-956.txt Node

Date: Mon Oct 13 14:22:20 EDT 2025
User: brett
Spectrometer: USB4F03499
Trigger mode: 4
Integration Time (sec): 4.400000E-4
Scans to average: 1
Electric dark correction enabled: true
Nonlinearity correction enabled: true
Boxcar width: 0
XAxis mode: Wavelengths
Number of Pixels in Spectrum: 3648
>>>>>Begin Spectral Data<<<<<
345.386	33.87748
345.605	33.87748
345.824	33.87748
346.044	46.33806
346.263	38.38106
346.482	-47.37703
346.701	32.70323
346.92	2.25622
347.139	6.77286
347.358	-5.64066
347.577	-4.5107
347.796	-3.38715
348.015	24.84444
348.234	-5.64088
348.453	-28.21097
348.672	7.89907
348.891	20.32016
349.11	16.92265
349.329	14.66289
349.548	37.26885
349.767	2.25718
349.986	3.38532
350.205	-66.57023
350.424	33.86826
350.643	30.49388
350.862	19.20134
351.08	7.89846
351.299	-29.32863
351.518	-3.38505
351.737	37.24859
351.956	4.51279
352.174	20.2966
352.393	34.99245
352.612	11.27937
352.831	22.56048
353.049	-18.06658
353.268	60.91101
353.487	24.82133
353.705	-6.76997
353.924	-27.06631
354.143	27.07676
354.361	38.36915
354.58	13.53733
354.798	25.98842
355.017	-19.16716
355.236	48.54924
355.454	52.99978
355.673	20.31937
355.891	14.66176
356.11	-37.2356
356.328	37.22121
356.547	-16.92986
356.765	32.71966
356.984	15.79417
357.202	60.95346
357.42	31.60547
357.639	13.54625
357.857	-10.15516
358.076	16.92199
358.294	-20.30993
358.512	-9.02314
358.731	-29.31957
358.949	-15.78989
359.167	-5.64154
359.386	13.53629
359.604	-2.25579
359.822	-1.12896
360.04	28.20006
360.259	-5.63914
360.477	3.38781
360.695	-3.38361
360.913	-23.68896
361.131	-18.04838
361.35	-35.00741
361.568	23.7018
361.786	-15.79844
362.004	-24.81749
362.222	23.71008
362.44	42.81709
362.658	37.25582
362.876	-15.78807
363.094	-19.18791
363.312	16.92854
363.53	10.16028
363.749	-50.77191
363.967	-30.46784
364.184	14.67084
364.402	-3.3865
364.62	34.97754
364.838	-50.75034
365.056	12.41764
365.274	-19.18197
365.492	-6.77129
365.71	38.37361
365.928	12.40132
366.146	-4.51964
366.364	-53.01614
366.581	-7.89999
366.799	-15.79967
367.017	-7.8951
367.235	-22.55961
367.453	-9.02628
367.67	15.79844
367.888	-2.2578
368.106	-12.42198
368.323	-48.53605
368.541	32.72472
368.759	-22.57796
368.977	30.46431
369.194	-41.71839
369.412	39.51068
369.629	-5.65164
369.847	-15.79294
370.065	20.31543
370.282	30.46195
370.5	11.28417
370.717	-14.66686
370.935	-16.93183
371.152	34.99381
371.37	-10.15673
371.588	-24.82037
371.805	6.77628
372.022	-15.79661
372.24	77.84433
372.457	4.51053
372.675	-9.02978
372.892	1.12975
373.11	33.85775
373.327	16.92789
373.544	1.12945
373.762	-29.33203
373.979	-68.83485
374.196	28.21643
374.414	49.67347
374.631	-12.41571
374.848	18.06939
375.066	22.5457
375.283	-32.74504
375.5	-13.53838
375.717	-47.41927
375.935	68.81089
376.152	5.64088
376.369	14.67824
376.586	9.02419
376.803	-37.22265
377.02	29.34338
377.238	6.76893
377.455	21.45615
377.672	-11.28198
377.889	81.25561
378.106	20.30757
378.323	32.74759
378.54	-18.06728
378.757	-4.51157
378.974	14.6714
379.191	-19.18048
379.408	-1.12813
379.625	37.25003
379.842	-13.54993
380.059	34.97754
380.276	58.68455
380.493	4.51349
380.71	20.30993
380.927	-1.12962
381.143	2.25683
381.36	5.64679
381.577	18.04003
381.794	-40.64824
382.011	4.51419
382.228	-11.2798
382.444	-76.69985
382.661	54.15357
382.878	24.82517
383.095	4.51437
383.311	7.90643
383.528	-39.5245
383.745	30.46195
383.962	-9.02908
384.178	-34.96808
384.395	7.90029
384.612	59.83514
384.828	-68.81621
385.045	46.23027
385.261	-0
385.478	30.49151
385.695	-46.29833
385.911	-23.69446
386.128	-4.5121
386.344	50.84694
386.561	84.63309
386.777	-25.95409
386.994	-91.43566
387.21	-25.94606
387.427	-9.02803
387.643	32.74377
387.86	-23.69905
388.076	11.28067
388.292	-18.05956
388.509	44.00231
388.725	30.48676
388.942	40.63404
389.158	14.68509
389.374	48.47794
389.591	-24.82229
389.807	-9.02768
390.023	-22.55177
390.239	-23.67526
390.456	-25.97121
390.672	-28.21862
390.888	0
391.104	-6.77155
391.321	-0
391.537	30.48203
391.753	10.15123
391.969	14.66629
392.185	29.34566
392.401	-11.27806
392.618	-27.07676
392.834	-15.80887
393.05	24.82229
393.266	41.7361
393.482	-7.89846
393.698	59.80036
393.914	29.33203
394.13	32.70323
394.346	-33.84073
394.562	10.14888
394.778	19.18568
394.994	49.6446
395.21	-60.92749
395.426	-19.19015
395.642	10.15752
395.858	33.85775
396.073	25.97525
396.289	-14.66063
396.505	-6.7705
396.721	12.41186
396.937	1.12778
397.153	33.8512
397.369	15.79417
397.584	68.88831
397.8	10.14888
398.016	21.43701
398.232	30.45606
398.447	5.63501
398.663	-4.51192
398.879	23.67799
399.094	11.28417
399.31	-7.89388
399.526	-20.30836
399.741	-5.6446
399.957	12.40946
400.173	54.204
400.388	10.15437
400.604	36.09817
400.82	-2.25666
401.035	28.21971
401.251	-9.02663
401.466	-5.64482
401.682	6.77523
401.897	12.39846
402.113	-47.35693
402.328	21.46032
402.544	-56.40997
402.759	47.37155
402.974	28.20987
403.19	-45.14369
403.405	11.28111
403.621	29.35021
403.836	33.84989
404.051	61.99239
404.267	25.96012
404.482	12.41186
404.697	3.38689
404.913	19.19015
405.128	48.50412
405.343	-2.25675
405.559	1.12901
405.774	-2.25753
405.989	-38.33951
406.204	-11.29381
406.42	16.92789
406.635	16.93972
406.85	-13.53106
407.065	-2.25605
407.28	48.52101
407.495	-2.25736
407.71	11.28155
407.926	32.71713
408.141	32.73868
408.356	22.56746
408.571	23.70916
408.786	-1.12914
409.001	3.38361
409.216	-5.64001
409.431	25.96516
409.646	10.15437
409.861	44.01253
410.076	-6.76605
410.291	27.07049
410.506	33.85513
410.721	20.30208
410.936	-9.03188
411.15	-28.1957
411.365	-5.64154
411.58	6.77102
411.795	-60.94874
412.01	46.25884
412.225	20.29269
412.439	38.3336
412.654	-6.7684
412.869	-4.51262
413.084	24.81845
413.299	51.89917
413.513	69.96465
413.728	10.15437
413.943	9.02314
414.157	30.46077
414.372	-42.88318
414.587	22.55612
414.801	24.7955
415.016	37.24859
415.231	40.6435
415.445	28.22739
415.66	-13.54415
415.874	-31.5798
416.089	29.33203
416.304	129.74104
416.518	-28.21971
416.733	-29.3377
416.947	36.08842
417.162	27.06631
417.376	3.3844
417.59	46.22493
417.805	3.3861
418.019	42.87322
418.234	28.19897
418.448	5.6387
418.663	47.38986
418.877	-37.20542
419.091	7.89662
419.306	24.81653
419.52	5.63957
419.734	-3.38689
419.949	-45.10705
420.163	50.75034
420.377	-3.38427
420.591	22.54743
420.806	-15.79906
421.02	65.45079
421.234	22.55874
421.448	-18.04072
421.663	63.22327
421.877	-45.09489
422.091	39.47552
422.305	11.28155
422.519	68.80026
422.733	66.57539
422.947	-25.93904
423.161	-25.95007
423.376	33.84989
423.59	28.17183
423.804	30.46077
424.018	-7.90029
424.232	-45.1332
424.446	22.5457
424.66	-4.51227
424.874	27.07572
425.088	75.57044
425.302	-69.94029
425.515	36.09399
425.729	-19.17159
425.943	112.755
426.157	45.11401
426.371	-24.82133
426.585	-13.53158
426.799	0
427.013	-4.51437
427.226	15.78563
427.44	-49.61968
427.654	28.19461
427.868	5.63588
428.081	25.93504
428.295	2.25666
428.509	60.92042
428.723	18.04699
428.936	-48.44628
429.15	15.79967
429.364	-1.12853
429.577	25.96113
429.791	-15.77774
430.005	4.5121
430.218	56.38384
430.432	3.38466
430.645	2.25587
430.859	20.31071
431.073	-12.40994
431.286	45.13844
431.5	21.4279
431.713	21.41388
431.927	20.29816
432.14	28.20224
432.354	23.6853
432.567	37.23416
432.781	49.62542
432.994	1.12949
433.207	-49.63884
433.421	11.26851
433.634	73.33727
433.848	18.03794
434.061	40.62616
434.274	13.53315
434.488	63.12559
434.701	-23.69171
434.914	46.2499
435.127	34.98431
435.341	57.54151
435.554	15.79783
435.767	53.06959
435.98	-1.12809
436.194	-13.53106
436.407	39.50914
436.62	49.63309
436.833	40.61202
437.046	32.72726
437.259	39.48467
437.473	4.51349
437.686	50.77584
437.899	33.84596
438.112	-34.97754
438.325	20.30365
438.538	16.91938
438.751	37.2169
438.964	-94.58694
439.177	-33.85382
439.39	29.31618
439.603	67.73924
439.816	41.73126
440.029	28.2066
440.242	28.18809
440.455	28.18592
440.668	41.74417
440.881	79.01075
441.094	40.62616
441.306	40.64192
441.519	45.12447
441.732	52.99365
441.945	46.2678
442.158	37.23416
442.37	34.98974
442.583	84.55143
442.796	23.69996
443.009	25.94706
443.222	31.59934
443.434	47.37703
443.647	-4.51349
443.86	34.96133
444.072	30.45959
444.285	37.23704
444.498	53.00182
444.71	41.7571
444.923	85.72009
445.136	29.32296
445.348	56.38166
445.561	21.41965
445.773	95.95476
445.986	83.44175
446.198	38.32033
446.411	66.52911
446.623	28.18266
446.836	1.12826
447.048	29.33203
447.261	48.51162
447.473	24.7974
447.686	14.65104
447.898	30.43143
448.11	56.41215
448.323	-29.27124
448.535	31.56641
448.748	-27.06735
448.96	32.70576
449.172	78.98933
449.385	39.44058
449.597	62.04978
449.809	77.7843
450.021	43.99041
450.234	73.32026
450.446	32.68435
450.658	36.08563
450.87	38.33065
451.083	54.12013
451.295	19.16716
451.507	49.58912
451.719	65.428
451.931	63.17186
452.143	74.40379
452.356	57.50154
452.568	66.54451
452.78	70.94418
452.992	23.66343
453.204	24.81365
453.416	77.90167
453.628	93.62445
453.84	14.65273
454.052	75.53548
454.264	45.10879
454.476	19.16642
454.688	99.14043
454.9	95.85457
455.112	43.94808
455.324	41.75386
455.536	115.00126
455.747	56.36429
455.959	64.18021
456.171	45.04129
456.383	111.61239
456.595	76.688
456.807	52.97326
457.018	47.35876
457.23	43.98192
457.442	75.50934
457.654	68.77374
457.865	49.61776
458.077	65.3625
458.289	27.0538
458.501	61.99954
458.712	117.1841
458.924	90.19344
459.136	-4.50706
459.347	86.85638
459.559	54.11596
459.77	84.5092
459.982	98.07975
460.194	65.36752
460.405	34.92504
460.617	48.45744
460.828	58.6121
461.04	78.84952
461.251	50.68212
461.463	57.42438
461.674	85.69034
461.886	40.562
462.097	60.87813
462.309	-1.12696
462.52	93.51997
462.731	102.53794
462.943	87.9759
463.154	92.41983
463.366	52.91848
463.577	109.24431
463.788	64.16551
464	59.71976
464.211	101.4092
464.422	90.17608
464.634	119.50195
464.845	82.23038
465.056	187.05241
465.267	56.30594
465.478	75.54421
465.69	60.8711
465.901	103.64288
466.112	141.94614
466.323	126.242
466.534	148.7341
466.745	72.0304
466.957	147.59881
467.168	107.00002
467.379	99.18231
467.59	81.14907
467.801	101.28136
468.012	54.0537
468.223	119.44683
468.434	129.53153
468.645	176.84636
468.856	112.52209
469.067	130.62542
469.278	99.11385
469.489	185.70172
469.7	74.34097
469.911	133.9909
470.122	154.31776
470.333	209.31722
470.543	206.09437
470.754	113.72317
470.965	159.89178
471.176	207.22456
471.387	144.19929
471.598	131.68364
471.808	120.54364
472.019	163.16712
472.23	130.55564
472.441	132.82181
472.651	152.09405
472.862	188.09632
473.073	126.05367
473.283	129.5018
473.494	178.79923
473.705	179.09237
473.915	181.14459
474.126	196.76224
474.337	168.77763
474.547	187.84551
474.758	179.97498
474.968	151.7987
475.179	194.57246
475.389	180.91828
475.6	167.38924
475.81	210.21512
476.021	212.51979
476.231	265.24546
476.442	187.84551
476.652	238.42361
476.863	204.55943
477.073	130.52085
477.284	160.70921
477.494	212.36721
477.704	222.45929
477.915	307.78289
478.125	253.02056
478.335	295.34257
478.546	257.26601
478.756	321.02215
478.966	210.14365
479.177	295.46484
479.387	250.44028
479.597	273.9586
479.807	211.29537
480.018	320.08579
480.228	308.78434
480.438	305.45572
480.648	376.11901
480.858	311.47287
481.068	305.37544
481.279	391.23949
481.489	386.75491
481.699	402.34639
481.909	335.81048
482.119	458.30597
482.329	375.4738
482.539	433.45805
482.749	386.91326
482.959	421.01943
483.169	367.36196
483.379	475.71012
483.589	506.88851
483.799	518.02304
484.009	477.42019
484.219	513.49037
484.429	528.10416
484.639	535.4298
484.849	469.28731
485.059	570.19133
485.268	522.99648
485.478	636.60262
485.688	504.57612
485.898	576.98529
486.108	559.19274
486.317	609.05376
486.527	515.27575
486.737	636.2487
486.947	550.0427
487.156	709.50771
487.366	525.09815
487.576	568.58617
487.785	548.37535
487.995	563.97366
488.205	669.96334
488.414	712.48571
488.624	698.77671
488.834	698.8778
489.043	644.47277
489.253	587.08062
489.462	583.37648
489.672	794.71336
489.882	679.78215
490.091	783.42263
490.301	730.35996
490.51	790.82038
490.72	753.60553
490.929	798.82386
491.138	772.30184
491.348	830.81447
491.557	832.24008
491.767	889.78497
491.976	737.7813
492.185	828.11519
492.395	821.14299
492.604	906.60164
492.813	880.88259
493.023	984.17976
493.232	1017.76774
493.441	1007.36979
493.651	1086.85628
493.86	1194.3604
494.069	1104.19506
494.278	1315.79585
494.488	1196.12689
494.697	1385.25641
494.906	1239.40397
495.115	1604.35192
495.324	1444.02208
495.533	1643.52011
495.743	1633.27092
495.952	1903.2348
496.161	1873.30557
496.37	2022.93168
496.579	2090.07898
496.788	2234.54846
496.997	2455.43186
497.206	2453.34485
497.415	2531.61552
497.624	2751.95707
497.833	2909.58161
498.042	2952.20159
498.251	3087.93372
498.46	3447.41567
498.669	3465.61191
498.878	3725.96283
499.087	3931.62329
499.296	4160.48797
499.504	4252.93551
499.713	4512.81903
499.922	4801.34726
500.131	4927.84268
500.34	5207.12696
500.549	5595.59063
500.757	5816.85093
500.966	6112.66083
501.175	6411.7747
501.384	6739.43307
501.592	6782.41266
501.801	7269.2775
502.01	7720.32208
502.218	8012.25463
502.427	8293.37209
502.636	8684.49453
502.844	8977.90467
503.053	9301.06497
503.262	9581.16191
503.47	9976.93966
503.679	10271.43446
503.887	10675.5662
504.096	11078.14549
504.304	11388.4196
504.513	11609.09248
504.721	12048.01518
504.93	12298.39449
505.138	12725.3338
505.347	13176.17542
505.555	13376.07145
505.764	13660.45869
505.972	13974.69095
506.18	14008.41086
506.389	14670.72946
506.597	14701.99177
506.806	15311.0726
507.014	15496.96168
507.222	15708.821
507.431	16014.3203
507.639	15994.85492
507.847	16580.70212
508.055	16755.10963
508.264	16771.95968
508.472	17226.37564
508.68	17293.4085
508.888	17638.49867
509.096	17712.45661
509.305	18030.0032
509.513	18071.90854
509.721	18244.68949
509.929	18474.64137
510.137	18656.60683
510.345	18703.05186
510.553	18754.88364
510.762	18854.45037
510.97	18711.01221
511.178	19101.58105
511.386	19327.42736
511.594	19276.65415
511.802	19296.61707
512.01	19202.54857
512.218	19383.82545
512.426	19468.42801
512.634	19541.93361
512.842	19477.1634
513.049	19392.88272
513.257	19611.15215
513.465	19816.66748
513.673	19612.65156
513.881	19565.60468
514.089	19745.31411
514.297	19711.15286
514.504	19618.0089
514.712	19717.19157
514.92	19693.57514
515.128	19863.9444
515.336	19554.57571
515.543	19724.6795
515.751	19858.90992
515.959	19635.14097
516.166	19569.24939
516.374	19561.57532
516.582	19757.45152
516.789	19643.26879
516.997	19569.99405
517.205	19584.1409
517.412	19639.63454
517.62	19487.25678
517.827	19499.93812
518.035	19377.8011
518.243	19289.61894
518.45	19168.40004
518.658	19209.38565
518.865	19057.36551
519.073	19472.42755
519.28	19158.50323
519.488	19098.40337
519.695	18966.0428
519.902	19005.95552
520.11	19034.86577
520.317	19147.73362
520.525	18971.42859
520.732	18800.49815
520.939	18927.86849
521.147	18782.73452
521.354	18770.74299
521.561	18786.50791
521.769	18710.2521
521.976	18518.65841
522.183	18852.42963
522.391	18711.91225
522.598	18791.36369
522.805	18752.48003
523.012	18624.15283
523.219	18777.60893
523.427	18719.58942
523.634	18676.13699
523.841	18650.69123
524.048	18666.3398
524.255	18757.43635
524.462	18780.64785
524.669	18623.82367
524.877	18850.58343
525.084	18644.61673
525.291	18461.81022
525.498	18875.39469
525.705	18822.74196
525.912	18854.78346
526.119	18770.77815
526.326	18892.01825
526.533	18838.99025
526.74	18958.14159
526.947	19105.47318
527.153	19034.61886
527.36	18910.68613
527.567	18830.92762
527.774	19058.81179
527.981	18857.66642
528.188	18883.4103
528.395	19136.28349
528.602	19119.64678
528.808	18804.84844
529.015	18840.65965
529.222	19246.50255
529.429	18913.14152
529.635	19221.284
529.842	18958.72264
530.049	19207.03076
530.256	19004.18957
530.462	19192.62452
530.669	19227.3525
530.876	19103.36354
531.082	19170.50186
531.289	19249.55203
531.495	19333.73657
531.702	19114.22935
531.909	19040.74521
532.115	19252.14518
532.322	19201.29078
532.528	19158.6049
532.735	19129.80154
532.941	19262.34108
533.148	19211.2563
533.354	19084.23285
533.561	19288.41434
533.767	19238.0914
533.974	19077.66445
534.18	19220.67156
534.387	19133.73934
534.593	18995.50932
534.799	19189.26379
535.006	19105.71547
535.212	19197.95114
535.418	19092.68812
535.625	19195.57678
535.831	19176.37095
536.037	19094.14333
536.244	19044.26726
536.45	18665.17701
536.656	19023.78999
536.862	19290.55519
537.068	19142.51427
537.275	19081.91988
537.481	19297.81853
537.687	19387.08215
537.893	19420.39026
538.099	19244.21787
538.305	19276.59374
538.512	19184.06135
538.718	19211.38498
538.924	19177.88182
539.13	19100.56276
539.336	19197.23336
539.542	19218.5114
539.748	19261.98332
539.954	19183.2659
540.16	19367.60037
540.366	18987.09394
540.572	19200.03316
540.778	19113.6792
540.984	19142.84241
541.19	19051.94977
541.396	19063.44329
541.602	19192.10612
541.807	19248.08022
542.013	19157.07012
542.219	18769.2494
542.425	19081.17768
542.631	18777.96341
542.837	18853.78409
543.042	18987.57874
543.248	18854.96007
543.454	18606.19396
543.66	18764.69075
543.865	18561.13606
544.071	18723.72148
544.277	18698.57322
544.483	18701.18271
544.688	18639.45625
544.894	18889.60622
545.1	18751.44079
545.305	18541.13725
545.511	18745.27873
545.716	18668.63521
545.922	18567.06998
546.128	18564.07589
546.333	18655.25457
546.539	18550.73788
546.744	18600.04385
546.95	18446.85665
547.155	18399.19325
547.361	18549.05227
547.566	18347.57267
547.772	18556.08317
547.977	18398.64748
548.182	18384.0858
548.388	18309.6146
548.593	18463.35314
548.799	18343.48208
549.004	18331.49768
549.209	18483.1764
549.415	18526.93286
549.62	18382.38962
549.825	18451.27554
550.031	18078.93578
550.236	18259.3823
550.441	18479.82429
550.646	18380.12998
550.852	18536.71168
551.057	18291.70745
551.262	18387.03196
551.467	18361.62596
551.672	18187.61393
551.878	18525.97927
552.083	18386.29343
552.288	18283.36722
552.493	18241.118
552.698	18296.43999
552.903	18123.90421
553.108	18462.43285
553.313	18494.34099
553.518	18262.82588
553.723	18174.02227
553.928	18357.9843
554.133	18156.7423
554.338	18440.25092
554.543	18395.20365
554.748	18287.12371
554.953	18269.47366
555.158	18279.28406
555.363	18259.39555
555.568	18110.02393
555.773	18446.41011
555.978	18305.71593
556.182	18231.96322
556.387	18290.6191
556.592	17971.24059
556.797	18354.84991
557.002	18284.0688
557.206	18095.13628
557.411	17997.04864
557.616	17992.72585
557.821	18176.3677
558.025	18117.46008
558.23	18093.95502
558.435	18198.60011
558.64	18062.05137
558.844	18149.53244
559.049	18108.63041
559.253	18057.74763
559.458	17983.80935
559.663	18142.58521
559.867	17894.59226
560.072	17875.97078
560.276	17840.15725
560.481	17835.20656
560.685	17809.8404
560.89	17757.38285
561.094	17727.65481
561.299	17730.16439
561.503	17513.17077
561.708	17636.55381
561.912	17599.68411
562.117	17642.28461
562.321	17477.06321
562.525	17841.24115
562.73	17658.46957
562.934	17565.7486
563.139	17485.14106
563.343	17540.24918
563.547	17530.05327
563.752	17539.94156
563.956	17441.311
564.16	17394.93006
564.364	17402.07674
564.569	17341.34005
564.773	17279.5166
564.977	17216.23816
565.181	17355.44105
565.385	17269.28038
565.59	17163.56938
565.794	17196.74191
565.998	17133.95643
566.202	17186.51639
566.406	17275.43703
566.61	17133.98134
566.814	17022.33117
567.018	17159.97251
567.222	17172.75986
567.426	16867.41474
567.63	16854.73496
567.834	17123.10037
568.038	17108.80935
568.242	16793.13692
568.446	16881.68844
568.65	16611.0438
568.854	16605.43831
569.058	16947.30729
569.262	17069.87139
569.466	16946.93915
569.67	16670.03736
569.874	16745.13714
570.078	16706.07085
570.281	16645.7329
570.485	16862.17026
570.689	16531.35991
570.893	16512.05419
571.097	16530.94034
571.3	16550.80457
571.504	16580.8469
571.708	16494.63703
571.912	16593.06379
572.115	16465.59445
572.319	16279.25743
572.523	16361.72023
572.726	16129.86983
572.93	16230.5621
573.133	16370.46394
573.337	16071.28579
573.541	16285.71605
573.744	16090.84253
573.948	16190.62688
574.151	16187.46201
574.355	16116.94831
574.558	16102.40295
574.762	16182.27124
574.965	16011.79869
575.169	15951.87823
575.372	15882.55588
575.576	15965.43048
575.779	16053.58901
575.983	15952.09004
576.186	15748.66312
576.389	15830.80652
576.593	15750.45434
576.796	15955.40369
577	15536.21311
577.203	15801.79146
577.406	15822.70457
577.609	15682.72488
577.813	15590.37232
578.016	15703.32496
578.219	15716.19256
578.423	15508.57957
578.626	15464.03734
578.829	15660.94638
579.032	15501.15363
579.235	15742.88409
579.438	15561.00323
579.642	15406.55452
579.845	15445.05658
580.048	15471.21167
580.251	15431.39264
580.454	15410.29596
580.657	15364.07248
580.86	15313.50363
581.063	15168.77688
581.266	15349.4691
581.469	15377.94821
581.672	15273.07826
581.875	15376.96792
582.078	15277.46018
582.281	15273.67511
582.484	15162.79633
582.687	15285.28939
582.89	15323.05837
583.093	15071.74451
583.296	15166.20053
583.499	15209.96591
583.702	15209.84211
583.904	15076.85347
584.107	15248.01123
584.31	15109.76653
584.513	15170.02751
584.716	15119.78757
584.918	15106.9213
585.121	15189.59219
585.324	15051.12968
585.527	14976.14904
585.729	15373.42999
585.932	15052.705
586.135	15028.16411
586.337	15139.89046
586.54	15111.0262
586.743	15034.1905
586.945	15018.34345
587.148	15017.27765
587.35	15066.89204
587.553	14996.77147
587.755	15070.5205
587.958	15104.32528
588.161	14988.01351
588.363	14977.93308
588.566	15031.65624
588.768	15084.45354
588.971	14993.84133
589.173	14857.73793
589.375	14871.72718
589.578	14879.74897
589.78	14769.70869
589.983	14905.08859
590.185	14834.57457
590.387	14669.14441
590.59	14760.36968
590.792	14631.75808
590.994	14547.02441
591.197	14498.07474
591.399	14378.21757
591.601	14316.83447
591.803	14464.07293
592.006	14414.15128
592.208	14435.43738
592.41	14307.59678
592.612	14288.08023
592.815	14244.82212
593.017	14254.76447
593.219	14046.40608
593.421	14151.02448
593.623	13942.37292
593.825	13900.52174
594.027	13984.42149
594.229	14173.95717
594.432	13754.35738
594.634	13749.93115
594.836	13740.5414
595.038	13845.16284
595.24	13566.21731
595.442	13796.55003
595.644	13652.4393
595.846	13523.63302
596.048	13419.67584
596.249	13485.97368
596.451	13602.51856
596.653	13489.98861
596.855	13547.12433
597.057	13386.90639
597.259	13343.51983
597.461	13276.13109
597.663	13432.91583
597.864	13202.40203
598.066	13307.1318
598.268	13170.84698
598.47	13174.95464
598.671	13137.26475
598.873	13162.95262
599.075	13262.25996
599.277	13336.56716
599.478	13208.41942
599.68	13209.13409
599.882	13212.49302
600.083	13255.8482
600.285	13026.97784
600.487	13070.02052
600.688	13137.39993
600.89	13032.82134
601.091	13183.30568
601.293	12999.91994
601.494	13141.06692
601.696	13008.14982
601.898	13164.34737
602.099	13130.78633
602.301	12993.92044
602.502	12951.54077
602.703	13062.47393
602.905	12783.35716
603.106	13027.00603
603.308	12908.67179
603.509	12973.4772
603.711	12798.65585
603.912	12855.33456
604.113	12808.80552
604.315	12790.22636
604.516	12858.62552
604.717	12851.35807
604.919	12763.27679
605.12	12828.25465
605.321	12797.71888
605.522	12775.74372
605.724	12951.05012
605.925	12714.14321
606.126	12778.12246
606.327	12781.38986
606.528	12688.51367
606.729	12813.23209
606.931	12789.91401
607.132	12891.99053
607.333	12556.19236
607.534	12844.64871
607.735	12565.80491
607.936	12770.27471
608.137	12675.5277
608.338	12859.79651
608.539	12444.13243
608.74	12597.25238
608.941	12602.41824
609.142	12662.79721
609.343	12677.02901
609.544	12818.08376
609.745	12607.66651
609.946	12721.63525
610.147	12404.72363
610.348	12587.08714
610.549	12460.68842
610.75	12742.47274
610.95	12575.14591
611.151	12609.60393
611.352	12536.3033
611.553	12760.85395
611.754	12537.92023
611.954	12638.80307
612.155	12452.16388
612.356	12579.46876
612.557	12553.5841
612.757	12681.70112
612.958	12485.77306
613.159	12555.19747
613.359	12532.02296
613.56	12613.66438
613.761	12649.8936
613.961	12484.83679
614.162	12423.69877
614.362	12449.69038
614.563	12468.99362
614.764	12539.81251
614.964	12456.32649
615.165	12438.13468
615.365	12481.3738
615.566	12348.10272
615.766	12383.10585
615.967	12363.16532
616.167	12171.8183
616.368	12133.50968
616.568	12310.39294
616.768	12263.4874
616.969	12336.29137
617.169	12416.80593
617.37	12172.47597
617.57	12187.76692
617.77	12224.33593
617.971	12120.67212
618.171	12180.98839
618.371	12132.9187
618.571	12001.68891
618.772	12237.30249
618.972	12091.6647
619.172	12109.79545
619.372	11929.99759
619.573	12049.72403
619.773	12073.25503
619.973	11902.08547
620.173	12014.31536
620.373	12070.34797
620.573	11927.63066
620.774	12050.62004
620.974	11787.91469
621.174	11862.67839
621.374	11879.6781
621.574	11979.56016
621.774	11810.30548
621.974	11914.94706
622.174	11812.2262
622.374	11891.99414
622.574	11880.8458
622.774	11691.21273
622.974	11791.20425
623.174	11895.23923
623.374	11881.11771
623.574	11883.57284
623.774	11860.7345
623.973	11697.47499
624.173	11744.08984
624.373	11789.61206
624.573	11707.83335
624.773	11663.27895
624.973	11545.76371
625.172	11798.56151
625.372	11713.68059
625.572	11728.55877
625.772	11435.13344
625.971	11705.16436
626.171	11523.14777
626.371	11607.79457
626.57	11480.15974
626.77	11660.70164
626.97	11508.92102
627.169	11582.50194
627.369	11435.39377
627.569	11630.30144
627.768	11329.03876
627.968	11407.83028
628.167	11446.85158
628.367	11550.68204
628.566	11350.21159
628.766	11263.17666
628.965	11362.44939
629.165	11408.97003
629.364	11149.98927
629.564	11291.5946
629.763	11246.86474
629.963	11375.55457
630.162	11298.3696
630.362	11268.89244
630.561	11199.3758
630.76	11138.80795
630.96	10979.08616
631.159	11271.21295
631.358	11122.3486
631.558	11186.30834
631.757	11151.10636
631.956	10970.05743
632.155	11163.47183
632.355	11101.30146
632.554	10898.59684
632.753	10833.32561
632.952	10987.48654
633.152	10933.85353
633.351	10864.85329
633.55	10853.06547
633.749	10800.86928
633.948	10855.71715
634.147	10629.01339
634.346	10770.64992
634.545	10622.48079
634.744	10879.75617
634.944	10730.12114
635.143	10670.45228
635.342	10580.15155
635.541	10655.37876
635.74	10527.2281
635.939	10718.49484
636.138	10622.41021
636.336	10657.01457
636.535	10568.41871
636.734	10686.97447
636.933	10574.40156
637.132	10621.4941
637.331	10481.47719
637.53	10569.51683
637.729	10508.61477
637.928	10432.22784
638.126	10565.90166
638.325	10541.44711
638.524	10400.18016
638.723	10240.22985
638.921	10566.84691
639.12	10433.52379
639.319	10366.97603
639.518	10472.85845
639.716	10254.71164
639.915	10413.28382
640.114	10530.51205
640.312	10452.70333
640.511	10299.7474
640.71	10498.62707
640.908	10429.55714
641.107	10479.40212
641.305	10322.6928
641.504	10354.73954
641.702	10220.85822
641.901	10173.51358
642.099	10231.45577
642.298	10311.30384
642.496	10193.39364
642.695	10248.00604
642.893	10169.0771
643.092	10304.16298
643.29	10197.42776
643.489	10226.26277
643.687	10186.09161
643.885	10230.05495
644.084	10090.70392
644.282	10147.05959
644.48	10236.99701
644.679	10279.3681
644.877	10039.71632
645.075	10143.22623
645.274	10150.17094
645.472	10140.33584
645.67	10056.48525
645.868	10239.78025
646.067	10031.41976
646.265	10151.92311
646.463	10184.26191
646.661	10143.67637
646.859	10106.15086
647.057	9969.7463
647.256	10069.97056
647.454	10022.00381
647.652	10058.23728
647.85	9907.02957
648.048	9970.20585
648.246	9889.48161
648.444	9792.23553
648.642	10041.27291
648.84	9885.31253
649.038	9928.90404
649.236	9747.99398
649.434	9843.47718
649.632	9852.30411
649.83	9744.8921
650.028	9642.08975
650.226	9743.90773
650.423	9572.64058
650.621	9538.98717
650.819	9626.59079
651.017	9600.55817
651.215	9690.90839
651.413	9556.48533
651.61	9626.35668
651.808	9451.58356
652.006	9364.02794
652.204	9507.62561
652.401	9469.64383
652.599	9464.20448
652.797	9393.75396
652.995	9375.52597
653.192	9227.28295
653.39	9396.59526
653.588	9347.55882
653.785	9293.92203
653.983	9368.08688
654.18	9414.45567
654.378	9243.299
654.576	9178.93522
654.773	9209.64623
654.971	9200.43523
655.168	9173.85797
655.366	9268.07174
655.563	9264.64985
655.761	9071.9813
655.958	8993.39333
656.156	9155.92802
656.353	8916.15605
656.55	9000.24711
656.748	8983.09594
656.945	8971.59087
657.143	8985.04562
657.34	9042.62767
657.537	8897.52351
657.735	8860.80838
657.932	8588.94262
658.129	8717.4956
658.326	8608.96069
658.524	8646.01265
658.721	8731.80809
658.918	8706.11163
659.115	8444.48238
659.313	8568.24416
659.51	8576.80024
659.707	8560.66018
659.904	8568.02192
660.101	8625.84152
660.298	8505.24002
660.496	8417.00992
660.693	8373.13912
660.89	8520.58318
661.087	8443.94085
661.284	8280.67059
661.481	8385.27691
661.678	8336.54594
661.875	8299.3614
662.072	8372.26573
662.269	8286.89486
662.466	8365.08816
662.663	8141.76672
662.86	8240.68303
663.057	8219.99985
663.254	8244.29254
663.45	8298.35383
663.647	8231.15567
663.844	8247.46657
664.041	8183.90564
664.238	8221.65695
664.435	8236.30405
664.631	8118.74631
664.828	8176.37823
665.025	8062.80195
665.222	8079.45929
665.419	8153.46559
665.615	8161.57345
665.812	8075.80121
666.009	8132.27493
666.205	8066.0025
666.402	8248.30023
666.599	8144.34924
666.795	8195.39795
666.992	8161.66655
667.188	8246.20398
667.385	8032.02848
667.582	8327.95797
667.778	8147.37821
667.975	8184.63113
668.171	8170.8714
668.368	8141.21369
668.564	8049.26551
668.761	8162.50794
668.957	8102.27472
669.154	8197.61772
669.35	8058.62186
669.547	8156.28907
669.743	8097.23822
669.939	8199.909
670.136	8137.97706
670.332	8150.02746
670.528	7956.29794
670.725	8054.2416
670.921	8074.9596
671.117	8045.96307
671.314	8032.50749
671.51	8092.01194
671.706	8007.67902
671.902	8000.89466
672.099	8044.75272
672.295	8113.48042
672.491	7985.63346
672.687	7842.18982
672.883	8042.29886
673.08	8004.02376
673.276	7907.3815
673.472	8048.13692
673.668	7904.06168
673.864	7899.48121
674.06	7780.765
674.256	7921.33075
674.452	7858.25623
674.648	7957.4934
674.844	7853.47873
675.04	7939.90453
675.236	7927.56155
675.432	7854.50865
675.628	7742.46745
675.824	7756.1251
676.02	7814.1672
676.216	7735.33557
676.412	7729.88786
676.608	7694.07084
676.804	7648.33807
676.999	7702.99351
677.195	7672.85683
677.391	7866.62281
677.587	7630.61004
677.783	7580.09149
677.978	7605.59148
678.174	7650.29917
678.37	7544.6283
678.566	7633.49977
678.761	7639.74343
678.957	7628.66875
679.153	7580.40773
679.348	7553.15139
679.544	7631.60663
679.74	7570.12305
679.935	7460.4931
680.131	7467.6574
680.327	7618.93075
680.522	7502.43077
680.718	7476.14428
680.913	7562.31349
681.109	7347.5575
681.304	7560.5071
681.5	7544.44146
681.695	7558.50266
681.891	7463.911
682.086	7500.14242
682.282	7423.67157
682.477	7289.24106
682.672	7419.15347
682.868	7420.82997
683.063	7314.53316
683.259	7512.34926
683.454	7173.1367
683.649	7346.47265
683.845	7245.40735
684.04	7346.52371
684.235	7328.03583
684.43	7310.28429
684.626	7288.08358
684.821	7285.20135
685.016	7271.01244
685.211	7079.93783
685.407	7095.97852
685.602	7163.8299
685.797	7185.214
685.992	7145.76569
686.187	7177.98361
686.382	7183.93227
686.577	6975.30921
686.773	7196.14501
686.968	7067.45939
687.163	7101.03246
687.358	6973.48977
687.553	7070.74787
687.748	7075.58157
687.943	7049.82816
688.138	6960.94222
688.333	7011.85539
688.528	6801.02084
688.723	6837.80142
688.918	6874.78956
689.112	6896.12919
689.307	6631.6754
689.502	6715.84666
689.697	6722.13196
689.892	6783.41861
690.087	6461.50204
690.282	6725.295
690.476	6614.72567
690.671	6506.35225
690.866	6452.22695
691.061	6461.27468
691.255	6430.91947
691.45	6491.06687
691.645	6339.65085
691.84	6369.61755
692.034	6331.87452
692.229	6270.02562
692.424	6229.74526
692.618	6297.12141
692.813	6128.67232
693.007	6027.05467
693.202	6067.82648
693.397	6102.39029
693.591	5963.37186
693.786	6050.62507
693.98	5998.72622
694.175	6067.4182
694.369	5842.74122
694.564	5991.90906
694.758	5900.79537
694.953	5813.77028
695.147	5861.21216
695.342	5772.19048
695.536	5790.38046
695.73	5757.31917
695.925	5705.10243
696.119	5762.49848
696.313	5533.6719
696.508	5776.82736
696.702	5653.59107
696.896	5595.82909
697.091	5757.75875
697.285	5731.31582
697.479	5668.26398
697.673	5705.06417
697.868	5588.83335
698.062	5747.16569
698.256	5488.60534
698.45	5593.93039
698.644	5605.83933
698.839	5698.77128
699.033	5638.78235
699.227	5735.40066
699.421	5562.82406
699.615	5613.32944
699.809	5574.93389
700.003	5723.97607
700.197	5603.00448
700.391	5674.16856
700.585	5537.24405
700.779	5648.80272
700.973	5637.89309
701.167	5667.56439
701.361	5587.71994
701.555	5694.50058
701.749	5568.52756
701.943	5735.7493
702.137	5428.99069
702.331	5508.60747
702.525	5506.00525
702.718	5602.81165
702.912	5603.41433
703.106	5610.89836
703.3	5529.11322
703.494	5626.86727
703.687	5476.22722
703.881	5620.10985
704.075	5602.18838
704.269	5587.26462
704.462	5595.62638
704.656	5639.5441
704.85	5433.25453
705.043	5588.89895
705.237	5484.24892
705.431	5556.66713
705.624	5333.77409
705.818	5559.08606
706.012	5530.94642
706.205	5508.19137
706.399	5512.17207
706.592	5547.22136
706.786	5462.6331
706.979	5436.58018
707.173	5345.47968
707.366	5456.97778
707.56	5494.35027
707.753	5432.96496
707.947	5549.53282
708.14	5384.24448
708.333	5359.57275
708.527	5358.97283
708.72	5324.67097
708.914	5385.0638
709.107	5273.19174
709.3	5338.9701
709.494	5290.04693
709.687	5285.13679
709.88	5320.50799
710.073	5177.25816
710.267	5258.24065
710.46	5257.81002
710.653	5326.84929
710.846	5354.16322
711.04	5326.42919
711.233	5297.20453
711.426	5288.3039
711.619	5287.22243
711.812	5194.45284
712.005	5330.13045
712.198	5186.84401
712.391	5251.90077
712.585	5209.47201
712.778	5207.82049
712.971	5200.5295
713.164	5253.66286
713.357	5252.79725
713.55	5267.116
713.743	5141.65786
713.936	5233.51349
714.129	5153.0612
714.322	5115.33005
714.514	5079.38488
714.707	5175.81609
714.9	5118.69368
715.093	5100.08457
715.286	5111.59825
715.479	5091.55243
715.672	5165.62852
715.864	5088.83614
716.057	5029.65091
716.25	4992.24463
716.443	5063.91622
716.636	5122.7718
716.828	5062.52914
717.021	5013.76644
717.214	5090.6534
717.406	5085.22186
717.599	4969.57893
717.792	4909.45794
717.984	4918.6959
718.177	5068.77063
718.37	4915.31091
718.562	4962.49067
718.755	4924.7975
718.947	4904.15284
719.14	4819.68536
719.333	4909.9021
719.525	4685.02983
719.718	4747.41977
719.91	4595.39317
720.103	4695.48882
720.295	4584.77114
720.487	4609.68649
720.68	4606.22394
720.872	4592.68337
721.065	4378.67361
721.257	4421.01151
721.449	4375.05481
721.642	4457.65418
721.834	4354.28851
722.026	4295.52403
722.219	4343.1466
722.411	4346.36099
722.603	4061.83173
722.796	4315.35438
722.988	4196.62394
723.18	4171.06257
723.372	4167.58654
723.565	4033.26091
723.757	3969.35419
723.949	4096.40334
724.141	3992.91435
724.333	4052.0548
724.525	3866.40077
724.717	4033.68184
724.91	3858.69825
725.102	3966.29899
725.294	3817.457
725.486	3855.83876
725.678	3891.93085
725.87	3855.49312
726.062	3748.30874
726.254	3772.86534
726.446	3724.60878
726.638	3630.23628
726.83	3697.69405
727.022	3682.00118
727.213	3740.93797
727.405	3730.03593
727.597	3555.73082
727.789	3650.83829
727.981	3527.33534
728.173	3682.56496
728.365	3463.65033
728.556	3675.28167
728.748	3512.28269
728.94	3617.54186
729.132	3600.99661
729.324	3631.53852
729.515	3560.80807
729.707	3450.21123
729.899	3536.7405
730.09	3603.17553
730.282	3444.50917
730.474	3531.48001
730.665	3501.37056
730.857	3618.14435
731.049	3386.83786
731.24	3607.27432
731.432	3488.84752
731.623	3474.5465
731.815	3483.6908
732.006	3509.17767
732.198	3407.98918
732.389	3504.11008
732.581	3409.06615
732.772	3499.86169
732.964	3417.24772
733.155	3467.19247
733.347	3441.94118
733.538	3403.23789
733.729	3366.09096
733.921	3398.93553
734.112	3267.44609
734.304	3492.98341
734.495	3356.47425
734.686	3445.98155
734.877	3351.52476
735.069	3494.97322
735.26	3342.21934
735.451	3450.02733
735.643	3307.73646
735.834	3535.9915
736.025	3450.12748
736.216	3419.48006
736.407	3335.31246
736.599	3428.73905
736.79	3336.26435
736.981	3448.52136
737.172	3351.45559
737.363	3406.61803
737.554	3387.50116
737.745	3387.7477
737.936	3414.32216
738.127	3577.34918
738.318	3375.06422
738.509	3554.62423
738.7	3465.1111
738.891	3512.85417
739.082	3422.70707
739.273	3479.30695
739.464	3521.3182
739.655	3511.52926
739.846	3479.61445
740.037	3556.85869
740.228	3405.33805
740.419	3591.47881
740.609	3488.37367
740.8	3614.06396
740.991	3502.8799
741.182	3449.20943
741.373	3498.37821
741.563	3649.3287
741.754	3457.85814
741.945	3550.56185
742.136	3562.14031
742.326	3577.76481
742.517	3519.62138
742.708	3558.55573
742.898	3426.73303
743.089	3511.62316
743.28	3465.44365
743.47	3502.90108
743.661	3502.59268
743.851	3572.48343
744.042	3403.66052
744.233	3525.73755
744.423	3420.03147
744.614	3563.28206
744.804	3444.36625
744.995	3541.67176
745.185	3261.35627
745.376	3500.23639
745.566	3498.83344
745.756	3493.27639
745.947	3378.5085
746.137	3486.67729
746.328	3384.02414
746.518	3516.14089
746.708	3363.49947
746.899	3465.79746
747.089	3450.03417
747.279	3398.56965
747.47	3385.70192
747.66	3504.94969
747.85	3349.74311
748.04	3459.38325
748.231	3469.83396
748.421	3415.84085
748.611	3362.11797
748.801	3305.29615
748.991	3432.6503
749.182	3335.76091
749.372	3365.90276
749.562	3381.58474
749.752	3398.97338
749.942	3393.96702
750.132	3312.34289
750.322	3404.64258
750.512	3259.60419
750.702	3457.20559
750.892	3292.51462
751.082	3366.05379
751.272	3242.41132
751.462	3344.38598
751.652	3377.95408
751.842	3350.52164
752.032	3155.88422
752.222	3414.73337
752.412	3260.49568
752.602	3210.22428
752.792	3291.75147
752.981	3299.16103
753.171	3180.40581
753.361	3244.66885
753.551	3226.42702
753.741	3346.46163
753.93	3162.13068
754.12	3261.83145
754.31	3143.82589
754.5	3191.31255
754.689	3219.86648
754.879	3291.71345
755.069	3037.17581
755.258	3287.5969
755.448	3191.97776
755.638	3176.29505
755.827	2985.90869
756.017	3182.41975
756.206	3054.46118
756.396	3235.04464
756.586	3102.6749
756.775	3169.58179
756.965	3087.11816
757.154	3109.88666
757.344	2935.81057
757.533	3130.02869
757.723	3131.41417
757.912	3098.85222
758.101	3183.9597
758.291	3172.238
758.48	3070.25613
758.67	3086.95508
758.859	2979.53801
759.048	3043.07302
759.238	2886.76061
759.427	3050.11844
759.616	2947.89513
759.806	2996.2792
759.995	2972.0874
760.184	3010.22968
760.373	2873.18057
760.563	2979.65516
760.752	2830.65146
760.941	2960.47467
761.13	2712.57332
761.319	2845.2423
761.509	2798.1807
761.698	2769.14798
761.887	2644.40649
762.076	2763.49582
762.265	2594.33085
762.454	2654.82083
762.643	2485.37122
762.832	2431.24685
763.021	2336.81048
763.21	2437.29007
763.399	2345.97812
763.588	2242.55078
763.777	2216.58339
763.966	2143.0016
764.155	2054.99062
764.344	2109.63491
764.533	2060.14787
764.722	2089.51864
764.911	1841.98166
765.1	1786.52834
765.288	1759.68987
765.477	1814.1896
765.666	1681.51443
765.855	1740.84474
766.044	1578.44249
766.232	1602.14613
766.421	1467.54343
766.61	1541.03894
766.799	1353.68148
766.987	1450.14251
767.176	1312.85212
767.365	1312.7834
767.553	1287.84038
767.742	1330.89563
767.931	1254.91998
768.119	1225.36983
768.308	1182.86513
768.497	1229.1707
768.685	1105.17116
768.874	1205.50593
769.062	1055.56741
769.251	1192.86259
769.439	1139.6218
769.628	1210.60039
769.816	1134.05473
770.005	1154.26469
770.193	1176.69831
770.382	1337.44034
770.57	1260.08194
770.758	1347.92091
770.947	1272.34109
771.135	1283.9354
771.323	1297.47129
771.512	1368.0785
771.7	1314.26659
771.888	1388.65776
772.077	1410.75249
772.265	1470.38651
772.453	1497.81381
772.642	1549.36407
772.83	1544.68884
773.018	1647.55229
773.206	1539.86916
773.394	1738.75606
773.583	1639.00556
773.771	1738.47602
773.959	1706.43777
774.147	1759.46621
774.335	1831.46553
774.523	1780.616
774.711	1801.25522
774.899	1985.86941
775.087	1895.40994
775.275	1931.43534
775.463	1882.50877
775.651	2021.80259
775.839	1935.91732
776.027	2095.76893
776.215	1952.87069
776.403	2183.15781
776.591	1981.67991
776.779	2153.34027
776.967	1984.55766
777.155	2140.5912
777.343	2091.88113
777.531	2190.77412
777.718	2020.22169
777.906	2191.43081
778.094	2104.01312
778.282	2199.53617
778.47	2099.67346
778.657	2145.18984
778.845	2176.5029
779.033	2218.16007
779.22	2122.74763
779.408	2225.00234
779.596	2104.64518
779.783	2241.11773
779.971	2060.31239
780.159	2157.85264
780.346	2129.76633
780.534	2219.69807
780.722	2193.55339
780.909	2203.55619
781.097	2113.96911
781.284	2261.08826
781.472	2088.1266
781.659	2153.87059
781.847	2046.53829
782.034	2237.66139
782.222	2064.77592
782.409	2143.77881
782.597	2047.47521
782.784	2118.27155
782.971	2069.41285
783.159	2167.35907
783.346	2029.60802
783.533	2093.60643
783.721	2019.60791
783.908	2109.09571
784.095	1903.51834
784.283	2028.94329
784.47	2046.43301
784.657	2051.43714
784.844	2052.47812
785.032	2038.21125
785.219	1990.76418
785.406	2135.07977
785.593	1957.28178
785.78	2031.93472
785.968	2005.39094
786.155	2033.18241
786.342	1917.40192
786.529	2039.21246
786.716	1865.34693
786.903	1993.84545
787.09	1935.52072
787.277	2063.08831
787.464	1863.2094
787.651	1942.98789
787.838	1902.43079
788.025	1948.66388
788.212	1821.19084
788.399	1991.26509
788.586	1768.42766
788.773	1957.83552
788.96	1842.54649
789.147	1930.82381
789.334	1757.71592
789.521	1965.03976
789.707	1935.68537
789.894	1959.78402
790.081	1807.39904
790.268	1862.84924
790.455	1830.4538
790.641	1885.29061
790.828	1799.69112
791.015	1847.10418
791.202	1761.17393
791.388	1841.09708
791.575	1697.08729
791.762	1789.85557
791.948	1741.80047
792.135	1754.16261
792.322	1632.79533
792.508	1747.75256
792.695	1722.64365
792.881	1781.64735
793.068	1694.71063
793.254	1761.10645
793.441	1659.05565
793.627	1569.62313
793.814	1695.28853
794	1699.69113
794.187	1626.38253
794.373	1719.72593
794.56	1626.87637
794.746	1691.26868
794.933	1671.58786
795.119	1704.62268
795.305	1603.0122
795.492	1693.49534
795.678	1566.6497
795.864	1708.82795
796.051	1588.01471
796.237	1561.93683
796.423	1533.30104
796.61	1596.1668
796.796	1557.57068
796.982	1622.54272
797.168	1519.58697
797.355	1593.48015
797.541	1522.92276
797.727	1670.93315
797.913	1402.24597
798.099	1513.42983
798.285	1469.50209
798.471	1545.05432
798.658	1419.10847
798.844	1543.63769
799.03	1438.23594
799.216	1552.54094
799.402	1448.2708
799.588	1538.93296
799.774	1476.08255
799.96	1472.99824
800.146	1415.77287
800.332	1514.22454
800.518	1419.53282
800.704	1511.88723
800.89	1452.16569
801.075	1495.01388
801.261	1527.47288
801.447	1493.60799
801.633	1432.49988
801.819	1525.18029
802.005	1403.17763
802.19	1614.1847
802.376	1367.20069
802.562	1503.83994
802.748	1395.93472
802.934	1424.34308
803.119	1443.18191
803.305	1387.40778
803.491	1486.93063
803.676	1473.62769
803.862	1406.70172
804.048	1408.48923
804.233	1383.80453
804.419	1487.47571
804.605	1315.46009
804.79	1447.87617
804.976	1311.30174
805.161	1423.58101
805.347	1371.85867
805.532	1457.13197
805.718	1392.68029
805.903	1428.33491
806.089	1350.39751
806.274	1418.45909
806.46	1359.11097
806.645	1498.49832
806.831	1417.28273
807.016	1474.95209
807.201	1338.88321
807.387	1447.98766
807.572	1322.86708
807.757	1350.50123
807.943	1289.27409
808.128	1413.57207
808.313	1358.28867
808.499	1390.91268
808.684	1317.23755
808.869	1300.46152
809.054	1286.10875
809.24	1332.4718
809.425	1247.08767
809.61	1352.01836
809.795	1298.07456
809.98	1452.26262
810.165	1243.36848
810.35	1333.86876
810.536	1273.39019
810.721	1307.23019
810.906	1198.98073
811.091	1328.86281
811.276	1270.13505
811.461	1289.05595
811.646	1207.55712
811.831	1361.62829
812.016	1201.855
812.201	1336.0828
812.386	1291.5607
812.571	1317.59541
812.756	1189.87219
812.941	1343.75858
813.125	1199.18567
813.31	1298.64339
813.495	1235.35378
813.68	1229.33798
813.865	1154.63816
814.05	1280.20272
814.234	1106.01182
814.419	1219.3188
814.604	1157.86581
814.789	1301.95776
814.973	1144.05986
815.158	1185.20409
815.343	1147.03204
815.528	1207.94531
815.712	1102.01408
815.897	1249.91415
816.081	1077.78305
816.266	1144.90183
816.451	1131.37114
816.635	1076.06903
816.82	999.42684
817.004	1098.48796
817.189	979.49411
817.374	1057.12819
817.558	949.90683
817.743	1003.41697
817.927	958.26412
818.111	1004.6448
818.296	906.26961
818.48	972.28452
818.665	863.13913
818.849	954.38688
819.034	896.52513
819.218	917.29863
819.402	798.57466
819.587	820.16046
819.771	807.25881
819.955	868.17385
820.14	744.61697
820.324	837.91461
820.508	737.8077
820.692	781.55664
820.877	737.20809
821.061	758.17515
821.245	721.23987
821.429	751.72477
821.613	710.2789
821.798	682.52899
821.982	670.43844
822.166	727.31077
822.35	635.67337
822.534	652.40014
822.718	610.66837
822.902	705.47645
823.086	609.05376
823.27	669.50344
823.454	567.87187
823.638	713.38319
823.822	603.51971
824.006	668.59238
824.19	612.66409
824.374	711.02107
824.558	563.35838
824.742	626.98454
824.926	567.35558
825.11	710.40609
825.294	521.08421
825.477	580.92938
825.661	633.87699
825.845	610.20491
826.029	562.53831
826.213	589.32051
826.396	533.86626
826.58	564.28105
826.764	500.72698
826.948	479.20096
827.131	572.30252
827.315	511.29005
827.499	509.35157
827.682	607.32808
827.866	563.50235
828.05	544.48155
828.233	547.44058
828.417	534.50522
828.6	508.69811
828.784	621.18016
828.967	452.09305
829.151	544.28293
829.335	485.74088
829.518	517.73845
829.701	527.01411
829.885	537.98846
830.068	446.91691
830.252	555.1459
830.435	478.24882
830.619	491.18444
830.802	556.25515
830.985	511.25254
831.169	428.07098
831.352	500.10019
831.535	502.74487
831.719	475.71012
831.902	523.89747
832.085	485.54465
832.269	438.88887
832.452	512.90909
832.635	490.98016
832.818	516.62947
833.002	467.39305
833.185	486.4764
833.368	470.13865
833.551	501.61573
833.734	422.50645
833.917	482.55147
834.1	460.27488
834.284	533.30747
834.467	488.14141
834.65	526.44748
834.833	403.68477
835.016	491.38307
835.199	438.37743
835.382	455.94634
835.565	406.93563
835.748	461.38641
835.931	432.84335
836.114	475.78018
836.297	438.92124
836.479	517.89009
836.662	429.13606
836.845	484.75531
837.028	385.6983
837.211	468.33169
837.394	429.31119
837.577	411.32861
837.759	427.08495
837.942	432.39381
838.125	409.19316
838.308	399.86766
838.49	475.53196
838.673	332.89208
838.856	417.23575
839.039	422.52213
839.221	427.22792
839.404	422.41248
839.587	382.21355
839.769	481.45831
839.952	369.99979
840.134	449.52379
840.317	401.32238
840.499	443.53159
840.682	352.80715
840.865	495.1892
841.047	442.79685
841.23	412.81042
841.412	406.81477
841.595	415.38182
841.777	345.6275
841.959	447.26486
842.142	368.80306
842.324	345.80597
842.507	461.35235
842.689	425.15929
842.871	431.79424
843.054	423.79254
843.236	394.28854
843.418	401.12885
843.601	444.82455
843.783	374.37373
843.965	386.87003
844.147	468.38374
844.33	355.40294
844.512	406.67911
844.694	368.87162
844.876	403.80514
845.059	348.80537
845.241	438.74343
845.423	410.36778
845.605	384.36992
845.787	334.99691
845.969	419.12061
846.151	328.7507
846.333	438.60615
846.515	392.64575
846.697	391.55744
846.879	367.9079
847.061	419.58881
847.243	291.60759
847.425	320.9981
847.607	417.25131
847.789	363.36662
847.971	390.63557
848.153	414.82233
848.335	329.94066
848.517	376.71369
848.699	394.84547
848.881	418.10068
849.062	318.72933
849.244	381.28396
849.426	321.07028
849.608	368.40439
849.789	319.0046
849.971	345.25406
850.153	264.80722
850.335	336.72508
850.516	296.26004
850.698	369.31266
850.88	340.21378
851.061	323.18251
851.243	308.71482
851.425	362.57686
851.606	323.23089
851.788	300.8505
851.969	323.23089
852.151	368.19692
852.333	259.05642
852.514	314.5468
852.696	273.98946
852.877	310.93685
853.059	335.91162
853.24	261.49467
853.422	203.08789
853.603	288.69119
853.784	220.16239
853.966	287.2927
854.147	179.81151
854.329	290.71947
854.51	296.21573
854.691	259.37636
854.873	246.32912
855.054	289.89648
855.235	188.78092
855.416	289.68928
855.598	210.13572
855.779	287.50831
855.96	329.26974
856.141	276.39136
856.323	253.80481
856.504	235.9155
856.685	278.56511
856.866	179.83189
857.047	260.85807
857.228	213.56747
857.409	219.26667
857.591	187.817
857.772	249.4816
857.953	192.14122
858.134	219.39988
858.315	215.66914
858.496	193.28311
858.677	225.9366
858.858	195.67122
859.039	273.23214
859.22	238.30626
859.401	201.46633
859.582	245.32083
859.762	166.48924
859.943	209.10281
860.124	260.82845
860.305	195.7009
860.486	155.22798
860.667	158.63571
860.848	176.66416
861.028	185.63812
861.209	227.06499
861.39	241.90329
861.571	167.61737
861.751	165.32976
861.932	160.69102
862.113	203.66312
862.293	187.85264
862.474	169.71934
862.655	186.87352
862.835	117.081
863.016	212.80295
863.197	233.00836
863.377	160.83091
863.558	177.8538
863.738	210.51081
863.919	192.31572
864.099	191.21643
864.28	181.36599
864.46	164.15838
864.641	166.64153
864.821	200.30645
865.002	192.29384
865.182	195.68606
865.363	177.80636
865.543	186.80231
865.723	172.33403
865.904	189.06019
866.084	117.00076
866.264	123.72738
866.445	103.52419
866.625	169.89314
866.805	152.01256
866.986	173.32464
867.166	160.89201
867.346	122.52595
867.526	95.70019
867.707	158.787
867.887	150.92982
868.067	164.37701
868.247	115.953
868.427	118.19552
868.607	156.35581
868.788	175.56897
868.968	105.80294
869.148	164.38957
869.328	147.41281
869.508	169.96432
869.688	130.61544
869.868	148.49011
870.048	110.35577
870.228	126.13552
870.408	186.76678
870.588	177.8199
870.768	117.15265
870.948	163.17955
871.128	95.72946
871.307	139.62885
871.487	90.11035
871.667	111.41594
871.847	111.50532
872.027	169.919
872.207	70.9659
872.387	108.19479
872.566	137.42406
872.746	160.9717
872.926	127.26904
873.106	117.13023
873.285	137.48732
873.465	100.25743
873.645	79.94383
873.824	140.83847
874.004	128.41254
874.184	111.47973
874.363	102.51828
874.543	109.29874
874.723	117.21111
874.902	95.74778
875.082	139.67159
875.261	91.23499
875.441	50.64537
875.62	95.75512
875.8	76.56737
875.979	152.04745
876.159	84.47357
876.338	55.20624
876.518	105.94886
876.697	98.03451
876.876	33.81075
877.056	54.06818
877.235	56.2823
877.415	121.67723
877.594	141.8268
877.773	140.88174
877.953	47.3006
878.132	120.49749
878.311	86.77945
878.49	138.53724
878.67	75.48616
878.849	63.10376
879.028	85.63435
879.207	86.70963
879.387	137.35051
879.566	135.10915
879.745	83.41284
879.924	67.55942
880.103	70.99585
880.282	102.67237
880.461	128.62031
880.64	98.07597
880.819	117.17062
880.998	144.20481
881.178	13.52585
881.357	122.71698
881.536	122.80623
881.715	134.09872
881.893	87.92843
882.072	38.30415
882.251	70.97406
882.43	76.61723
882.609	74.35237
882.788	48.46116
882.967	77.7544
883.146	51.86313
883.325	113.74927
883.503	107.08628
883.682	116.09522
883.861	110.4319
884.04	77.80827
884.219	54.091
884.397	80.05434
884.576	58.55819
884.755	92.3879
884.933	52.95902
885.112	85.74991
885.291	98.04581
885.469	108.19895
885.648	69.94029
885.827	74.37519
886.005	93.57031
886.184	98.04204
886.363	110.49988
886.541	97.01411
886.72	78.93441
886.898	-58.48685
887.077	126.27601
887.255	43.98022
887.434	111.75486
887.612	110.46585
887.791	102.5813
887.969	56.35995
888.147	33.82897
888.326	90.12761
888.504	27.03822
888.682	85.63763
888.861	112.71161
889.039	28.17725
889.218	83.384
889.396	1.127
889.574	23.66252
889.752	74.38662
889.931	50.70544
890.109	75.51805
890.287	117.24718
890.465	47.31509
890.643	110.52119
890.822	62.05458
891	67.59304
891.178	47.32053
891.356	42.84509
891.534	51.90319
891.712	13.51962
891.89	78.85859
892.068	41.72321
892.247	63.12074
892.425	82.36344
892.603	18.03309
892.781	107.09864
892.959	58.59859
893.137	83.44175
893.314	66.53424
893.492	128.54087
893.67	50.6996
893.848	25.93204
894.026	33.79907
894.204	29.31279
894.382	50.72883
894.56	21.41717
894.738	80.05125
894.915	31.54822
895.093	93.58112
895.271	86.75613
895.449	42.81709
895.626	52.93872
895.804	29.31957
895.982	71.04779
896.16	63.13531
896.337	73.29763
896.515	124.12167
896.693	39.47095
896.87	33.83289
897.048	19.15758
897.225	66.5035
897.403	23.66979
897.581	76.67322
897.758	22.54396
897.936	30.42441
898.113	54.14938
898.291	57.47942
898.468	-5.6348
898.646	73.30328
898.823	30.40809
899.001	40.58383
899.178	80.08522
899.356	80.1038
899.533	63.13775
899.71	43.94133
899.888	103.75053
900.065	-29.29702
900.242	-2.25806
900.42	33.86038
900.597	45.15945
900.774	50.75229
900.952	98.22779
901.129	67.68415
901.306	30.45724
901.483	45.1175
901.661	36.07868
901.838	47.36423
902.015	23.67435
902.192	51.87312
902.369	37.22984
902.546	14.66289
902.723	54.08269
902.901	33.83942
903.078	80.08522
903.255	58.6982
903.432	15.79722
903.609	14.66459
903.786	27.07049
903.963	-18.05886
904.14	51.89115
904.317	50.74251
904.494	18.05676
904.671	20.30365
904.848	68.81355
905.024	81.26506
905.201	53.04076
905.378	-19.17826
905.555	-4.51157
905.732	31.58712
905.909	36.07729
906.086	-25.92207
906.262	48.55113
906.439	23.69079
906.616	29.31957
906.793	-6.76736
906.969	21.44615
907.146	41.69593
907.323	-9.02071
907.5	55.27856
907.676	56.40779
907.853	32.7425
908.03	32.70954
908.206	-21.43784
908.383	28.20769
908.559	37.20972
908.736	28.20115
908.912	10.14498
909.089	69.95382
909.266	-13.53211
909.442	40.6183
909.619	50.75034
909.795	54.14101
909.972	23.69537
910.148	36.06064
910.324	45.16296
910.501	47.36789
910.677	23.71008
910.854	85.74991
911.03	28.19461
911.206	77.79927
911.383	-23.67253
911.559	42.88318
911.735	4.50879
911.912	31.57006
912.088	51.87712
912.264	14.65498
912.44	59.73123
912.617	58.63467
912.793	33.82767
912.969	41.76681
913.145	27.08935
913.321	86.84632
913.498	7.89297
913.674	2.25648
913.85	78.95878
914.026	13.53002
914.202	-28.21534
914.378	-4.51244
914.554	47.40271
914.73	-59.79111
914.906	47.35146
915.082	12.40946
915.258	77.8323
915.434	-4.51157
915.61	42.87985
915.786	18.06728
915.962	91.36489
916.138	7.89907
916.314	-22.56746
916.49	31.56884
916.665	-20.31307
916.841	21.44698
917.017	50.74446
917.193	27.06735
917.369	18.07361
917.545	6.76579
917.72	72.2104
917.896	-6.76971
918.072	63.21346
918.247	42.88318
918.423	88.02013
918.599	5.64372
918.775	-9.02314
918.95	28.18158
919.126	-28.19244
919.301	58.67546
919.477	13.53576
919.653	72.21879
919.828	19.17381
920.004	6.77286
920.179	-4.51175
920.355	-72.07717
920.53	-2.25631
920.706	14.67254
920.881	25.95107
921.057	5.63545
921.232	1.12866
921.408	20.29581
921.583	-3.38571
921.759	39.47704
921.934	40.61045
922.109	29.34338
922.285	57.55934
922.46	-4.51192
922.635	-21.44116
922.811	27.07676
922.986	48.50038
923.161	6.76579
923.336	9.02559
923.512	12.41234
923.687	31.58346
923.862	12.40946
924.037	-12.40419
924.212	6.76788
924.388	36.12755
924.563	47.40271
924.738	36.06757
924.913	66.61154
925.088	-20.30365
925.263	25.94305
925.438	-38.36024
925.613	-18.05327
925.788	14.67368
925.963	-6.77129
926.138	69.92949
926.313	42.87322
926.488	11.30085
926.663	24.81941
926.838	-14.66403
927.013	22.56833
927.188	20.31859
927.363	39.4603
927.538	4.5107
927.713	16.93117
927.888	41.71357
928.062	-34.99924
928.237	20.30679
928.412	9.02768
928.587	-10.15595
928.761	52.96308
928.936	4.51332
929.111	-11.28504
929.286	-15.78685
929.46	11.28329
929.635	-12.42198
929.81	29.31392
929.984	76.71763
930.159	32.69567
930.334	-36.0912
930.508	37.23416
930.683	41.74901
930.857	18.05606
931.032	23.67344
931.206	33.86695
931.381	42.88816
931.556	43.97175
931.73	66.60637
931.904	-18.06377
932.079	-21.44615
932.253	-42.855
932.428	1.12844
932.602	-40.61045
932.777	-9.02489
932.951	22.55525
933.125	6.76684
933.3	27.09566
933.474	32.71586
933.648	68.84285
933.823	-21.44948
933.997	10.16225
934.171	60.9063
934.345	-7.88963
934.52	18.04142
934.694	5.64372
934.868	38.38254
935.042	19.18791
935.217	5.64045
935.391	13.541
935.565	27.08725
935.739	21.44781
935.913	-29.32976
936.087	3.38192
936.261	58.68227
936.435	-44.01765
936.609	-5.64175
936.783	-2.2578
936.957	29.34338
937.131	-62.02582
937.305	-21.44865
937.479	32.73741
937.653	-33.85775
937.827	4.5114
938.001	20.30051
938.175	-23.69996
938.349	-22.56833
938.523	-27.09987
938.697	-29.32976
938.87	29.31957
939.044	-24.8319
939.218	29.35477
939.392	-10.1532
939.566	31.62636
939.739	-1.12844
939.913	58.69137
940.087	-24.81749
940.261	-37.25871
940.434	7.89968
940.608	-53.00591
940.782	66.60378
940.955	42.89981
941.129	-40.62302
941.302	-19.18197
941.476	44.05187
941.65	10.16423
941.823	3.38453
941.997	-9.03259
942.17	-41.77492
942.344	-12.40802
942.517	-41.72321
942.691	10.15949
942.864	-4.5177
943.038	1.12839
943.211	11.28067
943.385	20.32016
943.558	2.25561
943.731	-92.49822
943.905	-25.95107
944.078	2.25613
944.251	-11.27806
944.425	3.38794
944.598	-13.5389
944.771	32.76034
944.945	46.28754
945.118	42.90814
945.291	12.42053
945.464	11.28986
945.638	-30.48558
945.811	13.5531
945.984	-13.54047
946.157	3.38374
946.33	58.7096
946.503	37.22696
946.677	49.69666
946.85	4.51524
947.023	-32.71081
947.196	-0
947.369	48.5135
947.542	30.48203
947.715	-33.85251
947.888	-7.89419
948.061	42.87322
948.234	5.63827
948.407	-20.3178
948.58	-2.25788
948.753	-0
948.926	31.58956
949.099	14.66913
949.271	20.31622
949.444	18.05816
949.617	54.18084
949.79	10.15634
949.963	45.17701
950.136	-46.26063
950.308	-34.99653
950.481	39.49995
950.654	-3.38453
950.827	-3.38663
950.999	32.74504
951.172	-7.8954
951.345	31.59567
951.517	48.52853
951.69	30.47611
951.863	15.79233
952.035	-3.38689
952.208	-29.34111
952.381	27.11253
952.553	34.97213
952.726	32.74377
952.898	-19.16864
953.071	-28.20442
953.243	60.90866
953.416	-19.18271
953.588	-32.70449
953.761	62.07862
953.933	5.63783
954.106	-6.77813
954.278	-18.04142
954.45	-10.15202
954.623	30.47966
954.795	28.21643
954.967	7.89937
955.14	28.23287
955.312	31.61529
955.484	-44.04501
955.657	15.8101
955.829	19.19313
956.001	22.54396
956.173	1.12761
956.346	5.64548
956.518	-1.12818
956.69	-3.38781
956.862	1.1287
957.034	-42.87322
957.207	5.64745
957.379	-16.91938
957.551	54.20821
957.723	-44.00231
957.895	-11.29381
958.067	15.79233
958.239	-39.45726
958.411	-2.25631
958.583	-0
958.755	10.16265
958.927	22.55177
959.099	13.54257
959.271	-23.68073
959.443	80.11
959.615	16.92003
959.787	-45.14019
959.959	1.12896
960.13	-29.33657
960.302	-33.8512
960.474	11.28679
960.646	-44.01253
960.818	39.50914
960.99	31.59323
961.161	-1.12874
961.333	-46.25527
961.505	-19.17012
961.677	2.25622
961.848	-7.90121
962.02	22.56484
962.192	48.52853
962.363	10.15949
962.535	24.81749
962.707	-9.02559
962.878	45.15594
963.05	-21.43535
963.221	21.44199
963.393	-42.86659
963.564	-41.76195
963.736	10.15123
963.907	24.82613
964.079	28.21097
964.25	-7.89601
964.422	-38.35283
964.593	32.68435
964.765	45.12796
964.936	34.94113
965.108	-23.69813
965.279	-37.24281
965.45	14.66233
965.622	27.0862
965.793	-25.97829
965.964	10.16225
966.136	-23.69354
966.307	94.75795
966.478	13.54888
966.65	16.93248
966.821	4.51088
966.992	69.89983
967.163	-18.05117
967.334	3.38479
967.506	39.49383
967.677	44.03816
967.848	-21.43618
968.019	4.51454
968.19	-3.38623
968.361	73.37138
968.532	-38.3469
968.703	-18.03794
968.874	-62.033
969.045	2.25596
969.216	-10.15398
969.387	20.31071
969.558	-7.89175
969.729	41.75548
969.9	-0
970.071	11.28986
970.242	4.51419
970.413	-14.67084
970.584	-29.34225
970.755	31.5798
970.926	56.45153
971.097	-45.15945
971.267	-29.32749
971.438	29.32749
971.609	12.42198
971.78	16.91938
971.951	20.32095
972.121	56.41652
972.292	13.53367
972.463	-5.63805
972.633	63.18652
972.804	30.43962
972.975	-25.93704
973.145	-16.93183
973.316	-37.25148
973.487	27.09145
973.657	-4.51664
973.828	-13.53943
973.998	25.95308
974.169	57.54819
974.339	6.77024
974.51	16.91872
974.68	-50.8291
974.851	34.97889
975.021	-38.38254
975.192	0
975.362	2.25718
975.533	1.12744
975.703	22.56484
975.874	-18.04003
976.044	2.25692
976.214	65.44572
976.385	-39.51682
976.555	42.855
976.725	23.69079
976.896	59.85142
977.066	15.79539
977.236	21.45531
977.406	2.25823
977.577	43.99551
977.747	20.3178
977.917	55.27002
978.087	13.54572
978.257	-71.09174
978.427	38.35727
978.598	33.87879
978.768	-21.44532
978.938	-47.4119
979.108	10.15713
979.278	-19.18643
979.448	-4.51349
979.618	10.15634
979.788	16.9233
979.958	19.18271
980.128	38.34099
980.298	5.64394
980.468	6.7776
980.638	-54.16614
980.808	-0
980.978	-10.14693
981.148	-42.85996
981.317	-27.09566
981.487	11.28679
981.657	27.07153
981.827	4.51419
981.997	27.10409
982.167	38.38254
982.336	40.64666
982.506	23.71746
982.676	-9.02384
982.846	-38.33507
983.015	-31.58834
983.185	-1.12791
983.355	-54.13057
983.524	-28.18809
983.694	30.43494
983.864	-1.12774
984.033	-21.43121
984.203	20.30836
984.372	-9.02384
984.542	-39.50914
984.712	13.5389
984.881	-11.2881
985.051	-39.48772
985.22	-22.57621
985.39	25.93304
985.559	-34.98838
985.728	9.02838
985.898	14.67767
986.067	40.61987
986.237	-71.09725
986.406	25.94806
986.576	24.8319
986.745	-0
986.914	58.68682
987.084	19.1894
987.253	2.25596
987.422	-4.51559
987.591	-10.15477
987.761	-29.36276
987.93	-14.67197
988.099	-35.01422
988.268	31.57127
988.438	1.12809
988.607	65.43812
988.776	15.79539
988.945	15.81379
989.114	34.97348
989.283	49.67155
989.452	22.57096
989.621	3.38374
989.791	15.80518
989.96	-24.81749
990.129	-56.45372
990.298	-11.28898
990.467	60.93929
990.636	25.97222
990.805	-10.15477
990.974	43.99551
991.142	21.43039
991.311	4.50931
991.48	-21.43701
991.649	-16.92854
991.818	-24.81749
991.987	-24.81365
992.156	-9.04139
992.325	-23.71192
992.493	-2.25579
992.662	-229.37399
992.831	40.60261
993	-12.40898
993.168	13.53838
993.337	6.77655
993.506	22.57533
993.675	-11.28854
993.843	-30.45959
994.012	27.09461
994.181	-29.32976
994.349	30.47257
994.518	2.25596
994.686	50.79158
994.855	-10.15398
995.024	-2.25518
995.192	0
995.361	-43.99211
995.529	12.40898
995.698	-40.60888
995.866	33.84465
996.035	-31.60915
996.203	-2.25622
996.371	40.61359
996.54	5.64241
996.708	-39.51068
996.877	57.54597
997.045	24.8319
997.213	14.66743
997.382	2.25753
997.55	24.79264
997.718	-32.7146
997.887	-5.64285
998.055	22.5483
998.223	-38.36469
998.391	-21.44116
998.56	12.4215
998.728	1.12879
998.896	58.7393
999.064	21.44615
999.232	-30.45606
999.401	-67.69462
999.569	14.67311
999.737	12.42198
999.905	10.15437
1000.073	28.23287
1000.241	-11.28286
1000.409	60.9724
1000.577	-44.01594
1000.745	34.97754
1000.913	12.41042
1001.081	-31.57492
1001.249	23.6853
1001.417	-76.73545
1001.585	-0
1001.753	-2.25745
1001.921	-0
1002.089	2.25666
1002.256	20.31071
1002.424	33.85907
1002.592	12.40994
1002.76	-31.61898
1002.928	1.12813
1003.096	28.23287
1003.263	-23.71192
1003.431	-5.64482
1003.599	0
1003.767	19.17752
1003.934	34.98431
1004.102	-16.9292
1004.27	-19.18568
1004.437	-25.95409
1004.605	37.24714
1004.773	-2.25753
1004.94	19.17455
1005.108	-58.67091
1005.275	21.44615
1005.443	-3.38636
1005.61	-53.06959
1005.778	-9.02908
1005.945	11.27719
1006.113	7.9006
1006.28	-20.31701
1006.448	-13.54572
1006.615	6.7684
1006.783	19.20733
1006.95	-9.02768
1007.118	24.82709
1007.285	24.8319
1007.452	14.66686
1007.62	33.86038
1007.787	-46.28215
1007.954	38.3751
1008.122	11.27893
1008.289	12.41571
1008.456	32.74632
1008.623	16.93643
1008.791	15.80273
1008.958	2.25797
1009.125	-47.42295
1009.292	-2.25885
1009.459	5.6457
1009.627	-33.84073
1009.794	-14.66629
1009.961	-0
1010.128	86.89671
1010.295	-4.51419
1010.462	97.08553
1010.629	48.54359
1010.796	-13.55099
1010.963	60.91336
1011.13	-29.32749
1011.297	-3.38623
1011.464	-36.09259
1011.631	-18.05327
1011.798	-53.0634
1011.965	34.98838
1012.132	-36.14301
1012.299	-6.77286
1012.466	-30.46549
1012.633	-6.76867
1012.799	14.66686
1012.966	34.95728
1013.133	32.72726
1013.3	-27.09776
1013.467	-43.95652
1013.633	64.33603
1013.8	12.40994
1013.967	2.25683
1014.134	-12.41475
1014.3	24.82901
1014.467	-29.33316
1014.634	-12.4109
1014.8	30.47257
1014.967	-9.02803
1015.134	6.7726
1015.3	13.53263
1015.467	-22.54656
1015.633	21.42873
1015.8	-7.90029
1015.966	-2.25771
1016.133	-45.15419
1016.3	-40.61202
1016.466	13.54152
1016.632	-51.88113
1016.799	23.69629
1016.965	-3.38244
1017.132	-20.32016
1017.298	10.15831
1017.465	11.29381
1017.631	22.55351
1017.797	37.28047
1017.964	69.97278
1018.13	-51.87112
1018.296	21.44698
1018.463	12.41812
1018.629	1.12888
1018.795	-9.02454
1018.961	-6.76971
1019.128	-54.16824
1019.294	-3.38322
1019.46	10.15988
1019.626	-4.51629
1019.792	-18.05816
1019.959	6.76736
1020.125	15.82243
1020.291	2.25492
1020.457	11.27763
1020.623	-42.84674
1020.789	12.42005
1020.955	-21.42873
1021.121	27.08935
1021.287	-24.82517
1021.453	10.15673
1021.619	34.98974
1021.785	-13.54467
1021.951	23.69262
1022.117	10.15752
1022.283	-14.67311
1022.449	-3.389
1022.615	49.66384
1022.781	-33.81205
1022.946	4.517
1023.112	65.46855
1023.278	-91.42502
1023.444	80.17216
1023.61	10.15202
1023.775	33.8512
1023.941	36.11214
1024.107	9.02628
1024.273	9.02628
1024.438	-33.8355
1024.604	-32.70071
1024.77	-67.60081
1024.935	-18.05886
1025.101	74.47275
1025.267	12.40802
1025.432	-12.42005
1025.598	4.51858
1025.763	12.40706
1025.929	-3.38571
1026.095	5.6435
1026.26	15.80764
1026.426	-41.78304
1026.591	-30.46667
1026.757	33.84727
1026.922	-4.5121
1027.087	-18.05048
1027.253	2.25683
1027.418	16.92723
1027.584	-5.63697
1027.749	-10.16304
1027.914	-0
1028.08	20.32016
1028.245	6.76867
1028.41	29.32636
1028.576	-7.89999
1028.741	6.76605
1028.906	-51.88313
1029.072	1.12826
1029.237	-0
1029.402	-23.70272
1029.567	-4.51001
1029.732	20.32727
1029.898	25.93704
1030.063	38.39597
1030.228	58.68455
1030.393	42.87653
1030.558	24.84058
1030.723	37.27175
1030.888	27.06631
1031.053	78.99238
1031.218	-21.44532
1031.383	1.12774
1031.548	51.88113
1031.713	14.66233
1031.878	-3.38414
1032.043	21.44116
1032.208	4.51367
1032.373	3.38348
1032.538	-24.82709
1032.703	-12.4109
1032.868	-5.64416
1033.033	28.22739
1033.198	31.61529
1033.362	-32.73741
1033.527	27.07886
1033.692	-18.04838
1033.857	-50.8192
1034.021	35.01286
1034.186	1.1287
1034.351	-79.02609
1034.516	45.13844
1034.68	38.35727
1034.845	-13.54888
1035.01	23.69629
1035.174	48.52101
1035.339	2.25736
1035.504	50.77191
1035.668	-43.97683
1035.833	-18.05886
1035.997	-6.77181
1036.162	36.13598
1036.326	83.52892
1036.491	7.89693
1036.655	19.16716
1036.82	-18.04211
1036.984	-86.86309
1037.149	-78.94659
1037.313	-27.06944
1037.478	-3.38623
1037.642	12.40754
1037.807	12.41426
1037.971	29.34338
1038.135	14.67084
1038.3	7.90121
1038.464	-3.38874
1038.628	19.19015
1038.792	-13.54047
1038.957	34.97213
1039.121	31.59445
1039.285	-18.06167
1039.449	-18.05886
1039.614	1.12866
1039.778	21.44365
1039.942	-27.08095
1040.106	59.82353
1040.27	6.76684
1040.434	-74.42672
1040.599	11.28242
1040.763	-2.25509
1040.927	-23.69996
1041.091	4.51279
1041.255	-25.95912
1041.419	6.77497
1041.583	19.1679
1041.747	-49.61011
1041.911	-43.99041
1042.075	2.25718
1042.239	13.55204
1042.403	-51.89315
1042.567	-25.93105
1042.731	23.67708
1042.894	-22.55177
1043.058	20.32411
1043.222	-7.89937
1043.386	-74.46698
1043.55	28.20333
1043.714	-13.54205
1043.877	36.10515
1044.041	10.1587
1044.205	-3.38453
1044.369	49.64268
1044.532	-2.25666
1044.696	-16.91677
1044.86	-30.47611
1045.023	-28.18701
1045.187	-2.25736
1045.351	-32.70828
1045.514	-2.25832
1045.678	-29.32296
1045.841	31.60302
