Data from NO filter_Subt4__0__10-21-03-630.txt Node

Date: Tue Oct 07 10:21:03 EDT 2025
User: brett
Spectrometer: USB4F03499
Trigger mode: 4
Integration Time (sec): 3.000000E-3
Scans to average: 1
Electric dark correction enabled: true
Nonlinearity correction enabled: true
Boxcar width: 0
XAxis mode: Wavelengths
Number of Pixels in Spectrum: 3648
>>>>>Begin Spectral Data<<<<<
345.386	110.03759
345.605	110.03759
345.824	110.03759
346.044	55.44474
346.263	98.44451
346.482	11.14804
346.701	-29.6746
346.92	-6.95221
347.139	-18.93548
347.358	-33.32602
347.577	-3.76924
347.796	2.58803
348.015	-45.56177
348.234	21.66366
348.453	-4.50322
348.672	62.71454
348.891	44.62095
349.11	-11.10537
349.329	11.63531
349.548	39.72657
349.767	63.98363
349.986	23.34788
350.205	32.40839
350.424	107.26345
350.643	49.78877
350.862	-11.59043
351.08	-40.8616
351.299	16.02186
351.518	38.73237
351.737	22.16041
351.956	-47.97179
352.174	30.94876
352.393	73.02991
352.612	14.08707
352.831	29.93524
353.049	72.80033
353.268	23.12575
353.487	-0.10179
353.705	33.63833
353.924	80.77276
354.143	-12.55642
354.361	30.44167
354.58	43.15355
354.798	-17.94235
355.017	-48.97653
355.236	8.45142
355.454	40.00291
355.673	47.54406
355.891	36.07269
356.11	16.74868
356.328	81.74464
356.547	-4.25676
356.765	60.02564
356.984	20.41054
357.202	69.04815
357.42	81.12286
357.639	83.66707
357.857	-16.46816
358.076	11.62072
358.294	28.98213
358.512	34.83382
358.731	-9.87758
358.949	43.87074
359.167	24.07195
359.386	-54.29794
359.604	33.37552
359.822	-21.1174
360.04	21.40196
360.259	48.77696
360.477	22.89752
360.695	10.64989
360.913	-42.85196
361.131	90.28261
361.35	44.1503
361.568	51.68637
361.786	17.49247
362.004	-12.07213
362.222	9.67069
362.44	49.97283
362.658	101.75419
362.876	26.2804
363.094	-22.55484
363.312	22.8802
363.53	61.95717
363.749	16.4996
363.967	31.63111
364.184	95.90634
364.402	34.35929
364.62	60.02564
364.838	53.98884
365.056	48.33237
365.274	42.92876
365.492	11.87441
365.71	92.83814
365.928	48.76473
366.146	33.84193
366.364	21.14603
366.581	5.02689
366.799	19.43506
367.017	36.28241
367.235	62.6988
367.453	47.53215
367.67	58.99276
367.888	109.45493
368.106	88.74817
368.323	-51.04042
368.541	64.15049
368.759	136.79394
368.977	108.81915
369.194	66.9852
369.412	43.12114
369.629	84.16324
369.847	26.7314
370.065	86.58047
370.282	65.32167
370.5	73.43351
370.717	45.04626
370.935	31.6469
371.152	103.24819
371.37	106.1058
371.588	97.39897
371.805	51.72529
372.022	72.95648
372.24	63.083
372.457	91.23084
372.675	87.36872
372.892	50.42819
373.11	80.98026
373.327	112.33861
373.544	149.70207
373.762	55.33333
373.979	7.71143
374.196	84.6595
374.414	22.34998
374.631	57.32238
374.848	50.68726
375.066	77.56953
375.283	129.9674
375.5	90.57648
375.717	98.24706
375.935	94.73435
376.152	107.84947
376.369	87.48597
376.586	139.12797
376.803	109.78872
377.02	74.08408
377.238	86.08424
377.455	102.75009
377.672	45.52717
377.889	76.61683
378.106	108.5158
378.323	93.84728
378.54	153.20483
378.757	53.32032
378.974	135.37099
379.191	121.79185
379.408	73.14926
379.625	81.2689
379.842	122.66162
380.059	111.47818
380.276	89.67397
380.493	92.69839
380.71	92.47306
380.927	115.48858
381.143	93.73108
381.36	71.36395
381.577	113.83
381.794	147.58205
382.011	87.46425
382.228	41.3985
382.444	44.77792
382.661	162.05798
382.878	71.91195
383.095	23.58144
383.311	131.935
383.528	49.46739
383.745	105.21513
383.962	145.39775
384.178	106.05293
384.395	110.14998
384.612	91.95312
384.828	65.75048
385.045	113.13888
385.261	72.4068
385.478	134.18675
385.695	125.19075
385.911	128.94314
386.128	135.43858
386.344	132.9687
386.561	111.72746
386.777	103.11937
386.994	65.99737
387.21	141.314
387.427	160.05841
387.643	206.57303
387.86	216.39067
388.076	90.05858
388.292	124.94207
388.509	155.119
388.725	166.04897
388.942	170.1172
389.158	160.09801
389.374	148.54152
389.591	129.08959
389.807	182.6158
390.023	169.15383
390.239	163.07256
390.456	214.41548
390.672	153.51625
390.888	144.32303
391.104	87.39933
391.321	142.96449
391.537	195.08573
391.753	242.24572
391.969	173.30399
392.185	104.20816
392.401	169.02745
392.618	231.21617
392.834	170.57819
393.05	181.72414
393.266	220.48722
393.482	183.26254
393.698	170.70323
393.914	253.57108
394.13	180.80578
394.346	192.56192
394.562	148.72546
394.778	205.35602
394.994	209.55221
395.21	215.51227
395.426	279.03868
395.642	299.27278
395.858	298.90581
396.073	202.72737
396.289	292.51421
396.505	250.45907
396.721	293.76668
396.937	270.53327
397.153	260.84867
397.369	270.22034
397.584	283.00859
397.8	322.79235
398.016	364.36779
398.232	416.35985
398.447	379.36599
398.663	378.23702
398.879	428.09999
399.094	538.32976
399.31	460.46445
399.526	510.01873
399.741	556.60478
399.957	576.07846
400.173	577.03239
400.388	618.85282
400.604	532.74035
400.82	633.8898
401.035	771.43126
401.251	721.96462
401.466	729.98259
401.682	836.3603
401.897	863.82259
402.113	854.38231
402.328	872.6946
402.544	952.57382
402.759	826.87624
402.974	918.7924
403.19	946.79889
403.405	1038.96195
403.621	1011.44554
403.836	958.26508
404.051	1097.29032
404.267	1139.74637
404.482	1004.66977
404.697	1001.68487
404.913	965.09744
405.128	1195.1935
405.343	1090.51326
405.559	1094.26271
405.774	1170.73245
405.989	1197.35605
406.204	1162.9409
406.42	1146.2837
406.635	1099.73138
406.85	1002.5291
407.065	1010.31489
407.28	1187.02002
407.495	1183.88754
407.71	1059.11755
407.926	1148.96122
408.141	1291.0518
408.356	1165.23951
408.571	1238.43574
408.786	1168.14263
409.001	1170.15639
409.216	1337.47136
409.431	1275.47006
409.646	1277.30089
409.861	1287.23182
410.076	1200.26373
410.291	1249.47466
410.506	1349.50916
410.721	1332.18598
410.936	1319.00045
411.15	1351.26918
411.365	1370.58553
411.58	1448.13395
411.795	1409.54793
412.01	1590.85636
412.225	1397.29744
412.439	1392.87304
412.654	1488.3388
412.869	1443.12124
413.084	1520.97335
413.299	1430.26224
413.513	1336.2986
413.728	1455.50987
413.943	1539.82372
414.157	1463.05139
414.372	1496.08676
414.587	1599.72721
414.801	1645.71708
415.016	1572.01012
415.231	1733.46411
415.445	1698.50019
415.66	1631.22774
415.874	1638.55828
416.089	1583.59954
416.304	1790.99757
416.518	1668.63189
416.733	1738.11628
416.947	1611.42132
417.162	1546.4381
417.376	1711.57348
417.59	1858.1902
417.805	1851.9306
418.019	1759.27625
418.234	1606.03959
418.448	1578.86856
418.663	1622.94266
418.877	1729.4311
419.091	1687.95813
419.306	1740.19795
419.52	1706.81392
419.734	1576.94019
419.949	1727.8409
420.163	1901.76837
420.377	1680.73285
420.591	1717.10959
420.806	1879.11454
421.02	1720.01592
421.234	1786.90132
421.448	1751.33425
421.663	1771.9763
421.877	1739.46731
422.091	1757.0784
422.305	1766.63197
422.519	1794.21086
422.733	1902.32855
422.947	1744.96938
423.161	1917.75798
423.376	1767.27896
423.59	1917.65334
423.804	1794.65145
424.018	1785.83157
424.232	1839.71195
424.446	2028.93841
424.66	1918.71077
424.874	1869.85498
425.088	1823.85083
425.302	1853.451
425.515	1985.21267
425.729	2031.65693
425.943	2049.67524
426.157	1932.72102
426.371	1900.86269
426.585	1890.29859
426.799	1895.84301
427.013	2035.34879
427.226	1936.78805
427.44	1879.34529
427.654	1869.15761
427.868	1885.75096
428.081	1927.86757
428.295	1879.50225
428.509	1829.11979
428.723	1882.2784
428.936	1824.38733
429.15	1751.94419
429.364	1932.63256
429.577	1852.23945
429.791	1786.5724
430.005	1932.40967
430.218	1925.0024
430.432	1843.13749
430.645	1862.43911
430.859	1913.37769
431.073	1992.13821
431.286	2151.89729
431.5	2220.74425
431.713	2001.84098
431.927	2009.94998
432.14	2183.90558
432.354	2087.20708
432.567	2045.64247
432.781	2221.18555
432.994	2360.18838
433.207	2260.24666
433.421	2418.96507
433.634	2346.66814
433.848	2457.93733
434.061	2347.71566
434.274	2162.57363
434.488	2243.34494
434.701	2222.93263
434.914	2199.04334
435.127	2554.66735
435.341	2558.73359
435.554	2501.21469
435.767	2739.75868
435.98	2671.85345
436.194	2592.93198
436.407	2511.79939
436.62	3019.57368
436.833	2855.8207
437.046	2697.96129
437.259	2676.9129
437.473	2896.96478
437.686	2957.8425
437.899	2680.39889
438.112	3000.77586
438.325	2670.3616
438.538	2816.82037
438.751	3061.09562
438.964	2761.69201
439.177	2909.54557
439.39	2910.41603
439.603	3278.05002
439.816	3114.49084
440.029	3284.0663
440.242	3418.41108
440.455	3500.4722
440.668	3278.3509
440.881	3050.20252
441.094	3146.79697
441.306	3262.63453
441.519	3523.22892
441.732	3436.30916
441.945	3484.47472
442.158	3229.25808
442.37	3206.64507
442.583	3390.00323
442.796	3694.44318
443.009	3441.36654
443.222	3394.84008
443.434	3138.55341
443.647	3538.24125
443.86	3645.61249
444.072	3894.46818
444.285	3637.05874
444.498	3755.04671
444.71	3524.3877
444.923	3790.54193
445.136	3573.28864
445.348	3539.7146
445.561	3530.60139
445.773	3871.67181
445.986	3388.28541
446.198	3985.56695
446.411	3803.11433
446.623	4003.01972
446.836	3810.28619
447.048	4054.09501
447.261	4084.61009
447.473	4129.76419
447.686	3852.46533
447.898	3972.88257
448.11	4207.55847
448.323	4319.39974
448.535	4152.01901
448.748	3961.40033
448.96	3863.85957
449.172	4038.61956
449.385	3775.82393
449.597	4202.05003
449.809	4085.93896
450.021	4204.38949
450.234	4188.85731
450.446	3995.22988
450.658	3865.19313
450.87	4126.57859
451.083	4139.31063
451.295	4276.8927
451.507	4090.25504
451.719	4131.34009
451.931	4223.41446
452.143	4273.67428
452.356	4138.64401
452.568	4227.45283
452.78	4187.35016
452.992	4311.65564
453.204	4464.25982
453.416	4338.40382
453.628	4083.54077
453.84	4158.27063
454.052	4194.99589
454.264	4526.13416
454.476	4373.6674
454.688	4765.86485
454.9	4633.27913
455.112	4437.25244
455.324	4167.28693
455.536	4567.51172
455.747	4491.58069
455.959	4628.95861
456.171	4577.15198
456.383	4502.33391
456.595	4212.07464
456.807	4334.26891
457.018	4285.55235
457.23	4652.87857
457.442	4251.42684
457.654	4498.37227
457.865	4419.27232
458.077	4466.93681
458.289	4291.48718
458.501	4564.6516
458.712	4791.93063
458.924	5041.07651
459.136	4650.42561
459.347	4526.77254
459.559	4553.56837
459.77	4940.59801
459.982	4936.59593
460.194	4984.21365
460.405	4521.35341
460.617	4976.92133
460.828	4904.65731
461.04	5135.5069
461.251	4764.03771
461.463	5427.54568
461.674	5314.22984
461.886	5109.05979
462.097	4915.31986
462.309	5271.56398
462.52	4867.96314
462.731	5510.7342
462.943	4999.23439
463.154	4949.76453
463.366	4957.09566
463.577	5229.22834
463.788	5284.70366
464	5403.32657
464.211	5501.18051
464.422	5896.87242
464.634	5638.20501
464.845	5636.33318
465.056	5658.87331
465.267	5742.62111
465.478	5321.81116
465.69	5737.03342
465.901	5613.8788
466.112	5787.0332
466.323	5685.52723
466.534	6092.58098
466.745	6114.44768
466.957	6093.00468
467.168	5920.86673
467.379	5941.23801
467.59	5695.11631
467.801	5664.45596
468.012	5733.35364
468.223	5953.96324
468.434	5636.58851
468.645	6333.07095
468.856	6339.08702
469.067	6234.35783
469.278	6251.50316
469.489	6311.4145
469.7	6042.53196
469.911	6162.4378
470.122	6595.94178
470.333	6807.74667
470.543	6276.13612
470.754	6719.29311
470.965	6616.64127
471.176	6825.53785
471.387	6905.1339
471.598	6740.21491
471.808	6693.85956
472.019	7013.08641
472.23	6819.47937
472.441	6942.26707
472.651	7103.54876
472.862	7075.25509
473.073	7228.30722
473.283	7231.30486
473.494	6934.86749
473.705	7112.53001
473.915	7205.34418
474.126	7692.36417
474.337	7522.99251
474.547	7788.17084
474.758	7818.54948
474.968	7702.24609
475.179	7756.5176
475.389	7857.66625
475.6	7741.78532
475.81	8085.24924
476.021	8138.83395
476.231	8310.5612
476.442	8228.46511
476.652	8125.27044
476.863	8118.02318
477.073	8429.14317
477.284	8227.68633
477.494	8506.61108
477.704	8869.42494
477.915	9231.62744
478.125	8477.98445
478.335	8963.12579
478.546	9219.30771
478.756	8927.03745
478.966	9029.16422
479.177	9217.54771
479.387	9261.93784
479.597	9300.24717
479.807	9384.50218
480.018	9325.10839
480.228	9647.98507
480.438	9842.01328
480.648	9693.41563
480.858	9710.09792
481.068	9451.55969
481.279	9808.28162
481.489	9982.38972
481.699	10205.7687
481.909	9835.66959
482.119	10419.46103
482.329	10321.7583
482.539	10321.67435
482.749	10176.57841
482.959	10394.64881
483.169	10217.40537
483.379	10443.17976
483.589	10556.06754
483.799	10418.88352
484.009	10462.95919
484.219	10400.49826
484.429	10471.7935
484.639	10273.34502
484.849	10363.28939
485.059	10607.38064
485.268	10677.31327
485.478	10884.75009
485.688	10551.30916
485.898	10640.76176
486.108	10628.83127
486.317	10842.89302
486.527	10840.20584
486.737	11122.13377
486.947	10826.42294
487.156	11120.63766
487.366	11013.11826
487.576	10994.97643
487.785	11016.64719
487.995	10995.1402
488.205	11236.48489
488.414	11281.98599
488.624	11079.33171
488.834	11404.31644
489.043	11181.11614
489.253	11026.31562
489.462	11370.15049
489.672	11543.7784
489.882	11524.86241
490.091	11649.82313
490.301	11371.27334
490.51	11463.26341
490.72	11673.78957
490.929	11787.11371
491.138	11849.99904
491.348	11864.0709
491.557	11893.9521
491.767	12123.26425
491.976	12097.77703
492.185	12198.33424
492.395	12194.89201
492.604	12400.79538
492.813	12340.98478
493.023	12554.2509
493.232	12375.49377
493.441	12622.08984
493.651	12734.64062
493.86	12418.39007
494.069	12758.19306
494.278	12770.49698
494.488	12806.9523
494.697	12879.21756
494.906	12575.16385
495.115	13084.24874
495.324	12832.07355
495.533	13144.232
495.743	12730.88629
495.952	13096.17908
496.161	12914.78757
496.37	12913.42878
496.579	13022.64485
496.788	13023.73398
496.997	13249.3388
497.206	12991.28059
497.415	12971.71251
497.624	13083.85865
497.833	13031.96805
498.042	13141.1786
498.251	13165.34782
498.46	13316.86308
498.669	13026.94818
498.878	13160.43181
499.087	13111.54644
499.296	13438.34622
499.504	13112.21921
499.713	13267.43435
499.922	13014.52481
500.131	13108.79841
500.34	13312.15571
500.549	13357.5255
500.757	13055.21789
500.966	13197.20643
501.175	13165.53909
501.384	13404.10268
501.592	13139.89423
501.801	13135.11357
502.01	13139.41599
502.218	13283.38361
502.427	13191.73128
502.636	13353.51308
502.844	13118.37875
503.053	13383.14907
503.262	13255.8895
503.47	13418.75921
503.679	13216.57165
503.887	13513.48836
504.096	13156.88985
504.304	13321.81773
504.513	13534.39393
504.721	13547.7185
504.93	13183.82238
505.138	13530.09314
505.347	13291.68433
505.555	13410.65226
505.764	13390.98609
505.972	13675.00734
506.18	13305.77374
506.389	13455.34439
506.597	13216.80818
506.806	13698.98488
507.014	13630.80103
507.222	13647.33613
507.431	13656.01687
507.639	13702.35236
507.847	13879.34639
508.055	13830.34297
508.264	13777.35832
508.472	13919.18339
508.68	13733.90842
508.888	14100.276
509.096	13882.65626
509.305	14056.82641
509.513	13960.97441
509.721	14169.4042
509.929	14085.12364
510.137	14224.71264
510.345	14126.12238
510.553	14115.05719
510.762	14013.92755
510.97	14076.00591
511.178	14101.44777
511.386	14289.53799
511.594	14049.65615
511.802	14276.42518
512.01	14116.42989
512.218	14236.20493
512.426	14314.40016
512.634	14215.05204
512.842	14092.14286
513.049	14296.52575
513.257	14035.86505
513.465	14428.40917
513.673	14107.12807
513.881	14108.88397
514.089	14091.35965
514.297	14098.40929
514.504	14031.64427
514.712	14066.90811
514.92	14149.02496
515.128	14129.21895
515.336	14019.7994
515.543	14151.96241
515.751	13997.97507
515.959	14045.87463
516.166	13739.87918
516.374	13684.2326
516.582	13950.10423
516.789	13866.55995
516.997	13731.07674
517.205	14020.38686
517.412	13736.45398
517.62	14050.77219
517.827	13857.51507
518.035	14101.07203
518.243	13901.17586
518.45	13869.16623
518.658	13890.89379
518.865	13972.67902
519.073	13897.6943
519.28	14031.09694
519.488	14061.30799
519.695	14032.68257
519.902	13943.84225
520.11	14097.63757
520.317	14057.90329
520.525	14125.74974
520.732	13978.60731
520.939	14307.47904
521.147	14131.21131
521.354	14311.0715
521.561	14176.90908
521.769	14398.71634
521.976	14172.0326
522.183	14370.92217
522.391	14432.03126
522.598	14557.68283
522.805	14556.99609
523.012	14586.96573
523.219	14483.80216
523.427	14585.08855
523.634	14613.50846
523.841	14860.10603
524.048	14524.11459
524.255	14843.35887
524.462	14734.89385
524.669	14689.83636
524.877	14735.50714
525.084	14836.64074
525.291	14598.07422
525.498	14975.78798
525.705	14939.17099
525.912	14948.78683
526.119	14843.79694
526.326	14983.12464
526.533	15074.79925
526.74	15191.27319
526.947	14758.99674
527.153	15258.16105
527.36	14986.17959
527.567	14992.68609
527.774	14971.77853
527.981	15229.50516
528.188	15247.76989
528.395	15195.61899
528.602	15177.9713
528.808	15213.81249
529.015	15252.50684
529.222	15329.85569
529.429	14985.05333
529.635	15259.5429
529.842	15173.69814
530.049	15282.10137
530.256	15125.86465
530.462	15275.19765
530.669	15177.58717
530.876	15233.00817
531.082	15124.84178
531.289	15272.00645
531.495	15076.26405
531.702	15405.05435
531.909	15293.05996
532.115	15502.82563
532.322	15311.56369
532.528	15352.77042
532.735	15353.93883
532.941	15354.41923
533.148	15294.88128
533.354	15424.12499
533.561	15484.44823
533.767	15570.4487
533.974	15368.21664
534.18	15546.45236
534.387	15241.87918
534.593	15570.72343
534.799	15483.8414
535.006	15671.33359
535.212	15393.0391
535.418	15626.89069
535.625	15442.59391
535.831	15619.74893
536.037	15524.33988
536.244	15503.15009
536.45	15131.47096
536.656	15320.93547
536.862	15430.97567
537.068	15416.58613
537.275	15383.7177
537.481	15375.6314
537.687	15288.09557
537.893	15373.56451
538.099	15102.53176
538.305	15339.69099
538.512	15407.44824
538.718	15350.77913
538.924	15130.03152
539.13	15126.33075
539.336	15172.97436
539.542	15355.52778
539.748	15228.83897
539.954	15153.52578
540.16	15269.11466
540.366	15286.50381
540.572	15234.56257
540.778	15227.07202
540.984	15235.30918
541.19	15409.49715
541.396	14935.85647
541.602	15275.63748
541.807	15121.78948
542.013	15309.81111
542.219	14965.51976
542.425	15338.22439
542.631	15029.21528
542.837	15238.91822
543.042	15051.03802
543.248	15289.08705
543.454	15155.10262
543.66	15154.41745
543.865	15045.26501
544.071	15208.11854
544.277	14852.03121
544.483	15190.29508
544.688	15070.78779
544.894	15288.09557
545.1	15178.22647
545.305	15122.06862
545.511	14878.2926
545.716	15137.85495
545.922	15108.39976
546.128	15130.40929
546.333	15137.57297
546.539	15421.95631
546.744	15205.80388
546.95	15181.2783
547.155	15008.90858
547.361	15329.2937
547.566	14959.70691
547.772	15316.35513
547.977	15285.51467
548.182	15203.14201
548.388	15210.87967
548.593	15486.90866
548.799	15169.98798
549.004	15188.97056
549.209	15230.03694
549.415	15540.63512
549.62	15089.72108
549.825	15399.60374
550.031	15313.85475
550.236	15341.29605
550.441	15401.20202
550.646	15485.86996
550.852	15220.63614
551.057	15219.07641
551.262	15348.24701
551.467	15335.93819
551.672	15179.60702
551.878	15398.63983
552.083	15263.76786
552.288	15397.68082
552.493	15296.63642
552.698	15288.66239
552.903	15183.18997
553.108	15437.23988
553.313	15386.17237
553.518	15248.7097
553.723	15257.98682
553.928	15398.98188
554.133	15226.02367
554.338	15336.5414
554.543	15241.93714
554.748	15278.43308
554.953	15434.60878
555.158	15385.9848
555.363	15247.11474
555.568	15077.90958
555.773	15195.44058
555.978	15320.14906
556.182	15004.24363
556.387	15195.47459
556.592	15000.62103
556.797	15248.97062
557.002	15132.63568
557.206	15092.38018
557.411	15087.52471
557.616	15103.73819
557.821	15104.34325
558.025	15153.15055
558.23	14980.01137
558.435	15074.52763
558.64	14957.55086
558.844	14866.55776
559.049	14920.80889
559.253	15094.63899
559.458	14768.55921
559.663	14907.52039
559.867	14897.17342
560.072	14784.55149
560.276	14802.44909
560.481	15014.33503
560.685	14808.48002
560.89	14866.55776
561.094	14924.29405
561.299	14678.89599
561.503	14384.85619
561.708	14794.81558
561.912	14521.38819
562.117	14795.17438
562.321	14416.35429
562.525	14840.26347
562.73	14538.08802
562.934	14724.34023
563.139	14495.30922
563.343	14815.77223
563.547	14529.74549
563.752	14700.53987
563.956	14565.86818
564.16	14450.40191
564.364	14499.39718
564.569	14694.01828
564.773	14421.65584
564.977	14524.20581
565.181	14551.89883
565.385	14449.41269
565.59	14535.37026
565.794	14550.86907
565.998	14394.16742
566.202	14438.08954
566.406	14419.97418
566.61	14301.19994
566.814	14479.52864
567.018	14259.15842
567.222	14189.79989
567.426	13981.47218
567.63	13991.31508
567.834	14168.62229
568.038	14194.28921
568.242	14065.22744
568.446	14099.19908
568.65	14080.19179
568.854	13913.90998
569.058	14113.97795
569.262	13957.69293
569.466	13886.58715
569.67	13801.64763
569.874	13843.02784
570.078	13813.89546
570.281	13794.87705
570.485	13801.38891
570.689	13849.29557
570.893	13642.40708
571.097	13839.20085
571.3	13580.39694
571.504	13764.44802
571.708	13528.25321
571.912	13764.73447
572.115	13574.11861
572.319	13388.33288
572.523	13696.34887
572.726	13452.04768
572.93	13347.94361
573.133	13679.18086
573.337	13436.85723
573.541	13366.81604
573.744	13363.60103
573.948	13443.01931
574.151	13428.05034
574.355	13358.50286
574.558	13290.82149
574.762	13525.14226
574.965	13196.52225
575.169	13588.82315
575.372	13356.93354
575.576	13402.6153
575.779	13276.91956
575.983	13354.49415
576.186	12983.0021
576.389	13406.92596
576.593	13094.49347
576.796	13223.77229
577	13075.69266
577.203	13405.75652
577.406	13192.21893
577.609	13051.49678
577.813	13090.32077
578.016	13179.11599
578.219	13096.27703
578.423	13269.8764
578.626	12875.18815
578.829	13140.97237
579.032	12989.49278
579.235	13034.49222
579.438	12925.36975
579.642	13185.86031
579.845	13108.94446
580.048	12951.07387
580.251	12887.63563
580.454	13078.28291
580.657	12825.81599
580.86	13089.45202
581.063	12782.64667
581.266	12997.13385
581.469	12712.70522
581.672	13033.40228
581.875	12836.47508
582.078	12814.4731
582.281	12693.74131
582.484	13036.06197
582.687	12926.47028
582.89	12944.805
583.093	12751.26988
583.296	12921.16192
583.499	13145.76193
583.702	12810.56476
583.904	12689.59337
584.107	13084.94434
584.31	12802.26051
584.513	12933.66222
584.716	12788.76003
584.918	12842.33866
585.121	12662.84532
585.324	12752.29615
585.527	12552.19334
585.729	12782.63761
585.932	12553.37809
586.135	12673.06121
586.337	12251.56999
586.54	12488.07455
586.743	12407.65938
586.945	12216.21425
587.148	12163.46629
587.35	12218.42301
587.553	12104.49333
587.755	12008.76044
587.958	12002.11056
588.161	11970.17251
588.363	11674.8337
588.566	11818.95798
588.768	11735.14976
588.971	11852.4077
589.173	11589.69143
589.375	11559.60675
589.578	11454.56796
589.78	11460.72299
589.983	11264.79378
590.185	11357.38938
590.387	11339.51939
590.59	11363.52648
590.792	11196.91343
590.994	11248.93004
591.197	11023.43644
591.399	11076.20016
591.601	11098.39551
591.803	11008.47055
592.006	10972.73245
592.208	10922.98155
592.41	10919.20163
592.612	11070.00329
592.815	10790.93793
593.017	10856.64057
593.219	10750.02712
593.421	10826.06011
593.623	10680.53603
593.825	10711.55904
594.027	10631.75801
594.229	10807.01046
594.432	10711.84853
594.634	10849.4807
594.836	10672.22943
595.038	10894.16604
595.24	10838.11014
595.442	10764.3844
595.644	10930.19907
595.846	10927.90109
596.048	10705.29277
596.249	10877.88369
596.451	10746.80437
596.653	10886.65186
596.855	10712.22614
597.057	10927.90109
597.259	10883.26959
597.461	11058.29865
597.663	10920.23839
597.864	10899.32465
598.066	10976.68411
598.268	11069.56272
598.47	10947.00727
598.671	10901.20634
598.873	10896.82616
599.075	10995.86714
599.277	10960.3416
599.478	10958.34769
599.68	10957.17024
599.882	11102.50821
600.083	10751.36417
600.285	11055.00826
600.487	10934.61081
600.688	11078.54959
600.89	11135.59608
601.091	11214.40276
601.293	11034.57306
601.494	11132.83435
601.696	11102.03827
601.898	11038.01718
602.099	11066.93338
602.301	11079.04094
602.502	11058.32891
602.703	11182.93178
602.905	11111.06852
603.106	11209.12211
603.308	11045.38901
603.509	11283.67313
603.711	11032.60403
603.912	11115.07431
604.113	11113.72467
604.315	11201.99312
604.516	11196.22871
604.717	11162.46042
604.919	11065.46715
605.12	11152.74362
605.321	11043.50397
605.522	11282.17674
605.724	11169.18383
605.925	11108.5906
606.126	11132.01228
606.327	11157.37827
606.528	11308.12493
606.729	11141.82916
606.931	11242.30467
607.132	11277.90861
607.333	11067.76807
607.534	11230.72101
607.735	11262.78995
607.936	11183.94648
608.137	11152.52974
608.338	11176.24141
608.539	10940.27176
608.74	11121.22898
608.941	10948.0603
609.142	11112.43256
609.343	10949.7366
609.544	11178.41942
609.745	10973.75335
609.946	11178.74952
610.147	11047.6819
610.348	11028.41389
610.549	10863.42069
610.75	11065.01355
610.95	11008.47055
611.151	10995.5056
611.352	10894.41835
611.553	10987.98578
611.754	10766.296
611.954	11159.03214
612.155	10731.46249
612.356	10945.66495
612.557	10752.98102
612.757	10942.62643
612.958	10591.31901
613.159	10701.09211
613.359	10721.78781
613.56	10738.29512
613.761	10532.82519
613.961	10649.64487
614.162	10525.11543
614.362	10679.8553
614.563	10580.9773
614.764	10448.0579
614.964	10387.93874
615.165	10484.23245
615.365	10628.61315
615.566	10542.488
615.766	10465.34779
615.967	10518.39952
616.167	10447.74004
616.368	10454.11191
616.568	10445.08991
616.768	10523.87557
616.969	10408.8219
617.169	10667.50466
617.37	10424.49947
617.57	10331.96851
617.77	10386.32704
617.971	10527.95558
618.171	10478.9121
618.371	10377.15423
618.571	10334.82895
618.772	10411.83769
618.972	10348.47662
619.172	10292.61101
619.372	10211.69964
619.573	10398.36761
619.773	10357.22495
619.973	10148.22947
620.173	10384.77561
620.373	10327.63518
620.573	10211.22647
620.774	10406.23617
620.974	10122.35802
621.174	10188.37452
621.374	10332.64977
621.574	10354.52943
621.774	10178.10247
621.974	10151.53441
622.174	10124.40542
622.374	10268.73901
622.574	10222.39085
622.774	10197.99053
622.974	10030.16554
623.174	10235.17253
623.374	10192.65615
623.574	10169.92345
623.774	10160.32714
623.973	10137.27466
624.173	10042.6444
624.373	10246.80673
624.573	10003.26644
624.773	9964.20599
624.973	10043.70158
625.172	9936.06507
625.372	9787.02123
625.572	9956.12895
625.772	9784.54661
625.971	9865.34624
626.171	9747.61593
626.371	9961.16282
626.57	9784.16829
626.77	9926.07391
626.97	9601.84237
627.169	9604.4952
627.369	9750.94384
627.569	9788.17726
627.768	9568.92164
627.968	9671.03168
628.167	9515.65595
628.367	9576.38891
628.566	9384.61581
628.766	9583.95824
628.965	9427.59996
629.165	9470.60063
629.364	9388.72999
629.564	9472.58716
629.763	9360.2797
629.963	9436.06238
630.162	9355.21475
630.362	9301.72041
630.561	9328.10387
630.76	9393.68766
630.96	9323.6097
631.159	9495.08472
631.358	9143.37309
631.558	9371.81686
631.757	9321.26763
631.956	9300.34394
632.155	9184.21143
632.355	9403.3718
632.554	9245.03903
632.753	9213.93102
632.952	9212.01359
633.152	9259.77853
633.351	9201.03433
633.55	9374.38526
633.749	9241.79106
633.948	9456.6472
634.147	8958.94824
634.346	9140.14097
634.545	9117.34922
634.744	9220.09061
634.944	9136.01423
635.143	9281.58421
635.342	9294.29837
635.541	9330.64624
635.74	9222.63061
635.939	9251.9424
636.138	9079.99423
636.336	9264.87302
636.535	9131.41933
636.734	9302.49437
636.933	9384.14028
637.132	9120.95396
637.331	9105.21731
637.53	9285.97666
637.729	9086.34112
637.928	9296.14538
638.126	9238.87672
638.325	9127.31063
638.524	9093.97734
638.723	9103.17863
638.921	9108.05362
639.12	9223.80735
639.319	9055.05654
639.518	9188.3536
639.716	8903.78542
639.915	9039.90358
640.114	9114.27616
640.312	9126.65544
640.511	9041.26338
640.71	9116.95678
640.908	9120.15635
641.107	8875.09908
641.305	8855.6679
641.504	9143.45291
641.702	8978.87677
641.901	8901.60688
642.099	8754.58924
642.298	8921.95261
642.496	8934.37671
642.695	8968.32049
642.893	8780.52909
643.092	8893.58882
643.29	8757.83908
643.489	8863.07181
643.687	8615.97707
643.885	8858.09218
644.084	8732.08198
644.282	8614.36669
644.48	8605.63096
644.679	8585.87505
644.877	8461.24957
645.075	8436.86249
645.274	8290.16092
645.472	8328.27922
645.67	8300.47568
645.868	8304.00673
646.067	8200.23849
646.265	8372.08232
646.463	8120.5688
646.661	8122.7534
646.859	8162.36978
647.057	8167.93436
647.256	8098.11309
647.454	8134.82297
647.652	8146.64726
647.85	8029.26248
648.048	8073.78205
648.246	8020.21141
648.444	7941.84218
648.642	7904.89917
648.84	7760.56374
649.038	7958.77951
649.236	7770.11352
649.434	7923.06144
649.632	7743.74937
649.83	7918.14444
650.028	7632.59585
650.226	7773.58236
650.423	7703.96877
650.621	7880.12023
650.819	7648.13094
651.017	7709.92094
651.215	7552.46259
651.413	7690.2374
651.61	7525.45911
651.808	7701.07882
652.006	7619.70687
652.204	7633.40227
652.401	7536.10036
652.599	7556.64146
652.797	7512.08804
652.995	7476.50684
653.192	7419.5329
653.39	7383.40059
653.588	7443.5651
653.785	7367.08242
653.983	7307.93893
654.18	7262.3099
654.378	7185.7212
654.576	7327.16217
654.773	7187.27856
654.971	7186.44701
655.168	7191.43377
655.366	7190.06661
655.563	7072.10506
655.761	7231.38824
655.958	7091.51667
656.156	7325.93167
656.353	7051.42764
656.55	7173.27474
656.748	7110.56519
656.945	7146.02608
657.143	7172.80899
657.34	7189.19329
657.537	7093.93177
657.735	7180.77255
657.932	7031.1806
658.129	7133.71212
658.326	6999.63611
658.524	7294.96116
658.721	7044.79703
658.918	7069.55002
659.115	7074.72221
659.313	7118.00873
659.51	6932.87353
659.707	7062.10379
659.904	7006.55077
660.101	7110.0429
660.298	7006.79861
660.496	7153.56469
660.693	6947.22388
660.89	7103.62885
661.087	6824.95684
661.284	7024.68277
661.481	7002.49989
661.678	6959.85516
661.875	7104.2517
662.072	7226.14032
662.269	7026.03813
662.466	7187.02955
662.663	7112.72926
662.86	7227.63589
663.057	7125.36615
663.254	7214.1571
663.45	7113.15642
663.647	7231.16177
663.844	7110.98989
664.041	7141.89637
664.238	7061.48408
664.435	7188.96663
664.631	7123.96077
664.828	7320.60139
665.025	7190.50711
665.222	7210.46288
665.419	7198.40766
665.615	7315.19601
665.812	7036.13976
666.009	7190.50916
666.205	7051.81113
666.402	7089.72998
666.599	6964.94295
666.795	7229.52772
666.992	7001.03248
667.188	7005.253
667.385	6923.41633
667.582	7192.90199
667.778	7031.78359
667.975	7029.14812
668.171	6928.40211
668.368	7123.80805
668.564	6970.85321
668.761	7064.79914
668.957	6915.83065
669.154	6989.09611
669.35	6894.23185
669.547	6879.02075
669.743	7028.94244
669.939	6928.99535
670.136	6789.06796
670.332	6842.42755
670.528	6758.83752
670.725	6968.30241
670.921	6628.99086
671.117	6873.39594
671.314	6780.4617
671.51	6905.63763
671.706	6731.35199
671.902	6820.88591
672.099	6737.99132
672.295	6590.31683
672.491	6816.47787
672.687	6529.51235
672.883	6611.0733
673.08	6851.16663
673.276	6759.61147
673.472	6812.69715
673.668	6589.37
673.864	6696.6466
674.06	6602.07143
674.256	6705.58827
674.452	6515.43624
674.648	6493.01925
674.844	6593.57344
675.04	6508.60428
675.236	6647.13675
675.432	6666.28113
675.628	6360.79811
675.824	6498.33916
676.02	6536.47984
676.216	6594.65875
676.412	6542.4952
676.608	6497.57838
676.804	6465.31293
676.999	6488.67911
677.195	6250.67522
677.391	6564.51742
677.587	6307.97645
677.783	6374.62301
677.978	6371.7967
678.174	6538.67886
678.37	6443.99691
678.566	6498.06778
678.761	6395.56176
678.957	6328.64948
679.153	6315.78034
679.348	6454.57841
679.544	6344.86208
679.74	6455.67285
679.935	6252.91962
680.131	6401.15001
680.327	6222.51439
680.522	6272.38982
680.718	6271.73173
680.913	6295.93433
681.109	6359.57025
681.304	6356.63581
681.5	6367.12355
681.695	6281.02214
681.891	6111.22875
682.086	6154.39828
682.282	6090.30475
682.477	5963.92244
682.672	6089.36243
682.868	6361.6421
683.063	6149.56933
683.259	6293.79866
683.454	6042.27647
683.649	6075.44866
683.845	6003.18835
684.04	6140.16089
684.235	5947.35243
684.43	6000.9685
684.626	5935.62185
684.821	5885.28691
685.016	5709.55551
685.211	5850.70251
685.407	5593.57411
685.602	5649.94574
685.797	5594.98889
685.992	5577.02263
686.187	5509.80795
686.382	5576.04908
686.577	5506.65091
686.773	5664.01859
686.968	5346.6612
687.163	5509.61275
687.358	5156.62146
687.553	5393.18327
687.748	5278.14279
687.943	5279.23921
688.138	5318.76267
688.333	5276.53919
688.528	5167.67676
688.723	5231.83069
688.918	5090.47049
689.112	5211.18394
689.307	4990.4421
689.502	5000.36227
689.697	5009.50695
689.892	5196.89921
690.087	4888.51314
690.282	5080.58412
690.476	4877.97611
690.671	5134.71021
690.866	4844.17703
691.061	5013.88735
691.255	4786.0671
691.45	4905.02354
691.645	4899.15307
691.84	4890.71835
692.034	4781.29685
692.229	4814.34706
692.424	4615.94895
692.618	4891.83993
692.813	4640.27866
693.007	4852.17481
693.202	4822.06854
693.397	4929.96389
693.591	4761.49011
693.786	4971.02228
693.98	4895.49012
694.175	4928.50169
694.369	4872.76923
694.564	5068.1385
694.758	4943.53135
694.953	5025.60523
695.147	4996.32297
695.342	4991.18298
695.536	4952.69555
695.73	4998.86965
695.925	4964.06492
696.119	5118.61237
696.313	4977.25144
696.508	5160.33183
696.702	5125.95389
696.896	5050.50292
697.091	5104.08607
697.285	5167.74001
697.479	5194.45302
697.673	5154.99425
697.868	5084.987
698.062	5284.9006
698.256	5107.25818
698.45	5257.06415
698.644	5049.07654
698.839	5236.09907
699.033	5019.42055
699.227	5271.21004
699.421	5190.6651
699.615	5319.77995
699.809	5098.52841
700.003	5311.0306
700.197	5157.79882
700.391	5315.18334
700.585	5176.09852
700.779	5219.17221
700.973	5285.34906
701.167	5383.52413
701.361	5290.29885
701.555	5419.27912
701.749	5214.90066
701.943	5479.96864
702.137	5312.40898
702.331	5439.54457
702.525	5279.88335
702.718	5454.89457
702.912	5490.02643
703.106	5360.0839
703.3	5333.2643
703.494	5515.80338
703.687	5407.93632
703.881	5490.77505
704.075	5261.85601
704.269	5486.34111
704.462	5458.7815
704.656	5628.28801
704.85	5431.88109
705.043	5519.57293
705.237	5387.58666
705.431	5663.26579
705.624	5427.27485
705.818	5592.29969
706.012	5535.0392
706.205	5716.97863
706.399	5495.70985
706.592	5723.58636
706.786	5641.36357
706.979	5901.41972
707.173	5638.20501
707.366	5822.81664
707.56	5625.29151
707.753	5817.10504
707.947	5806.7123
708.14	5957.16947
708.333	5850.13287
708.527	5840.69339
708.72	5836.81264
708.914	5936.16464
709.107	5938.02724
709.3	6044.75021
709.494	5804.56659
709.687	5954.7523
709.88	6005.76637
710.073	6081.98164
710.267	5875.32568
710.46	5867.58275
710.653	6023.14888
710.846	6042.35954
711.04	6047.11676
711.233	6256.38818
711.426	6004.69652
711.619	6002.89477
711.812	6141.66189
712.005	6312.62313
712.198	6031.26174
712.391	6115.9315
712.585	6151.31575
712.778	6189.167
712.971	6011.23311
713.164	6161.54933
713.357	6164.05844
713.55	6269.46104
713.743	6059.11487
713.936	6046.02741
714.129	5987.25034
714.322	5953.36334
714.514	5950.35423
714.707	5956.49822
714.9	5867.13051
715.093	5937.07783
715.286	5618.07179
715.479	5746.14041
715.672	5745.35454
715.864	5737.37104
716.057	5446.19446
716.25	5517.59089
716.443	5322.93213
716.636	5378.98812
716.828	5239.35923
717.021	5301.26043
717.214	5173.82236
717.406	5162.53691
717.599	5087.91337
717.792	4864.95268
717.984	4748.60397
718.177	4905.76081
718.37	4736.44768
718.562	4839.35355
718.755	4713.31667
718.947	4733.95159
719.14	4466.52348
719.333	4627.69473
719.525	4475.40597
719.718	4607.74609
719.91	4581.63507
720.103	4562.87421
720.295	4431.14176
720.487	4597.42881
720.68	4449.24755
720.872	4602.18135
721.065	4245.34619
721.257	4448.0322
721.449	4369.08176
721.642	4278.66128
721.834	4197.25514
722.026	4310.64317
722.219	4098.9827
722.411	4304.64676
722.603	4155.4649
722.796	4249.03863
722.988	4057.5248
723.18	4214.85382
723.372	4142.42304
723.565	4239.83734
723.757	4014.40061
723.949	4196.89866
724.141	4128.7836
724.333	4216.03893
724.525	4102.04361
724.717	4364.36519
724.91	4232.62119
725.102	4234.35901
725.294	4092.26368
725.486	4374.18498
725.678	4173.39067
725.87	4343.5515
726.062	4342.4966
726.254	4374.94593
726.446	4309.38061
726.638	4512.46799
726.83	4320.45717
727.022	4455.21664
727.213	4381.35047
727.405	4473.54263
727.597	4338.05191
727.789	4442.11573
727.981	4219.2186
728.173	4473.03089
728.365	4183.97977
728.556	4331.09674
728.748	4334.10485
728.94	4333.19245
729.132	4276.64215
729.324	4501.50228
729.515	4345.37675
729.707	4413.08023
729.899	4518.48925
730.09	4456.15963
730.282	4363.31184
730.474	4517.8222
730.665	4530.20257
730.857	4588.60847
731.049	4533.0221
731.24	4713.53389
731.432	4698.28059
731.623	4765.87703
731.815	4758.17553
732.006	4916.404
732.198	4836.75146
732.389	4920.45877
732.581	4999.98111
732.772	5076.22635
732.964	4942.06534
733.155	5174.60836
733.347	5013.19928
733.538	5188.88459
733.729	5176.04371
733.921	5356.467
734.112	5201.03755
734.304	5443.25086
734.495	5216.29867
734.686	5558.64381
734.877	5481.11177
735.069	5631.24365
735.26	5467.11951
735.451	5728.83624
735.643	5556.66497
735.834	5807.99296
736.025	5643.95202
736.216	5932.01978
736.407	5818.02858
736.599	5900.52295
736.79	5823.98592
736.981	5993.86575
737.172	5963.33164
737.363	6149.70828
737.554	5891.91936
737.745	6079.80401
737.936	6235.22581
738.127	6336.25826
738.318	6125.93991
738.509	6384.07616
738.7	6199.80694
738.891	6417.48949
739.082	6278.58274
739.273	6332.29028
739.464	6214.0436
739.655	6480.2213
739.846	6460.06562
740.037	6381.90294
740.228	6356.96217
740.419	6445.84567
740.609	6197.82232
740.8	6542.46735
740.991	6390.76041
741.182	6447.3133
741.373	6401.02655
741.563	6588.16581
741.754	6456.59329
741.945	6633.61836
742.136	6374.6853
742.326	6875.77375
742.517	6676.22903
742.708	6739.57842
742.898	6591.42134
743.089	6744.16918
743.28	6691.92484
743.47	6752.39619
743.661	6651.78726
743.851	6729.99185
744.042	6622.30591
744.233	6920.68813
744.423	6661.70349
744.614	6755.5464
744.804	6684.47868
744.995	6737.60929
745.185	6536.60348
745.376	6689.17494
745.566	6657.14844
745.756	6822.72472
745.947	6726.6307
746.137	6953.04169
746.328	6694.34885
746.518	6988.03841
746.708	6735.38086
746.899	6997.52205
747.089	6726.4372
747.279	6865.35276
747.47	6785.50381
747.66	6812.71894
747.85	6714.72225
748.04	6882.50707
748.231	6757.6903
748.421	6812.33712
748.611	6649.61739
748.801	7042.2468
748.991	6813.03547
749.182	6927.14298
749.372	6847.34865
749.562	6766.23797
749.752	6672.34662
749.942	6865.38278
750.132	6600.4635
750.322	6804.87821
750.512	6637.02149
750.702	6876.53818
750.892	6643.8227
751.082	6750.3214
751.272	6685.41668
751.462	6858.36549
751.652	6692.49886
751.842	6821.78955
752.032	6678.21226
752.222	6876.96017
752.412	6641.41775
752.602	6763.75015
752.792	6641.77404
752.981	6744.38635
753.171	6427.94876
753.361	6665.38343
753.551	6633.38678
753.741	6623.70346
753.93	6643.4272
754.12	6625.5848
754.31	6615.6648
754.5	6606.35102
754.689	6572.62891
754.879	6627.08976
755.069	6434.97432
755.258	6617.60978
755.448	6564.19807
755.638	6635.38592
755.827	6469.02172
756.017	6735.50566
756.206	6403.91292
756.396	6501.9405
756.586	6466.03536
756.775	6475.701
756.965	6202.583
757.154	6324.84089
757.344	6127.32553
757.533	6195.13722
757.723	5827.57008
757.912	5822.74067
758.101	5542.14351
758.291	5614.66034
758.48	5364.51141
758.67	5302.71169
758.859	5120.90837
759.048	5149.00721
759.238	4878.98759
759.427	4921.52889
759.616	4688.76786
759.806	4680.88144
759.995	4425.84066
760.184	4412.05874
760.373	4122.17482
760.563	4124.38536
760.752	3966.23296
760.941	4058.94495
761.13	3653.93868
761.319	3733.76966
761.509	3526.89279
761.698	3528.19652
761.887	3320.66028
762.076	3263.75646
762.265	3048.09469
762.454	3141.22671
762.643	2929.10708
762.832	3050.09934
763.021	2720.59082
763.21	2878.24361
763.399	2553.03237
763.588	2704.09622
763.777	2592.00816
763.966	2553.3578
764.155	2340.30688
764.344	2519.12443
764.533	2329.07047
764.722	2558.76782
764.911	2297.73994
765.1	2475.20713
765.288	2331.27478
765.477	2396.48074
765.666	2329.11701
765.855	2599.14944
766.044	2542.27578
766.232	2830.57934
766.421	2703.52063
766.61	2940.0181
766.799	2817.62663
766.987	3005.69396
767.176	3004.31871
767.365	3187.24799
767.553	3143.03156
767.742	3322.53976
767.931	3239.02662
768.119	3470.66246
768.308	3456.06988
768.497	3521.44647
768.685	3555.47658
768.874	3891.7763
769.062	3786.45654
769.251	4051.64205
769.439	4024.30926
769.628	4233.43085
769.816	4127.45752
770.005	4333.58281
770.193	4316.38689
770.382	4603.86199
770.57	4398.2199
770.758	4673.18663
770.947	4535.55691
771.135	4769.56241
771.323	4737.18497
771.512	4943.18015
771.7	4739.4634
771.888	5017.56104
772.077	4906.85732
772.265	4967.75271
772.453	4938.78701
772.642	4994.1112
772.83	4989.0268
773.018	5226.85992
773.206	4962.96336
773.394	5091.13617
773.583	4950.52836
773.771	5240.64739
773.959	5173.52218
774.147	5347.28066
774.335	5069.5349
774.523	5088.59771
774.711	5004.72918
774.899	5184.05553
775.087	5044.64614
775.275	5161.41035
775.463	5091.51287
775.651	5253.24521
775.839	5026.70444
776.027	5408.06981
776.215	5094.88311
776.403	5266.15306
776.591	5133.59731
776.779	5285.89263
776.967	5059.28908
777.155	5153.31758
777.343	4987.15562
777.531	5251.48738
777.718	5052.77968
777.906	5119.04668
778.094	5087.53561
778.282	5262.00108
778.47	4933.99738
778.657	5118.29683
778.845	4981.74434
779.033	5237.98763
779.22	5056.39343
779.408	5101.79705
779.596	4964.80054
779.783	5014.26386
779.971	5008.77971
780.159	5166.60304
780.346	5009.15793
780.534	4997.77054
780.722	4863.2182
780.909	4945.73556
781.097	4959.0137
781.284	5051.64254
781.472	4664.09618
781.659	4874.93689
781.847	4815.47452
782.034	4940.25106
782.222	4674.53994
782.409	5013.91286
782.597	4744.22729
782.784	4829.07817
782.971	4731.36244
783.159	4898.05222
783.346	4713.74249
783.533	4841.53843
783.721	4692.45294
783.908	4769.18379
784.095	4603.84304
784.283	4702.25968
784.47	4685.29675
784.657	4707.47865
784.844	4585.45715
785.032	4664.72118
785.219	4591.98833
785.406	4669.14579
785.593	4481.4024
785.78	4670.57334
785.968	4499.74092
786.155	4565.79044
786.342	4370.09897
786.529	4436.69618
786.716	4260.65764
786.903	4474.64212
787.09	4338.46826
787.277	4538.69946
787.464	4370.40078
787.651	4310.93774
787.838	4294.72805
788.025	4274.74882
788.212	4283.66452
788.399	4289.58619
788.586	4122.83044
788.773	4252.28462
788.96	4135.07075
789.147	4225.01885
789.334	4046.61508
789.521	4191.28681
789.707	3973.28992
789.894	4257.58122
790.081	4081.18145
790.268	4311.05854
790.455	3989.05854
790.641	3941.94398
790.828	3856.86401
791.015	3966.95032
791.202	3941.13952
791.388	3927.12591
791.575	3814.89743
791.762	3885.6714
791.948	3865.13449
792.135	3950.62153
792.322	3847.77297
792.508	3740.46031
792.695	3757.25823
792.881	3865.55282
793.068	3685.29302
793.254	3943.34547
793.441	3735.65421
793.627	3807.64087
793.814	3660.201
794	3859.91073
794.187	3691.7864
794.373	3749.34487
794.56	3658.73426
794.746	3868.65622
794.933	3721.97633
795.119	3773.25085
795.305	3674.68192
795.492	3911.13785
795.678	3708.97222
795.864	3731.80586
796.051	3655.52703
796.237	3752.26103
796.423	3692.62534
796.61	3658.58814
796.796	3710.44691
796.982	3798.8331
797.168	3498.4495
797.355	3856.45917
797.541	3631.46445
797.727	3724.34542
797.913	3709.60185
798.099	3739.34386
798.285	3618.127
798.471	3665.26882
798.658	3565.47176
798.844	3680.21957
799.03	3778.71302
799.216	3849.11359
799.402	3618.1889
799.588	3570.90809
799.774	3631.09354
799.96	3733.76966
800.146	3561.83567
800.332	3678.51337
800.518	3431.31369
800.704	3624.01409
800.89	3527.09988
801.075	3599.4733
801.261	3602.93601
801.447	3570.32138
801.633	3447.26471
801.819	3518.17584
802.005	3582.34333
802.19	3687.17351
802.376	3434.15485
802.562	3572.20852
802.748	3444.67549
802.934	3555.76252
803.119	3416.16473
803.305	3666.55147
803.491	3492.82483
803.676	3592.6381
803.862	3320.96759
804.048	3601.51749
804.233	3465.05
804.419	3563.78899
804.605	3407.3768
804.79	3491.28962
804.976	3393.1718
805.161	3520.84013
805.347	3446.49742
805.532	3512.05831
805.718	3351.00687
805.903	3547.25001
806.089	3510.094
806.274	3409.53129
806.46	3441.74179
806.645	3452.442
806.831	3437.33126
807.016	3511.46248
807.201	3310.5377
807.387	3522.08201
807.572	3322.97499
807.757	3389.13161
807.943	3223.2297
808.128	3397.95765
808.313	3253.11165
808.499	3349.45557
808.684	3418.67816
808.869	3378.37983
809.054	3251.6097
809.24	3351.30106
809.425	3172.80759
809.61	3253.89661
809.795	3178.92747
809.98	3289.64759
810.165	3147.89644
810.35	3268.83657
810.536	3174.84569
810.721	3170.79894
810.906	3016.59517
811.091	3207.32647
811.276	3069.20557
811.461	3090.99705
811.646	2901.55608
811.831	2943.20882
812.016	2786.9061
812.201	2902.55821
812.386	2795.96441
812.571	2767.36049
812.756	2686.34614
812.941	2693.86624
813.125	2525.97781
813.31	2708.29155
813.495	2502.64842
813.68	2562.99687
813.865	2346.85671
814.05	2542.60837
814.234	2195.43789
814.419	2321.43394
814.604	2165.93745
814.789	2251.89151
814.973	2126.74836
815.158	2137.33836
815.343	2113.22312
815.528	2019.39715
815.712	1989.85985
815.897	2024.97108
816.081	1717.46841
816.266	1885.92294
816.451	1792.67034
816.635	1817.9017
816.82	1713.53874
817.004	1827.69591
817.189	1641.16997
817.374	1631.53426
817.558	1624.1521
817.743	1647.36758
817.927	1614.39646
818.111	1627.9923
818.296	1548.96794
818.48	1559.68283
818.665	1478.70564
818.849	1621.04499
819.034	1404.70223
819.218	1538.26385
819.402	1430.76961
819.587	1510.80189
819.771	1443.90605
819.955	1589.64935
820.14	1411.89907
820.324	1478.56643
820.508	1306.68
820.692	1432.6995
820.877	1382.65321
821.061	1396.72482
821.245	1266.06926
821.429	1380.90428
821.613	1299.30762
821.798	1467.87751
821.982	1325.1496
822.166	1325.43269
822.35	1324.2509
822.534	1398.38706
822.718	1282.93882
822.902	1464.38642
823.086	1355.65895
823.27	1442.03341
823.454	1321.91103
823.638	1520.61441
823.822	1278.18493
824.006	1534.88125
824.19	1405.46323
824.374	1507.34461
824.558	1387.92681
824.742	1474.49909
824.926	1354.77687
825.11	1464.79614
825.294	1483.38496
825.477	1505.47875
825.661	1349.52399
825.845	1539.91915
826.029	1394.39809
826.213	1566.22655
826.396	1379.98343
826.58	1511.66886
826.764	1396.10055
826.948	1502.94194
827.131	1333.36609
827.315	1416.86706
827.499	1260.90235
827.682	1408.7213
827.866	1328.08068
828.05	1455.80653
828.233	1316.9562
828.417	1446.23134
828.6	1344.80811
828.784	1429.20082
828.967	1297.55619
829.151	1586.9846
829.335	1352.43042
829.518	1429.79294
829.701	1344.22083
829.885	1497.96754
830.068	1319.58035
830.252	1437.64946
830.435	1443.84118
830.619	1443.56034
830.802	1383.23612
830.985	1526.94127
831.169	1329.83781
831.352	1442.19145
831.535	1385.9353
831.719	1366.20529
831.902	1271.70409
832.085	1369.12876
832.269	1305.52859
832.452	1401.12859
832.635	1355.65606
832.818	1343.34318
833.002	1287.84833
833.185	1365.04148
833.368	1248.5396
833.551	1436.00361
833.734	1330.72582
833.917	1362.69339
834.1	1333.06664
834.284	1417.44714
834.467	1296.92483
834.65	1368.26527
834.833	1258.53769
835.016	1405.51168
835.199	1329.54328
835.382	1496.79847
835.565	1306.64317
835.748	1431.7494
835.931	1337.76667
836.114	1321.34739
836.297	1404.05429
836.479	1395.84776
836.662	1280.51426
836.845	1376.17779
837.028	1333.06648
837.211	1413.66042
837.394	1412.87525
837.577	1465.89525
837.759	1432.68614
837.942	1563.94603
838.125	1418.38985
838.308	1474.87705
838.49	1343.63413
838.673	1294.99469
838.856	1391.73963
839.039	1506.89654
839.221	1382.92811
839.404	1530.41711
839.587	1419.53732
839.769	1582.5048
839.952	1400.48346
840.134	1571.24781
840.317	1478.06748
840.499	1588.03396
840.682	1435.23391
840.865	1595.25789
841.047	1411.01371
841.23	1386.10535
841.412	1486.91722
841.595	1494.87497
841.777	1481.85207
841.959	1598.65902
842.142	1557.0595
842.324	1609.15588
842.507	1414.81101
842.689	1452.95917
842.871	1501.25136
843.054	1595.48093
843.236	1414.59107
843.418	1529.13479
843.601	1412.2829
843.783	1506.90685
843.965	1331.64625
844.147	1639.70101
844.33	1455.18038
844.512	1502.32038
844.694	1426.91298
844.876	1515.93692
845.059	1519.63053
845.241	1489.12038
845.423	1383.51113
845.605	1462.32352
845.787	1352.72485
845.969	1526.50085
846.151	1379.08016
846.333	1463.53335
846.515	1282.3461
846.697	1526.71833
846.879	1492.24225
847.061	1377.02863
847.243	1367.95346
847.425	1510.93203
847.607	1481.43463
847.789	1445.9513
847.971	1282.079
848.153	1428.00439
848.335	1254.98205
848.517	1501.60204
848.699	1316.61989
848.881	1351.55205
849.062	1225.29074
849.244	1350.97508
849.426	1275.7342
849.608	1345.69238
849.789	1229.6514
849.971	1370.90437
850.153	1200.02271
850.335	1328.36861
850.516	1203.4174
850.698	1398.19267
850.88	1268.109
851.061	1272.49508
851.243	1259.92078
851.425	1298.13985
851.606	1231.83865
851.788	1255.7969
851.969	1206.95141
852.151	1251.92198
852.333	1060.20584
852.514	1177.94007
852.696	1083.38218
852.877	1169.55307
853.059	1131.60583
853.24	1143.66968
853.422	1054.68587
853.603	1141.81955
853.784	1005.57724
853.966	1158.50818
854.147	1011.20603
854.329	1049.61287
854.51	1019.24541
854.691	1087.45694
854.873	907.13448
855.054	1051.31672
855.235	982.63603
855.416	993.34641
855.598	903.86604
855.779	1081.26138
855.96	1058.13351
856.141	1060.9797
856.323	930.81971
856.504	1046.01531
856.685	969.05919
856.866	1013.76136
857.047	851.77271
857.228	975.55168
857.409	915.78918
857.591	1090.63713
857.772	884.24817
857.953	1018.42705
858.134	906.83835
858.315	942.95791
858.496	872.13967
858.677	937.83728
858.858	850.86037
859.039	891.19773
859.22	848.79026
859.401	1021.46275
859.582	880.04762
859.762	924.87872
859.943	837.28453
860.124	960.85211
860.305	898.73694
860.486	955.04245
860.667	889.30345
860.848	892.18189
861.028	887.05526
861.209	1046.01531
861.39	776.39224
861.571	934.86258
861.751	749.30038
861.932	946.15227
862.113	968.92052
862.293	987.18393
862.474	883.18517
862.655	918.44424
862.835	945.20238
863.016	917.60732
863.197	939.13536
863.377	882.83085
863.558	878.61094
863.738	990.79454
863.919	730.08686
864.099	891.32755
864.28	848.35024
864.46	777.3541
864.641	721.52405
864.821	760.29691
865.002	811.89057
865.182	878.8579
865.363	707.79581
865.543	919.35404
865.723	745.64166
865.904	701.54668
866.084	736.94029
866.264	786.02265
866.445	701.05715
866.625	704.53266
866.805	717.66975
866.986	788.50142
867.166	690.35661
867.346	661.8876
867.526	654.59485
867.707	773.56395
867.887	611.47778
868.067	729.84527
868.247	638.14137
868.427	755.1717
868.607	628.92331
868.788	794.82646
868.968	648.61242
869.148	688.77394
869.328	564.60994
869.508	690.84211
869.688	607.67187
869.868	659.5742
870.048	603.50429
870.228	673.05463
870.408	636.85553
870.588	603.5378
870.768	588.99556
870.948	586.83888
871.128	543.40785
871.307	664.4468
871.487	601.53383
871.667	602.05399
871.847	536.34225
872.027	559.67658
872.207	546.19817
872.387	619.70922
872.566	578.48528
872.746	613.60435
872.926	596.28981
873.106	546.34784
873.285	622.76867
873.465	639.99707
873.645	584.46729
873.824	683.22286
874.004	497.96723
874.184	615.25732
874.363	512.20025
874.543	603.16165
874.723	584.88267
874.902	574.74771
875.082	622.00803
875.261	631.34537
875.441	398.61021
875.62	553.94093
875.8	542.97714
875.979	535.68437
876.159	501.36201
876.338	587.92549
876.518	415.88519
876.697	432.45779
876.876	464.90464
877.056	564.75035
877.235	506.04961
877.415	523.74244
877.594	448.9035
877.773	577.82776
877.953	419.8763
878.132	453.24177
878.311	491.53965
878.49	499.34108
878.67	402.27939
878.849	473.85186
879.028	470.46785
879.207	383.8568
879.387	433.92314
879.566	525.89621
879.745	462.67851
879.924	422.04227
880.103	390.31577
880.282	545.92067
880.461	356.09277
880.64	584.67132
880.819	399.82943
880.998	468.43606
881.178	396.01688
881.357	480.50752
881.536	398.66259
881.715	443.66644
881.893	433.91993
882.072	455.7148
882.251	391.71103
882.43	409.38436
882.609	507.79448
882.788	442.61716
882.967	473.66512
883.146	491.7488
883.325	391.87666
883.503	442.56799
883.682	404.85292
883.861	444.09524
884.04	375.86434
884.219	462.59778
884.397	408.79893
884.576	361.94968
884.755	299.79088
884.933	495.53408
885.112	405.34155
885.291	446.18395
885.469	322.63638
885.648	410.62748
885.827	316.56953
886.005	419.8763
886.184	323.307
886.363	349.01252
886.541	375.95593
886.72	371.01942
886.898	302.6902
887.077	397.51182
887.255	348.9236
887.434	401.26697
887.612	430.30006
887.791	435.02072
887.969	413.2027
888.147	360.15087
888.326	268.75382
888.504	385.99119
888.682	303.12234
888.861	360.9213
889.039	292.3557
889.218	383.18805
889.396	361.52349
889.574	372.89457
889.752	384.24896
889.931	273.33176
890.109	375.94147
890.287	398.39093
890.465	361.79603
890.643	442.99644
890.822	345.30259
891	428.88572
891.178	228.76565
891.356	391.30926
891.534	387.2591
891.712	375.24
891.89	336.33945
892.068	290.2902
892.247	313.01876
892.425	368.43366
892.603	254.15469
892.781	329.52663
892.959	302.86827
893.137	328.10354
893.314	203.58829
893.492	313.6315
893.67	268.94353
893.848	187.8877
894.026	177.06251
894.204	253.76939
894.382	193.63329
894.56	249.49188
894.738	204.74913
894.915	233.66818
895.093	198.02889
895.271	177.94743
895.449	179.13084
895.626	210.41464
895.804	124.4433
895.982	229.40931
896.16	183.28175
896.337	206.57041
896.515	148.68855
896.693	152.30019
896.87	150.25779
897.048	129.21762
897.225	139.03284
897.403	136.12195
897.581	114.27162
897.758	70.12847
897.936	108.23983
898.113	159.92618
898.291	164.49334
898.468	119.66739
898.646	73.60761
898.823	128.83999
899.001	113.16707
899.178	83.60449
899.356	153.03011
899.533	95.60984
899.71	171.08491
899.888	84.90767
900.065	66.31027
900.242	95.16035
900.42	89.33383
900.597	72.17738
900.774	108.29375
900.952	142.67533
901.129	94.81709
901.306	99.3406
901.483	56.85698
901.661	59.99554
901.838	50.2194
902.015	70.18071
902.192	46.03084
902.369	70.76361
902.546	139.30898
902.723	45.54985
902.901	88.70402
903.078	133.82007
903.255	134.53804
903.432	18.4687
903.609	42.11564
903.786	-9.13195
903.963	105.04511
904.14	62.38914
904.317	68.58758
904.494	86.58047
904.671	53.8802
904.848	24.79552
905.024	16.99367
905.201	132.06686
905.378	201.35231
905.555	95.58599
905.732	96.8045
905.909	158.73559
906.086	161.13216
906.262	163.43949
906.439	17.22578
906.616	78.80886
906.793	93.12563
906.969	95.20806
907.146	64.64504
907.323	102.59648
907.5	54.83989
907.676	114.4424
907.853	55.79899
908.03	90.46322
908.206	59.25448
908.383	71.47072
908.559	45.06872
908.736	160.97131
908.912	95.56219
909.089	24.084
909.266	64.30145
909.442	61.5402
909.619	73.92891
909.795	66.11267
909.972	75.6067
910.148	69.08284
910.324	62.4203
910.501	71.47072
910.677	137.04471
910.854	83.99938
911.03	63.80774
911.206	88.06974
911.383	21.13548
911.559	67.34983
911.735	58.54295
911.912	47.08652
912.088	11.38168
912.264	13.81748
912.44	30.41124
912.617	64.79525
912.793	35.57164
912.969	-14.51203
913.145	29.46625
913.321	27.49435
913.498	88.09178
913.674	0.14251
913.85	66.07958
914.026	19.17563
914.202	32.62977
914.378	47.56794
914.554	134.22028
914.73	1.85323
914.906	39.68686
915.082	75.45361
915.258	113.33726
915.434	55.38883
915.61	7.47441
915.786	51.47845
915.962	50.75082
916.138	82.53042
916.314	-2.79038
916.49	21.15132
916.665	67.28244
916.841	23.82668
917.017	66.60746
917.193	58.55765
917.369	142.56792
917.545	27.52193
917.72	29.22788
917.896	35.34342
918.072	10.39725
918.247	-30.86634
918.423	77.41885
918.599	97.44793
918.775	150.02877
918.95	5.27664
919.126	22.82879
919.301	70.03842
919.477	12.10422
919.653	47.30941
919.828	-12.31586
920.004	24.10821
920.179	-16.47229
920.355	-35.95039
920.53	10.40506
920.706	58.06347
920.881	24.57486
921.057	58.26673
921.232	112.75299
921.408	-25.50132
921.583	32.16247
921.759	38.50564
921.934	29.6971
922.109	17.98286
922.285	22.3723
922.46	25.53129
922.635	25.0784
922.811	-1.56789
922.986	39.73654
923.161	22.62897
923.336	21.17259
923.512	-21.09628
923.687	37.0386
923.862	48.23544
924.037	31.89258
924.212	22.61762
924.388	71.25889
924.563	48.51817
924.738	96.37965
924.913	-13.53755
925.088	62.79367
925.263	42.1577
925.438	48.78922
925.613	-10.84231
925.788	76.44581
925.963	75.47263
926.138	2.58738
926.313	62.20436
926.488	44.59859
926.663	79.59271
926.838	18.95439
927.013	48.55474
927.188	82.4683
927.363	64.90864
927.538	69.82591
927.713	65.13969
927.888	55.63585
928.062	69.5782
928.237	17.49247
928.412	74.99546
928.587	11.13963
928.761	-10.35505
928.936	42.20007
929.111	3.80872
929.286	19.93529
929.46	76.17853
929.635	35.34342
929.81	5.52416
929.984	-3.76829
930.159	45.56122
930.334	6.99025
930.508	66.1792
930.683	8.45142
930.857	34.86885
931.032	8.20873
931.206	9.18352
931.381	44.60976
931.556	58.80477
931.73	7.22968
931.904	31.68663
932.079	30.41883
932.253	-15.00665
932.428	25.09737
932.602	32.17866
932.777	57.87467
932.951	23.38313
933.125	8.93876
933.3	15.06461
933.474	-29.18849
933.648	-5.72306
933.823	20.42588
933.997	14.31794
934.171	5.76613
934.345	9.18122
934.52	20.91656
934.694	21.17792
934.868	9.4283
935.042	104.84862
935.217	40.25947
935.391	55.92518
935.565	16.02186
935.739	26.29358
935.913	8.20461
936.087	-31.39108
936.261	40.22906
936.435	9.67554
936.609	49.50456
936.783	13.58969
936.957	35.09735
937.131	-31.14024
937.305	-29.40944
937.479	48.8015
937.653	-18.4387
937.827	-17.45957
938.001	-47.75366
938.175	-75.85453
938.349	61.26187
938.523	33.3839
938.697	30.96437
938.87	-14.5266
939.044	-14.2756
939.218	0.87642
939.392	3.3196
939.566	41.71768
939.739	1.6108
939.913	-22.83782
940.087	43.91484
940.261	13.8488
940.434	21.8927
940.608	15.53963
940.782	19.20922
940.955	-1.08038
941.129	-16.70749
941.302	22.14924
941.476	58.57237
941.65	-16.24504
941.823	10.90572
941.997	19.69003
942.17	72.19542
942.344	1.36606
942.517	-59.9696
942.691	-28.70228
942.864	16.52442
943.038	31.94069
943.211	18.49196
943.385	5.76468
943.558	40.45504
943.731	-30.63123
943.905	-41.40804
944.078	10.65524
944.251	18.23726
944.425	16.51612
944.598	-35.54564
944.771	4.05434
944.945	21.64189
945.118	41.96418
945.291	68.86988
945.464	19.70985
945.638	45.62986
945.811	-54.86355
945.984	-37.97256
946.157	-19.39848
946.33	79.15629
946.503	30.69514
946.677	26.04145
946.85	19.70985
947.023	-0.3465
947.196	-9.14566
947.369	13.34122
947.542	49.29509
947.715	1.85183
947.888	-36.26485
948.061	-77.31878
948.234	-30.91281
948.407	37.28466
948.58	74.23259
948.753	-11.10537
948.926	52.02465
949.099	-37.47796
949.271	18.70922
949.444	-33.34275
949.617	30.47232
949.79	52.01149
949.963	14.81557
950.136	-44.55881
950.308	50.82786
950.481	26.30681
950.654	-43.84303
950.827	50.03564
950.999	108.62139
951.172	76.92265
951.345	-10.35505
951.517	-10.11391
951.69	20.68682
951.863	7.47441
952.035	63.72001
952.208	50.466
952.381	5.27532
952.553	20.17552
952.726	-39.49716
952.898	-18.4387
953.071	-15.99715
953.243	-1.32294
953.416	28.77263
953.588	-23.31876
953.761	23.62886
953.933	23.61099
954.106	49.03594
954.278	-66.29359
954.45	5.0332
954.623	-5.97319
954.795	-40.92298
954.967	3.56505
955.14	25.81538
955.312	58.55765
955.484	-10.12151
955.657	-6.21285
955.829	-25.78318
956.001	5.7705
956.173	34.13907
956.346	38.78102
956.518	-1.32561
956.69	68.44358
956.862	19.46436
957.034	-42.87346
957.207	-14.03539
957.379	39.02737
957.551	31.43274
957.723	-28.93087
957.895	10.65257
958.067	-12.33134
958.239	62.00388
958.411	14.06584
958.583	56.15826
958.755	11.37883
958.927	21.39124
959.099	-48.25007
959.271	-49.48558
959.443	65.89838
959.615	14.31435
959.787	-33.58562
959.959	-40.18512
960.13	61.30823
960.302	0.63213
960.474	2.34338
960.646	-2.30235
960.818	-28.45914
960.99	-89.03014
961.161	-43.38009
961.333	53.42694
961.505	41.95361
961.677	20.89563
961.848	57.84549
962.02	-8.65979
962.192	37.08525
962.363	24.82032
962.535	-30.19102
962.707	22.14366
962.878	9.18582
963.05	-4.4987
963.221	64.18269
963.393	-21.37152
963.564	34.57064
963.736	-2.30235
963.907	25.09104
964.079	29.68967
964.25	9.91049
964.422	22.14924
964.593	-17.7211
964.765	31.44858
964.936	7.23514
965.108	27.50812
965.279	9.68041
965.45	19.94531
965.622	26.31344
965.793	6.00789
965.964	26.56597
966.136	71.10073
966.307	82.86233
966.478	-13.30054
966.65	58.35459
966.821	-4.01455
966.992	-12.80966
967.163	33.17137
967.334	-26.27655
967.506	2.83199
967.677	62.49868
967.848	-20.38711
968.019	19.70488
968.19	60.99924
968.361	-1.32294
968.532	31.1712
968.703	8.69402
968.874	-5.96121
969.045	-41.62966
969.216	55.14184
969.387	31.92459
969.558	22.64036
969.729	18.72803
969.9	43.42176
970.071	42.93958
970.242	17.24299
970.413	1.60837
970.584	31.41696
970.755	68.60483
970.926	7.47629
971.097	5.52277
971.267	61.32374
971.438	31.21832
971.609	67.36675
971.78	25.81538
971.951	69.5084
972.121	-12.56586
972.292	-15.00289
972.463	-35.78843
972.633	21.6582
972.804	1.12105
972.975	34.86007
973.145	52.45276
973.316	56.88563
973.487	-4.00852
973.657	7.48194
973.828	-47.24558
973.998	14.31794
974.169	19.46436
974.339	65.18883
974.51	2.34338
974.68	7.72499
974.851	16.53276
975.021	15.7927
975.192	15.30222
975.362	-24.54121
975.533	24.5872
975.703	-16.00523
975.874	19.45946
976.044	-61.49606
976.214	50.3207
976.385	-2.30004
976.555	23.35373
976.725	45.37179
976.896	-4.74872
977.066	25.55685
977.236	42.69305
977.406	-3.27809
977.577	-16.23685
977.747	26.04145
977.917	36.30967
978.087	-22.82635
978.257	17.01072
978.427	44.63216
978.598	32.17056
978.768	36.29148
978.938	42.6823
979.108	3.56236
979.278	1.11909
979.448	-10.12405
979.618	27.52886
979.788	14.08707
979.958	24.58102
980.128	15.29069
980.298	58.36933
980.468	42.92876
980.638	30.42643
980.808	-14.27202
980.978	16.28327
981.148	67.16995
981.317	73.73673
981.487	-10.84773
981.657	4.5403
981.827	64.94129
981.997	23.14327
982.167	3.56236
982.336	30.47232
982.506	-5.47342
982.676	-1.56789
982.846	-2.05691
983.015	-26.49991
983.185	1.60877
983.355	48.30801
983.524	-72.94413
983.694	18.47798
983.864	-37.24472
984.033	79.46492
984.203	7.47817
984.372	15.30222
984.542	29.98036
984.712	29.48849
984.881	74.02197
985.051	43.88174
985.22	18.96867
985.39	33.3923
985.559	54.401
985.728	-6.69943
985.898	-5.48443
986.067	56.12996
986.237	25.55044
986.406	34.85131
986.576	-49.91984
986.745	20.4413
986.914	20.91131
987.084	4.05434
987.253	-37.70167
987.422	7.72304
987.591	35.07974
987.761	-13.0633
987.93	34.35067
988.099	11.62654
988.268	5.52277
988.438	-38.93298
988.607	75.45361
988.776	41.00937
988.945	14.32154
989.114	72.07461
989.283	52.19281
989.452	-39.9526
989.621	34.84256
989.791	-10.86135
989.96	27.78167
990.129	-15.01419
990.298	20.4413
990.467	-0.83497
990.636	16.76548
990.805	55.62187
990.974	13.82786
991.142	25.05326
991.311	-38.73912
991.48	-23.04659
991.649	-33.31768
991.818	49.77623
991.987	9.18352
992.156	51.49141
992.325	-5.72306
992.493	63.70397
992.662	-243.6518
992.831	-4.74039
993	-65.07098
993.168	1.36468
993.337	-68.01555
993.506	20.91131
993.675	24.35388
993.843	28.98941
994.012	70.05602
994.181	12.84155
994.349	61.07618
994.518	-6.21911
994.686	-19.40821
994.855	25.8024
995.024	4.05638
995.192	2.58608
995.361	55.89696
995.529	19.68018
995.698	-0.10192
995.866	18.97824
996.035	12.3706
996.203	-24.55975
996.371	-14.5193
996.54	42.24273
996.708	36.82959
996.877	13.34122
997.045	21.17792
997.213	24.10214
997.382	22.11595
997.55	-15.99715
997.718	-40.68042
997.887	17.015
998.055	-21.6259
998.223	29.49593
998.391	-35.03361
998.56	-0.59106
998.728	-60.69431
998.896	25.09737
999.064	-5.23869
999.232	-41.16552
999.401	-87.78478
999.569	-11.34651
999.737	26.06765
999.905	-23.31876
1000.073	-18.94026
1000.241	18.97345
1000.409	31.6707
1000.577	-22.36786
1000.745	-81.67019
1000.913	-66.11872
1001.081	-69.77316
1001.249	32.17866
1001.417	9.66827
1001.585	-1.81307
1001.753	-6.45213
1001.921	-20.62023
1002.089	22.14924
1002.256	3.80968
1002.424	16.02186
1002.592	19.46436
1002.76	38.49599
1002.928	19.45456
1003.096	3.32211
1003.263	35.11503
1003.431	50.54223
1003.599	64.4788
1003.767	-18.93548
1003.934	63.44064
1004.102	6.0094
1004.27	-36.76861
1004.437	-56.58507
1004.605	-1.08038
1004.773	-38.95248
1004.94	41.46076
1005.108	29.51832
1005.275	49.97283
1005.443	-11.35223
1005.61	-18.9307
1005.778	55.9535
1005.945	28.49786
1006.113	38.25953
1006.28	21.66366
1006.448	-31.39108
1006.615	3.81064
1006.783	62.21997
1006.95	-19.86536
1007.118	1.60917
1007.285	1.85603
1007.452	-16.2287
1007.62	42.17885
1007.787	27.76767
1007.954	45.84193
1008.122	-9.15027
1008.289	28.97486
1008.456	5.52277
1008.623	32.40839
1008.791	12.37372
1008.958	3.56684
1009.125	16.76548
1009.292	-3.03772
1009.459	-56.78415
1009.627	55.92518
1009.794	-34.81713
1009.961	-3.76734
1010.128	-9.14566
1010.295	23.84458
1010.462	15.05702
1010.629	50.466
1010.796	29.98792
1010.963	6.98849
1011.13	-32.37104
1011.297	-17.70323
1011.464	18.00098
1011.631	43.92592
1011.798	-24.55975
1011.965	-17.46396
1012.132	-54.33868
1012.299	-22.56046
1012.466	-38.66158
1012.633	90.59925
1012.799	52.46596
1012.966	-18.93548
1013.133	55.89696
1013.3	35.11503
1013.467	-15.50169
1013.633	-11.59919
1013.8	-10.37586
1013.967	88.22489
1014.134	16.27507
1014.3	5.03702
1014.467	21.8982
1014.634	-45.79258
1014.8	22.15482
1014.967	14.81184
1015.134	11.39313
1015.3	4.29686
1015.467	-50.00771
1015.633	-7.92535
1015.8	-45.53893
1015.966	29.00402
1016.133	19.20922
1016.3	-33.07497
1016.466	47.56794
1016.632	36.56491
1016.799	17.01072
1016.965	-6.21129
1017.132	21.41811
1017.298	-10.12151
1017.465	63.75217
1017.631	-81.84941
1017.797	15.30222
1017.964	28.50503
1018.13	21.40733
1018.296	23.59323
1018.463	11.86845
1018.629	-26.51326
1018.795	8.70277
1018.961	-53.11601
1019.128	7.72694
1019.294	-7.18388
1019.46	61.2311
1019.626	4.29471
1019.792	38.77125
1019.959	39.98279
1020.125	-7.19109
1020.291	-11.60212
1020.457	18.72803
1020.623	8.21493
1020.789	8.70057
1020.955	35.07974
1021.121	-36.54425
1021.287	-43.83204
1021.453	1.8523
1021.619	85.987
1021.785	-0.83539
1021.951	14.32154
1022.117	21.15663
1022.283	-21.35543
1022.449	19.45946
1022.615	40.27983
1022.781	33.60459
1022.946	-44.04129
1023.112	-5.23869
1023.278	-14.27202
1023.444	51.02338
1023.61	30.71833
1023.775	-27.7296
1023.941	19.22375
1024.107	20.2009
1024.273	-1.81352
1024.438	-10.12915
1024.604	2.34103
1024.77	-35.96823
1024.935	41.48167
1025.101	22.89752
1025.267	-79.54497
1025.432	-40.18512
1025.598	-44.11862
1025.763	-41.88251
1025.929	0.87642
1026.095	-0.8356
1026.26	19.21405
1026.426	7.96995
1026.591	29.48849
1026.757	-42.35667
1026.922	110.34247
1027.087	-23.82932
1027.253	-3.28056
1027.418	18.96867
1027.584	-22.11303
1027.749	24.57486
1027.914	15.30222
1028.08	-21.3877
1028.245	-16.98074
1028.41	14.56302
1028.576	10.16791
1028.741	22.85725
1028.906	61.50918
1029.072	32.65433
1029.237	-15.26179
1029.402	-28.68069
1029.567	15.76502
1029.732	6.01546
1029.898	59.77847
1030.063	48.82612
1030.228	60.52006
1030.393	-46.50754
1030.558	5.03193
1030.723	-23.05809
1030.888	24.57486
1031.053	19.9403
1031.218	2.34103
1031.383	24.10214
1031.548	-69.66844
1031.713	17.01072
1031.878	28.4907
1032.043	34.13907
1032.208	-50.42886
1032.373	11.88638
1032.538	-71.4793
1032.703	6.49726
1032.868	-26.47999
1033.033	24.12649
1033.198	27.54275
1033.362	23.85056
1033.527	53.68734
1033.692	38.7615
1033.857	17.49247
1034.021	-40.17504
1034.186	18.22809
1034.351	-19.18887
1034.516	-1.07957
1034.68	0.14262
1034.845	43.18613
1035.01	-11.58461
1035.174	49.06065
1035.339	26.03493
1035.504	39.03721
1035.668	-13.52741
1035.833	-9.88006
1035.997	83.08989
1036.162	46.14655
1036.326	13.10279
1036.491	-0.10197
1036.655	10.41553
1036.82	11.87739
1036.984	-18.92118
1037.149	-19.41797
1037.313	-7.91543
1037.478	16.00986
1037.642	1.85323
1037.807	9.43304
1037.971	0.38722
1038.135	17.26033
1038.3	1.12077
1038.464	10.1577
1038.628	10.41553
1038.792	-35.24108
1038.957	-66.26048
1039.121	-22.59439
1039.285	-4.01354
1039.449	14.57402
1039.614	72.26792
1039.778	36.07269
1039.942	-6.45861
1040.106	7.47817
1040.27	2.82985
1040.434	-33.09154
1040.599	-25.76372
1040.763	14.55571
1040.927	-53.14267
1041.091	7.72499
1041.255	-14.03892
1041.419	-6.70448
1041.583	40.95772
1041.747	-28.45199
1041.911	31.14006
1042.075	-33.81998
1042.239	31.41696
1042.403	9.42594
1042.567	12.1133
1042.731	-26.74983
1042.894	29.9728
1043.058	-49.00115
1043.222	-2.79461
1043.386	14.55936
1043.55	19.69003
1043.714	61.26187
1043.877	58.61669
1044.041	-15.50559
1044.205	26.2804
1044.369	23.63483
1044.532	9.18813
1044.696	-20.65658
1044.86	31.18685
1045.023	-95.79578
1045.187	-91.19128
1045.351	-18.19505
1045.514	12.62212
1045.678	-8.39883
1045.841	21.65275
