Data from Subt2__4__22-17-55-978.txt Node

Date: Tue Oct 07 22:17:55 EDT 2025
User: brett
Spectrometer: USB4F03499
Trigger mode: 4
Integration Time (sec): 1.967750E0
Scans to average: 1
Electric dark correction enabled: true
Nonlinearity correction enabled: true
Boxcar width: 0
XAxis mode: Wavelengths
Number of Pixels in Spectrum: 3648
>>>>>Begin Spectral Data<<<<<
345.386	-699.71087
345.605	-699.71087
345.824	-699.71087
346.044	-678.68487
346.263	-683.76483
346.482	-56.53309
346.701	-199.4014
346.92	137.17977
347.139	-7.98887
347.358	-96.13969
347.577	248.96963
347.796	222.69679
348.015	377.87929
348.234	-388.46669
348.453	-301.9373
348.672	97.97559
348.891	-44.21219
349.11	-23.8295
349.329	490.77274
349.548	344.4477
349.767	723.82666
349.986	812.8453
350.205	230.58666
350.424	372.61204
350.643	386.93945
350.862	264.22575
351.08	926.62549
351.299	492.6597
351.518	432.62582
351.737	512.48126
351.956	491.5124
352.174	729.95737
352.393	648.99696
352.612	132.71937
352.831	495.77313
353.049	700.04831
353.268	495.48181
353.487	649.34987
353.705	248.78148
353.924	600.88149
354.143	739.1684
354.361	354.14602
354.58	479.07747
354.798	544.12431
355.017	626.64712
355.236	260.89588
355.454	180.02022
355.673	623.6466
355.891	997.14043
356.11	151.79307
356.328	368.34255
356.547	632.269
356.765	502.02949
356.984	585.54655
357.202	364.58239
357.42	475.77967
357.639	737.69609
357.857	437.52741
358.076	371.64329
358.294	746.10219
358.512	704.25035
358.731	815.6806
358.949	226.84534
359.167	920.85688
359.386	1527.8355
359.604	386.89613
359.822	612.22023
360.04	798.45731
360.259	688.3804
360.477	226.70037
360.695	544.69308
360.913	985.59784
361.131	1107.59886
361.35	628.08587
361.568	478.77802
361.786	877.66194
362.004	838.48442
362.222	472.87968
362.44	707.70881
362.658	800.24714
362.876	1084.7852
363.094	538.73399
363.312	585.26964
363.53	1128.29206
363.749	856.95408
363.967	652.52207
364.184	384.19526
364.402	863.29927
364.62	797.2765
364.838	407.3174
365.056	600.48485
365.274	740.03179
365.492	773.09708
365.71	436.89971
365.928	650.7363
366.146	1024.59903
366.364	1108.43708
366.581	647.80223
366.799	634.71366
367.017	1010.56245
367.235	852.06754
367.453	688.15727
367.67	542.811
367.888	996.01037
368.106	1232.55864
368.323	1817.174
368.541	845.69845
368.759	952.34765
368.977	1363.76074
369.194	835.39704
369.412	868.20638
369.629	1078.76318
369.847	828.41911
370.065	965.18475
370.282	830.37594
370.5	1171.37832
370.717	1374.47472
370.935	1020.9642
371.152	813.10592
371.37	1175.77103
371.588	1273.79392
371.805	862.07944
372.022	1100.04659
372.24	1083.05215
372.457	1348.05753
372.675	861.22532
372.892	849.02364
373.11	1333.98841
373.327	1197.26907
373.544	1048.85749
373.762	992.22761
373.979	1534.23651
374.196	1666.79151
374.414	1159.20785
374.631	1272.00202
374.848	1489.39553
375.066	1140.78809
375.283	845.54877
375.5	925.59407
375.717	1565.50008
375.935	1433.08909
376.152	1287.8044
376.369	987.3389
376.586	1227.9303
376.803	1654.1442
377.02	1228.46416
377.238	1167.78385
377.455	1309.89383
377.672	1367.70334
377.889	947.26918
378.106	982.01158
378.323	1291.24376
378.54	1282.46637
378.757	1098.61863
378.974	1090.1233
379.191	1765.08563
379.408	1465.25745
379.625	1134.98534
379.842	1155.40831
380.059	1336.1857
380.276	1532.63818
380.493	1054.68014
380.71	1362.51173
380.927	1619.01402
381.143	1722.7974
381.36	1414.47432
381.577	1230.01299
381.794	1516.75211
382.011	1741.10621
382.228	1267.98674
382.444	1383.17262
382.661	1574.172
382.878	1516.37437
383.095	1432.55677
383.311	1559.18824
383.528	1658.11531
383.745	1444.97651
383.962	1256.01208
384.178	1354.00901
384.395	1624.5557
384.612	1607.73822
384.828	1499.93383
385.045	1338.39717
385.261	1497.82312
385.478	1788.89841
385.695	1222.24849
385.911	1314.91664
386.128	1678.19979
386.344	1654.67646
386.561	1183.76051
386.777	1565.59861
386.994	1724.60371
387.21	2236.6823
387.427	1287.71734
387.643	1247.04995
387.86	1628.88016
388.076	1585.29223
388.292	1598.39802
388.509	1304.71863
388.725	1840.36472
388.942	1677.94252
389.158	1241.92836
389.374	1484.891
389.591	1639.79075
389.807	1694.96223
390.023	1491.07144
390.239	1288.45525
390.456	1606.62159
390.672	1762.71632
390.888	1365.07261
391.104	2139.92381
391.321	1896.7492
391.537	1920.68806
391.753	1660.69644
391.969	1733.84687
392.185	1969.48233
392.401	2041.09854
392.618	1805.29052
392.834	1987.8261
393.05	2010.88257
393.266	2055.40644
393.482	2027.10735
393.698	1734.67066
393.914	2248.93902
394.13	2158.84695
394.346	2009.37314
394.562	1895.55998
394.778	1940.14094
394.994	2280.58012
395.21	2021.99998
395.426	2062.26903
395.642	2084.66442
395.858	2130.16414
396.073	1919.28169
396.289	2037.31183
396.505	2348.38875
396.721	2516.71166
396.937	2078.0395
397.153	1903.97049
397.369	2328.84198
397.584	2288.94586
397.8	1899.03166
398.016	2079.30719
398.232	2593.25654
398.447	2207.88157
398.663	2067.75356
398.879	1843.39844
399.094	2319.59765
399.31	2630.76271
399.526	2241.45222
399.741	2006.99123
399.957	2647.26999
400.173	2519.0483
400.388	2294.62231
400.604	2133.20937
400.82	2627.94442
401.035	2584.6713
401.251	2362.61397
401.466	2287.88598
401.682	2796.41673
401.897	2843.72016
402.113	2526.28012
402.328	2556.44913
402.544	3007.50153
402.759	2984.1041
402.974	2883.06372
403.19	2980.1648
403.405	3374.96169
403.621	3456.87707
403.836	3417.41116
404.051	3194.19337
404.267	3498.38421
404.482	3736.98295
404.697	3461.12856
404.913	3176.07345
405.128	3649.36293
405.343	3799.3499
405.559	3514.94944
405.774	3654.19942
405.989	3971.64683
406.204	3961.37499
406.42	3889.61259
406.635	3803.26985
406.85	3930.22382
407.065	4084.036
407.28	3771.18919
407.495	3876.93199
407.71	4331.02726
407.926	4202.27209
408.141	4034.56879
408.356	4364.52189
408.571	4271.29458
408.786	4087.42661
409.001	4031.48915
409.216	4191.41724
409.431	4407.16687
409.646	4670.74603
409.861	4390.03044
410.076	4350.70122
410.291	4525.34282
410.506	4607.69985
410.721	4065.34362
410.936	4291.72855
411.15	4441.4703
411.365	4557.14507
411.58	4641.00491
411.795	4387.2019
412.01	4760.86554
412.225	4730.96502
412.439	4455.71583
412.654	4533.85893
412.869	4789.95887
413.084	4748.46802
413.299	4426.69786
413.513	4313.5673
413.728	4649.21617
413.943	5005.81706
414.157	4637.17186
414.372	4654.99907
414.587	5059.78194
414.801	5247.20236
415.016	4816.94409
415.231	5106.68229
415.445	5054.24229
415.66	5137.85119
415.874	5087.60047
416.089	4802.49072
416.304	5523.2915
416.518	5623.32196
416.733	5398.07738
416.947	4870.66031
417.162	5454.82809
417.376	5500.59291
417.59	5575.41331
417.805	5378.09471
418.019	5543.96668
418.234	5343.9079
418.448	5327.97376
418.663	5461.75447
418.877	5516.52838
419.091	5622.47204
419.306	5571.15639
419.52	5490.31983
419.734	5907.75435
419.949	6196.42751
420.163	5657.48592
420.377	5198.59567
420.591	5821.86025
420.806	6118.94203
421.02	5516.40854
421.234	5519.12586
421.448	5969.86348
421.663	5860.25813
421.877	5540.92084
422.091	5506.97938
422.305	6129.76485
422.519	6093.29143
422.733	6056.3277
422.947	5721.10936
423.161	5934.50611
423.376	5846.77058
423.59	6178.67356
423.804	5884.69614
424.018	6137.36778
424.232	6108.56206
424.446	6279.84878
424.66	6058.86483
424.874	5994.75061
425.088	6097.5598
425.302	7852.73558
425.515	6239.83872
425.729	6545.62109
425.943	6472.72133
426.157	6188.38492
426.371	6339.51082
426.585	6513.48182
426.799	6318.44594
427.013	6713.98031
427.226	6655.21086
427.44	6426.35638
427.654	6757.37994
427.868	7020.51143
428.081	6255.02464
428.295	6564.7246
428.509	6458.06451
428.723	6471.34926
428.936	6325.16671
429.15	6488.64306
429.364	6987.99458
429.577	6156.98519
429.791	6252.40186
430.005	6815.93321
430.218	6648.18553
430.432	6267.21075
430.645	6256.54204
430.859	6559.57024
431.073	6687.03846
431.286	6448.05069
431.5	6577.92714
431.713	6544.24434
431.927	6559.04901
432.14	6518.51122
432.354	6211.48382
432.567	6570.84701
432.781	6521.3747
432.994	6623.51694
433.207	6449.28985
433.421	6789.21845
433.634	6962.26195
433.848	7366.02163
434.061	6593.93143
434.274	6641.55658
434.488	6629.41186
434.701	7156.88495
434.914	6661.15526
435.127	7047.97817
435.341	7288.49084
435.554	6745.67553
435.767	7008.16277
435.98	7033.27418
436.194	6955.48269
436.407	6695.53807
436.62	7350.67582
436.833	7474.82892
437.046	7230.51234
437.259	7115.70018
437.473	7497.42194
437.686	7653.50414
437.899	7703.46055
438.112	7770.70383
438.325	7097.89076
438.538	7631.70687
438.751	8124.71105
438.964	7286.36237
439.177	7999.98868
439.39	7906.96486
439.603	8456.95175
439.816	8007.34671
440.029	8095.92651
440.242	8952.41494
440.455	8970.99572
440.668	8459.63659
440.881	7965.95194
441.094	8372.80569
441.306	8704.70041
441.519	9061.26635
441.732	8839.04284
441.945	9267.44318
442.158	8763.36651
442.37	8766.11619
442.583	9042.30787
442.796	9367.41481
443.009	9450.44755
443.222	9116.77827
443.434	8875.8345
443.647	9379.85346
443.86	9980.66005
444.072	10459.57096
444.285	9671.50643
444.498	10248.06053
444.71	9694.62913
444.923	9775.52759
445.136	9369.80902
445.348	9570.84303
445.561	9324.4276
445.773	9799.9902
445.986	9315.61504
446.198	10101.90644
446.411	10013.49571
446.623	10214.39082
446.836	9753.53113
447.048	10334.27851
447.261	10687.63957
447.473	10493.34717
447.686	10139.72086
447.898	10671.90931
448.11	11210.09737
448.323	16165.24663
448.535	10748.03948
448.748	10557.05128
448.96	10597.27233
449.172	10766.08037
449.385	10172.97263
449.597	10906.44373
449.809	10875.6401
450.021	10945.15449
450.234	11166.28978
450.446	10864.59938
450.658	10773.15798
450.87	10636.43075
451.083	11236.28636
451.295	11113.18299
451.507	10860.36328
451.719	10842.88071
451.931	11217.49078
452.143	11324.13522
452.356	10918.57846
452.568	10987.65712
452.78	11336.41306
452.992	11269.21493
453.204	11978.10086
453.416	11025.47653
453.628	10892.43262
453.84	11532.06481
454.052	11431.93225
454.264	11671.8561
454.476	11397.2483
454.688	12120.08536
454.9	12298.77238
455.112	11325.48014
455.324	11127.12053
455.536	11869.46658
455.747	11994.52857
455.959	11789.84971
456.171	11852.98252
456.383	11414.15625
456.595	11761.24275
456.807	11128.29719
457.018	11045.11578
457.23	11938.63114
457.442	11614.17356
457.654	11860.8635
457.865	11732.44469
458.077	12196.55238
458.289	11365.37561
458.501	11533.42699
458.712	11882.66503
458.924	12949.70042
459.136	11876.85431
459.347	11418.78975
459.559	11560.31116
459.77	12516.21562
459.982	12435.41931
460.194	12180.81175
460.405	11584.21743
460.617	12285.4632
460.828	12548.4368
461.04	12293.16477
461.251	11923.53879
461.463	13560.04506
461.674	13078.87068
461.886	12345.07464
462.097	12178.75863
462.309	12777.2166
462.52	12407.18665
462.731	13253.84617
462.943	12655.57353
463.154	12391.92162
463.366	12674.79131
463.577	12917.15048
463.788	13029.02824
464	13559.53342
464.211	13399.31867
464.422	14092.48863
464.634	13805.08111
464.845	13924.55628
465.056	14030.46422
465.267	13791.44983
465.478	12969.03738
465.69	14154.13288
465.901	13758.50014
466.112	13527.8683
466.323	13788.90653
466.534	14415.47985
466.745	14973.08272
466.957	14385.91338
467.168	14239.68771
467.379	14512.48331
467.59	13839.31712
467.801	13766.92907
468.012	14036.92128
468.223	14423.36033
468.434	14248.98487
468.645	14672.31928
468.856	15003.2895
469.067	15124.99638
469.278	15323.69595
469.489	14788.05481
469.7	14295.17858
469.911	14871.35074
470.122	15617.3959
470.333	15716.55683
470.543	14464.89961
470.754	15560.11412
470.965	15788.1891
471.176	15637.26265
471.387	15738.58456
471.598	15628.36578
471.808	15375.77398
472.019	15420.04428
472.23	15737.72679
472.441	15784.40699
472.651	16163.6812
472.862	15702.86527
473.073	16256.42378
473.283	16429.8056
473.494	16265.79117
473.705	15793.7671
473.915	16437.89594
474.126	17464.05486
474.337	16646.96968
474.547	16829.73808
474.758	17044.14622
474.968	17398.34803
475.179	17484.95438
475.389	17489.93186
475.6	17333.20878
475.81	18234.2449
476.021	18090.41193
476.231	18269.38559
476.442	17942.47234
476.652	18018.93467
476.863	18052.44071
477.073	17623.35174
477.284	18115.57655
477.494	18543.81097
477.704	19201.31077
477.915	19627.42274
478.125	18574.14578
478.335	19353.13909
478.546	20276.42205
478.756	19260.29083
478.966	19457.95136
479.177	19894.19074
479.387	20562.04091
479.597	20216.67215
479.807	19994.21396
480.018	20267.75734
480.228	20551.84882
480.438	20515.96185
480.648	20817.55579
480.858	21661.27081
481.068	20734.40848
481.279	21462.15226
481.489	22187.07377
481.699	21858.81098
481.909	21684.69506
482.119	22848.79507
482.329	22670.62311
482.539	22956.42559
482.749	22732.22299
482.959	22896.73337
483.169	23641.57756
483.379	23439.11886
483.589	24043.9802
483.799	23606.74414
484.009	23377.02777
484.219	23926.82153
484.429	24544.47799
484.639	23803.8216
484.849	24088.07636
485.059	24863.30786
485.268	25169.70322
485.478	25061.42204
485.688	24852.97399
485.898	25325.25199
486.108	25382.91498
486.317	25754.98162
486.527	25529.57491
486.737	26486.20611
486.947	26182.64831
487.156	26397.92029
487.366	26028.17057
487.576	25739.43462
487.785	25786.44209
487.995	26004.9424
488.205	26289.58659
488.414	26301.91391
488.624	26174.23009
488.834	26046.34119
489.043	25868.19165
489.253	26157.43677
489.462	26682.47312
489.672	26654.74702
489.882	26958.2951
490.091	27034.53322
490.301	26996.25501
490.51	27130.21358
490.72	27453.96385
490.929	27509.67027
491.138	27856.1889
491.348	27459.27719
491.557	27376.32713
491.767	28258.49625
491.976	27618.06215
492.185	27396.76629
492.395	27563.98463
492.604	28310.24249
492.813	28102.74009
493.023	28356.48936
493.232	27996.08315
493.441	28164.01537
493.651	28685.70501
493.86	28063.33986
494.069	28332.79014
494.278	28832.30887
494.488	28761.84498
494.697	28931.21526
494.906	28431.80302
495.115	29179.41976
495.324	28980.55435
495.533	29273.34901
495.743	29656.96542
495.952	30281.54807
496.161	30096.24041
496.37	30271.96955
496.579	30482.73534
496.788	30745.32746
496.997	31077.58768
497.206	30465.07711
497.415	30689.79614
497.624	30849.5484
497.833	31141.89836
498.042	31263.1749
498.251	31607.51969
498.46	31480.2884
498.669	31507.50441
498.878	31340.4394
499.087	31210.86788
499.296	31813.99079
499.504	31816.41094
499.713	31535.30041
499.922	31643.80199
500.131	32015.86349
500.34	32181.74786
500.549	31894.1887
500.757	31659.18886
500.966	31953.18538
501.175	32069.10754
501.384	32268.94086
501.592	32089.22158
501.801	32626.72656
502.01	32282.55874
502.218	32277.8372
502.427	32439.71485
502.636	32499.78582
502.844	32437.70745
503.053	32412.82652
503.262	32363.57636
503.47	32641.72896
503.679	32436.13661
503.887	32489.87805
504.096	32288.87856
504.304	32359.85233
504.513	32627.10612
504.721	32594.72001
504.93	32301.55713
505.138	32764.90662
505.347	32647.24612
505.555	32355.97961
505.764	32430.05278
505.972	32689.98557
506.18	32496.65812
506.389	32410.97881
506.597	32269.8189
506.806	32403.21661
507.014	32609.1319
507.222	32518.84782
507.431	32474.91495
507.639	32384.45911
507.847	32778.17498
508.055	32767.65142
508.264	32821.74431
508.472	33039.05941
508.68	32741.62459
508.888	32928.13932
509.096	32700.67561
509.305	33027.11927
509.513	32853.79705
509.721	32923.53399
509.929	32953.76419
510.137	33019.94434
510.345	33021.15132
510.553	32825.00538
510.762	32905.08725
510.97	33023.25105
511.178	33053.24438
511.386	33552.98803
511.594	33167.36892
511.802	33485.56677
512.01	33276.66775
512.218	33325.06257
512.426	33427.88908
512.634	33713.06308
512.842	33562.20062
513.049	33621.52829
513.257	33580.92764
513.465	33613.70085
513.673	33660.9301
513.881	33684.85458
514.089	33688.00179
514.297	33865.20194
514.504	33724.51704
514.712	33828.75394
514.92	33780.95137
515.128	33853.32629
515.336	33850.43076
515.543	33908.81962
515.751	33890.08677
515.959	33948.03059
516.166	33746.89887
516.374	33913.08392
516.582	33884.36489
516.789	33894.45649
516.997	33972.85735
517.205	33914.39305
517.412	33907.09182
517.62	33987.3181
517.827	34016.35107
518.035	33885.48032
518.243	33936.73265
518.45	33935.81413
518.658	33738.80764
518.865	33721.32339
519.073	33715.58906
519.28	33936.75324
519.488	33726.72719
519.695	33613.39072
519.902	33531.3739
520.11	33648.2774
520.317	33646.839
520.525	33656.39698
520.732	33510.63875
520.939	33672.56773
521.147	33348.40406
521.354	33618.4122
521.561	33350.34675
521.769	33500.35708
521.976	33403.36472
522.183	33492.45052
522.391	33269.7492
522.598	33446.96466
522.805	33503.1703
523.012	33496.4472
523.219	33579.05434
523.427	33563.19623
523.634	33615.7667
523.841	33655.00094
524.048	33564.72586
524.255	33658.58777
524.462	33670.15407
524.669	33645.83448
524.877	33850.55087
525.084	33787.72535
525.291	33627.5623
525.498	33698.9293
525.705	33695.62881
525.912	33847.20484
526.119	33809.60222
526.326	33888.64363
526.533	33882.13722
526.74	34059.01713
526.947	34068.98868
527.153	34114.53708
527.36	34143.00985
527.567	34206.94813
527.774	34236.98554
527.981	34217.39521
528.188	34303.50698
528.395	34289.83563
528.602	34245.20004
528.808	34321.62884
529.015	34188.60123
529.222	34415.42969
529.429	34288.52105
529.635	34405.43561
529.842	34384.90602
530.049	34427.18504
530.256	34416.13087
530.462	34532.80501
530.669	34417.92919
530.876	34480.15535
531.082	34406.74407
531.289	34490.6737
531.495	34402.40708
531.702	34521.83901
531.909	34444.2725
532.115	34581.41302
532.322	34492.14049
532.528	34612.77055
532.735	34572.15498
532.941	34581.95098
533.148	34572.85803
533.354	34592.57535
533.561	34571.42829
533.767	34557.05453
533.974	34523.38623
534.18	34544.96319
534.387	34472.66733
534.593	34627.88115
534.799	34532.23189
535.006	34623.52088
535.212	34592.17975
535.418	34557.90226
535.625	34648.51885
535.831	34605.70208
536.037	34562.0455
536.244	34631.18512
536.45	34534.84124
536.656	34604.27516
536.862	34562.34079
537.068	34701.02308
537.275	34620.19672
537.481	34633.35842
537.687	34643.18377
537.893	34724.27001
538.099	34754.33534
538.305	34757.39374
538.512	34722.38997
538.718	34840.48268
538.924	34784.66569
539.13	34755.52566
539.336	34831.68851
539.542	34840.60173
539.748	34825.15321
539.954	34842.74103
540.16	34767.29774
540.366	34793.91933
540.572	34826.34143
540.778	34823.85268
540.984	34863.19397
541.19	34778.81376
541.396	34836.26433
541.602	34763.25212
541.807	34824.04138
542.013	34735.38531
542.219	34708.64612
542.425	34710.96497
542.631	34686.48798
542.837	34721.65673
543.042	34586.86358
543.248	34762.9614
543.454	34663.15294
543.66	34730.98352
543.865	34704.41502
544.071	34683.10568
544.277	34631.12359
544.483	34739.88122
544.688	34604.58769
544.894	34698.47691
545.1	34642.77026
545.305	34699.62726
545.511	34639.91751
545.716	34700.21239
545.922	34656.66724
546.128	34639.7464
546.333	34617.70029
546.539	34706.76673
546.744	34561.8656
546.95	34661.78382
547.155	34546.4866
547.361	34628.62898
547.566	34488.45986
547.772	34609.51923
547.977	34524.29192
548.182	34661.01349
548.388	34472.61741
548.593	34593.94292
548.799	34575.05239
549.004	34559.31165
549.209	34594.30114
549.415	34581.46823
549.62	34557.65159
549.825	34570.00505
550.031	34573.4046
550.236	34566.26661
550.441	34574.45748
550.646	34628.27501
550.852	34627.73785
551.057	34686.56966
551.262	34665.28235
551.467	34619.62548
551.672	34695.04368
551.878	34727.83795
552.083	34698.40025
552.288	34720.05299
552.493	34669.14515
552.698	34753.63191
552.903	34639.56274
553.108	34691.8172
553.313	34565.98608
553.518	34797.18077
553.723	34725.8181
553.928	34749.99911
554.133	34751.25243
554.338	34748.53767
554.543	34771.45164
554.748	34751.99234
554.953	34771.73902
555.158	34846.45549
555.363	34779.9379
555.568	34760.07278
555.773	34757.90997
555.978	34833.11699
556.182	34821.8869
556.387	34830.55966
556.592	34818.85672
556.797	34885.32087
557.002	34824.97962
557.206	34841.61441
557.411	34819.45685
557.616	34860.80712
557.821	34894.3211
558.025	34854.40999
558.23	34857.01778
558.435	34872.59349
558.64	34872.87685
558.844	34872.43247
559.049	34884.15938
559.253	34975.87497
559.458	34856.11139
559.663	34935.02557
559.867	34845.06403
560.072	34933.65608
560.276	34831.57826
560.481	34856.07611
560.685	34813.53458
560.89	34899.42802
561.094	34769.43421
561.299	34842.7117
561.503	34753.55335
561.708	34808.17824
561.912	34795.38691
562.117	34789.20816
562.321	34766.15936
562.525	34823.73306
562.73	34768.5944
562.934	34734.16293
563.139	34704.55046
563.343	34755.58691
563.547	34691.89476
563.752	34772.21426
563.956	34719.04306
564.16	34698.96373
564.364	34725.2341
564.569	34720.06917
564.773	34679.95781
564.977	34745.77741
565.181	34664.69126
565.385	34694.69089
565.59	34713.04759
565.794	34707.34392
565.998	34695.35993
566.202	34713.11535
566.406	34742.09646
566.61	34643.42068
566.814	34721.26585
567.018	34657.3792
567.222	34625.08958
567.426	34654.76869
567.63	34661.85315
567.834	34667.21649
568.038	34628.56987
568.242	34572.92492
568.446	34603.44435
568.65	34561.87075
568.854	34584.98032
569.058	34583.36858
569.262	34545.81209
569.466	34633.56265
569.67	34605.3448
569.874	34631.36135
570.078	34574.52914
570.281	34694.43759
570.485	34633.80149
570.689	34640.15416
570.893	34578.91632
571.097	34655.71611
571.3	34505.97697
571.504	34597.87204
571.708	34481.3927
571.912	34538.17824
572.115	34461.91812
572.319	34414.24808
572.523	34489.10931
572.726	34443.08783
572.93	34444.17592
573.133	34498.19833
573.337	34388.63601
573.541	34506.04833
573.744	34338.51779
573.948	34455.56988
574.151	34350.21297
574.355	34411.08343
574.558	34299.51845
574.762	34357.46309
574.965	34237.47274
575.169	34309.77582
575.372	34185.5831
575.576	34350.15814
575.779	34202.73048
575.983	34335.24824
576.186	34214.12938
576.389	34345.8816
576.593	34208.84525
576.796	34234.51792
577	34148.54495
577.203	34313.27946
577.406	34163.61401
577.609	34258.42212
577.813	34116.47566
578.016	34122.37587
578.219	34159.46735
578.423	34146.8734
578.626	34091.67897
578.829	34147.07949
579.032	34077.33407
579.235	34189.97204
579.438	34137.5614
579.642	34183.43943
579.845	34123.82683
580.048	34091.20927
580.251	33924.53544
580.454	34162.11704
580.657	34025.85086
580.86	34257.15531
581.063	33949.34851
581.266	34125.45506
581.469	34020.71101
581.672	34062.04677
581.875	34108.83024
582.078	34098.96536
582.281	34013.2549
582.484	34020.92559
582.687	34109.63761
582.89	34057.20025
583.093	34150.90973
583.296	34067.44652
583.499	34154.71931
583.702	34014.65742
583.904	34035.87616
584.107	34039.07467
584.31	34088.70097
584.513	34122.89044
584.716	34041.03194
584.918	34124.61653
585.121	34106.62148
585.324	34045.54303
585.527	34045.60283
585.729	34101.47729
585.932	34039.69933
586.135	34142.661
586.337	34075.72306
586.54	34162.26322
586.743	34032.78433
586.945	34018.13372
587.148	34065.37346
587.35	34116.54376
587.553	34016.69704
587.755	34066.21065
587.958	34033.22524
588.161	34024.17795
588.363	33997.67183
588.566	34038.10426
588.768	34040.36348
588.971	34028.98464
589.173	34015.92544
589.375	34000.08189
589.578	33928.5635
589.78	33944.35294
589.983	33841.21141
590.185	33914.14313
590.387	33722.6489
590.59	33813.75696
590.792	33504.95204
590.994	33498.96466
591.197	33222.21827
591.399	33365.80985
591.601	33081.86698
591.803	32884.76057
592.006	32698.50049
592.208	32965.4082
592.41	32955.17119
592.612	32687.57682
592.815	32643.53823
593.017	32869.57925
593.219	32364.92107
593.421	32269.86909
593.623	32238.77764
593.825	32373.47004
594.027	32116.69759
594.229	31856.58355
594.432	31697.55131
594.634	31962.02322
594.836	31860.57442
595.038	31984.37804
595.24	31480.74358
595.442	31726.70754
595.644	31441.69193
595.846	31226.17307
596.048	31304.27486
596.249	31341.04666
596.451	31123.40084
596.653	31008.86548
596.855	30793.74718
597.057	31240.03881
597.259	31419.79884
597.461	30873.93049
597.663	30805.21892
597.864	31042.65442
598.066	30793.31336
598.268	30864.04963
598.47	30795.30118
598.671	30770.94608
598.873	30716.4806
599.075	30577.60758
599.277	31037.56608
599.478	30877.54719
599.68	31077.85724
599.882	30960.3061
600.083	30897.56915
600.285	31478.31638
600.487	30936.31171
600.688	31274.8119
600.89	31064.45098
601.091	31451.99703
601.293	31105.4866
601.494	31066.27696
601.696	31022.39568
601.898	31573.5462
602.099	31756.00722
602.301	31492.84149
602.502	31476.6793
602.703	31773.46962
602.905	31547.10891
603.106	31591.27424
603.308	31442.96727
603.509	31684.20345
603.711	31377.78471
603.912	31600.99436
604.113	31431.83636
604.315	31659.57947
604.516	31938.84772
604.717	31699.5451
604.919	31836.67775
605.12	31810.73883
605.321	31959.39786
605.522	31798.01954
605.724	31921.14857
605.925	31890.58261
606.126	32152.42954
606.327	32129.2622
606.528	32190.63761
606.729	32203.26347
606.931	32395.13551
607.132	32247.63359
607.333	32150.34354
607.534	32332.38911
607.735	32311.74755
607.936	32134.3451
608.137	32530.52495
608.338	32351.71279
608.539	32528.47052
608.74	32437.2717
608.941	32289.09119
609.142	32534.86215
609.343	32363.65081
609.544	32542.19439
609.745	32159.27125
609.946	32651.95371
610.147	32481.25535
610.348	32478.25594
610.549	32359.52336
610.75	32621.03025
610.95	32365.08504
611.151	32523.27609
611.352	32385.39295
611.553	32624.40912
611.754	32312.43481
611.954	32556.73732
612.155	32103.79381
612.356	32625.93036
612.557	32497.54326
612.757	32376.43703
612.958	32252.82255
613.159	32434.37181
613.359	32448.7535
613.56	32229.82433
613.761	32537.7774
613.961	32347.19364
614.162	32077.9679
614.362	32202.80101
614.563	32144.71961
614.764	32318.15209
614.964	32007.95944
615.165	32091.56394
615.365	31915.96705
615.566	32239.21087
615.766	32110.86022
615.967	32194.32434
616.167	31620.70451
616.368	32033.52084
616.568	32344.65862
616.768	31704.24773
616.969	31894.38636
617.169	32129.00616
617.37	31700.22352
617.57	31756.702
617.77	31321.29511
617.971	31664.69035
618.171	31614.74203
618.371	31679.69596
618.571	31499.94195
618.772	31672.53012
618.972	31561.53356
619.172	31374.78836
619.372	31284.39887
619.573	31616.94743
619.773	31614.56347
619.973	31096.69737
620.173	31291.46458
620.373	31457.13704
620.573	31269.86118
620.774	31260.60148
620.974	31179.95193
621.174	31517.60082
621.374	31391.07026
621.574	31327.7855
621.774	31278.15191
621.974	31302.11073
622.174	31041.54105
622.374	31480.30651
622.574	31126.13709
622.774	31096.83836
622.974	31168.78234
623.174	31285.2431
623.374	31192.83019
623.574	31424.03327
623.774	31133.0916
623.973	31250.68435
624.173	31214.00897
624.373	31655.82329
624.573	31026.10943
624.773	31533.08801
624.973	30895.79321
625.172	31302.40672
625.372	30963.5436
625.572	31152.65436
625.772	31169.58318
625.971	30764.00643
626.171	30968.9914
626.371	31218.35119
626.57	30497.09944
626.77	31257.38621
626.97	31231.02877
627.169	30734.3549
627.369	30616.83857
627.569	31220.31023
627.768	30617.31145
627.968	30728.76104
628.167	30517.16285
628.367	30971.83811
628.566	30551.9227
628.766	30611.71237
628.965	30500.15343
629.165	31028.92556
629.364	30667.72537
629.564	30592.76008
629.763	30257.11695
629.963	30758.63462
630.162	30493.10393
630.362	30261.34539
630.561	30284.67356
630.76	30217.57463
630.96	30026.22848
631.159	30145.58072
631.358	30059.70659
631.558	30164.80261
631.757	30193.82935
631.956	29963.58317
632.155	29914.39777
632.355	29932.53216
632.554	29667.3946
632.753	29840.81945
632.952	29615.15986
633.152	29612.02166
633.351	29633.73239
633.55	29599.37872
633.749	29150.27829
633.948	29992.82734
634.147	29214.89797
634.346	29229.81229
634.545	29075.08328
634.744	29302.0967
634.944	29290.41624
635.143	29212.08778
635.342	29421.74677
635.541	29330.14347
635.74	29245.67868
635.939	28902.84907
636.138	29110.07659
636.336	29523.00517
636.535	28818.24956
636.734	29064.41201
636.933	29050.88588
637.132	29314.26371
637.331	29029.17554
637.53	29501.76903
637.729	28916.41825
637.928	29366.37346
638.126	29108.63146
638.325	28955.87512
638.524	29102.88239
638.723	29160.22869
638.921	29573.08713
639.12	29233.92585
639.319	29020.04961
639.518	28997.03631
639.716	29110.32208
639.915	28713.54994
640.114	29108.73681
640.312	29297.36056
640.511	29376.3074
640.71	29366.89357
640.908	28908.75713
641.107	29315.53194
641.305	29162.09498
641.504	29035.8354
641.702	28800.82928
641.901	29483.43801
642.099	29069.49063
642.298	28944.41425
642.496	29187.32102
642.695	28923.05575
642.893	28555.0557
643.092	29030.76648
643.29	29042.4957
643.489	28737.72206
643.687	28862.80981
643.885	28653.05227
644.084	28631.49279
644.282	29143.41413
644.48	29072.07021
644.679	29062.81454
644.877	28774.26383
645.075	29091.67009
645.274	28612.51795
645.472	28709.5394
645.67	28782.22568
645.868	28508.35933
646.067	28661.83946
646.265	28628.2162
646.463	28410.96646
646.661	28470.81739
646.859	28728.89702
647.057	28405.31481
647.256	28212.92705
647.454	28551.26202
647.652	28302.76555
647.85	28220.58349
648.048	28093.45141
648.246	28128.60139
648.444	27596.22324
648.642	27933.21814
648.84	27580.41764
649.038	27898.46539
649.236	28060.0746
649.434	27429.37548
649.632	27303.3073
649.83	27650.95635
650.028	27376.14019
650.226	27408.68965
650.423	26882.51085
650.621	27244.60183
650.819	26970.5413
651.017	26620.02204
651.215	26627.21055
651.413	26952.98134
651.61	26619.50804
651.808	26471.42138
652.006	26210.97231
652.204	26752.70484
652.401	26496.3841
652.599	26398.44577
652.797	26194.20174
652.995	26232.03324
653.192	26063.52918
653.39	26111.78905
653.588	25981.06513
653.785	26045.08987
653.983	25627.23586
654.18	25766.00611
654.378	25477.17562
654.576	25913.56716
654.773	25761.63801
654.971	26139.62417
655.168	25434.80714
655.366	25926.64924
655.563	25692.17091
655.761	25186.51813
655.958	25189.78016
656.156	25514.05929
656.353	25359.84601
656.55	25213.44078
656.748	25675.00387
656.945	25245.82037
657.143	25141.26895
657.34	24967.77723
657.537	25086.47195
657.735	24994.12816
657.932	24849.60981
658.129	24685.55956
658.326	24093.79048
658.524	24840.70346
658.721	24322.77892
658.918	24482.15502
659.115	24035.33848
659.313	24646.56865
659.51	24427.14434
659.707	24417.88488
659.904	24098.09583
660.101	24621.17874
660.298	24278.50574
660.496	24383.91512
660.693	24574.63771
660.89	24294.64921
661.087	24257.22467
661.284	24083.94758
661.481	23980.45186
661.678	24549.82669
661.875	24301.08064
662.072	24349.46496
662.269	23921.83512
662.466	24457.71778
662.663	23903.89607
662.86	23805.92517
663.057	24112.00244
663.254	24254.59807
663.45	24320.89182
663.647	24106.80088
663.844	23966.30506
664.041	23969.30323
664.238	24189.56346
664.435	24012.16922
664.631	23831.89906
664.828	24167.26489
665.025	24051.03476
665.222	23965.32878
665.419	24073.41162
665.615	24381.16384
665.812	24344.9495
666.009	24150.97034
666.205	24490.181
666.402	24511.03038
666.599	24333.1834
666.795	24430.7904
666.992	24653.244
667.188	24724.01427
667.385	24538.42732
667.582	24902.26626
667.778	24620.1234
667.975	24887.18883
668.171	24949.89902
668.368	24688.81625
668.564	24887.942
668.761	25172.48001
668.957	24801.59501
669.154	24817.90655
669.35	24660.63058
669.547	24840.24793
669.743	25031.71152
669.939	24717.62271
670.136	24516.15347
670.332	25040.09821
670.528	24511.86515
670.725	24451.74017
670.921	24761.23926
671.117	24869.28242
671.314	24561.47899
671.51	24442.30341
671.706	24604.51848
671.902	24777.78
672.099	24809.6169
672.295	24314.8641
672.491	24538.0567
672.687	24549.21186
672.883	24527.52119
673.08	24655.96931
673.276	24300.72552
673.472	24714.74821
673.668	24629.91213
673.864	24277.77965
674.06	24031.96217
674.256	24512.16045
674.452	24474.50866
674.648	24062.28565
674.844	24056.01813
675.04	24474.63253
675.236	24076.26075
675.432	24152.34941
675.628	23742.65388
675.824	24462.88068
676.02	23985.96414
676.216	24080.94998
676.412	24091.98804
676.608	24089.97466
676.804	23840.00199
676.999	24301.17618
677.195	23406.69673
677.391	23848.46326
677.587	23659.60057
677.783	23522.68935
677.978	23542.46676
678.174	23989.61136
678.37	23989.71728
678.566	23622.38928
678.761	23516.81472
678.957	23798.31623
679.153	23582.55334
679.348	23341.88528
679.544	23382.12398
679.74	23652.61425
679.935	23711.46323
680.131	23491.77607
680.327	23312.99718
680.522	23410.73277
680.718	23296.07981
680.913	23127.26801
681.109	23175.09647
681.304	23347.68297
681.5	23183.73467
681.695	23196.50782
681.891	22986.12011
682.086	23227.07459
682.282	23195.16512
682.477	28857.1346
682.672	22856.73616
682.868	23137.51614
683.063	23102.06729
683.259	23500.75387
683.454	23147.52139
683.649	22988.85753
683.845	22811.44741
684.04	23040.84495
684.235	22717.8215
684.43	22885.31025
684.626	22736.23167
684.821	22956.27895
685.016	22592.5447
685.211	23721.46781
685.407	22746.76802
685.602	22527.26848
685.797	22448.7179
685.992	22320.26448
686.187	22648.69015
686.382	22590.94818
686.577	22236.20755
686.773	22370.86358
686.968	22281.57979
687.163	22345.87274
687.358	21975.33437
687.553	22450.53626
687.748	22525.04526
687.943	22314.25463
688.138	22092.32562
688.333	22204.10056
688.528	22201.38629
688.723	21643.54803
688.918	21706.97001
689.112	21415.74167
689.307	21507.81676
689.502	20820.10616
689.697	20992.84455
689.892	21343.71604
690.087	21040.1449
690.282	20692.38824
690.476	20495.75892
690.671	20812.73774
690.866	20177.12271
691.061	20362.95226
691.255	19963.84876
691.45	20276.40685
691.645	19943.29641
691.84	19978.98115
692.034	19693.00744
692.229	20231.72582
692.424	19375.11048
692.618	19535.14046
692.813	19332.48015
693.007	19644.32522
693.202	19276.3885
693.397	19164.14435
693.591	19101.57253
693.786	19097.65871
693.98	18832.46248
694.175	18873.17074
694.369	18604.249
694.564	18836.88998
694.758	18742.23001
694.953	18798.06066
695.147	18505.30132
695.342	18582.39823
695.536	18402.87733
695.73	18139.57575
695.925	17835.03516
696.119	18060.3139
696.313	17797.78478
696.508	17548.15019
696.702	17605.6195
696.896	17814.36485
697.091	17931.31111
697.285	17702.24768
697.479	17438.82749
697.673	17905.39819
697.868	17751.03365
698.062	18029.39365
698.256	17431.59405
698.45	18020.93177
698.644	17935.43558
698.839	17901.84263
699.033	17886.00529
699.227	18199.41806
699.421	17924.02539
699.615	18016.62463
699.809	17922.3248
700.003	18130.94427
700.197	18091.90698
700.391	18222.65857
700.585	17898.96873
700.779	18392.64118
700.973	18344.52493
701.167	17684.80683
701.361	18100.24573
701.555	18123.77619
701.749	17618.2241
701.943	17594.96299
702.137	17916.30005
702.331	17855.51468
702.525	17844.67198
702.718	17520.5797
702.912	17233.80716
703.106	18033.55901
703.3	17350.57886
703.494	17387.62851
703.687	17496.56929
703.881	17623.74909
704.075	17729.24611
704.269	17598.55203
704.462	17555.53089
704.656	17554.86257
704.85	17558.99643
705.043	17374.10577
705.237	17417.80516
705.431	17516.67452
705.624	17386.24206
705.818	17215.6297
706.012	17562.32722
706.205	17690.79
706.399	17629.16448
706.592	17586.84731
706.786	17602.60329
706.979	17592.50059
707.173	17360.00391
707.366	17343.62155
707.56	17188.96999
707.753	17322.85179
707.947	17209.02644
708.14	17018.89579
708.333	16832.24357
708.527	17225.88217
708.72	16963.92798
708.914	17127.05452
709.107	16861.4801
709.3	17166.17109
709.494	17114.54007
709.687	16902.58346
709.88	17031.73838
710.073	17257.25403
710.267	17235.7487
710.46	17042.20406
710.653	16993.52851
710.846	17352.98774
711.04	17416.99538
711.233	17083.68745
711.426	17306.43789
711.619	17534.64012
711.812	17601.03741
712.005	17300.18741
712.198	17010.79532
712.391	17523.23056
712.585	17498.05907
712.778	17152.66131
712.971	17324.19508
713.164	17317.93119
713.357	17375.55344
713.55	17235.8595
713.743	17219.65343
713.936	17606.43458
714.129	17563.95327
714.322	17277.10624
714.514	17315.47511
714.707	17104.3446
714.9	17216.52898
715.093	16974.00745
715.286	17103.42981
715.479	17381.80458
715.672	17604.81921
715.864	17101.92744
716.057	16955.32925
716.25	17164.33522
716.443	17417.08917
716.636	16934.12448
716.828	16794.17189
717.021	17077.06907
717.214	16977.89246
717.406	17240.6865
717.599	16960.47155
717.792	22253.37257
717.984	16828.02059
718.177	16690.45268
718.37	16524.35436
718.562	16649.43822
718.755	16673.45165
718.947	16289.07155
719.14	15944.20139
719.333	16256.61832
719.525	15757.7953
719.718	15581.76615
719.91	15388.34047
720.103	15087.77464
720.295	15149.19802
720.487	14945.8885
720.68	14629.71266
720.872	14512.67721
721.065	14300.82236
721.257	14034.22511
721.449	13592.29585
721.642	13660.9585
721.834	13661.09323
722.026	13336.70107
722.219	13216.1092
722.411	12922.2931
722.603	13070.91092
722.796	13044.2203
722.988	12667.98122
723.18	12960.0348
723.372	12463.39041
723.565	12082.37693
723.757	12221.69721
723.949	12357.70891
724.141	12060.90004
724.333	12125.34975
724.525	11938.70642
724.717	11922.14705
724.91	11900.79856
725.102	11786.52578
725.294	11407.9183
725.486	11342.77985
725.678	11146.86611
725.87	10885.07844
726.062	10924.2929
726.254	11076.53874
726.446	10923.65018
726.638	10835.30389
726.83	10507.94874
727.022	10691.52211
727.213	10727.93583
727.405	10842.74335
727.597	10634.03387
727.789	11174.66691
727.981	10642.12835
728.173	10681.23914
728.365	10446.2611
728.556	10830.34834
728.748	10796.33901
728.94	10708.91762
729.132	10577.37322
729.324	10936.12868
729.515	10863.15546
729.707	10501.89964
729.899	10875.94185
730.09	11186.88442
730.282	10869.5483
730.474	11030.92415
730.665	10680.11843
730.857	11066.47101
731.049	10866.3228
731.24	10840.21112
731.432	10912.26496
731.623	10805.09685
731.815	10787.44978
732.006	10640.62202
732.198	10533.45844
732.389	10764.91567
732.581	10591.00963
732.772	10221.33305
732.964	10174.15939
733.155	10299.93673
733.347	10587.2201
733.538	10255.4466
733.729	10286.32658
733.921	10513.04345
734.112	10469.45006
734.304	10457.35768
734.495	10408.54648
734.686	10498.16884
734.877	10629.2007
735.069	10661.56982
735.26	10647.97478
735.451	10960.87553
735.643	10981.26558
735.834	11046.57558
736.025	10844.0733
736.216	11244.89543
736.407	11003.86116
736.599	11274.44678
736.79	10899.51164
736.981	11138.66085
737.172	11599.5412
737.363	11162.93484
737.554	11231.25766
737.745	11386.10013
737.936	11411.33939
738.127	11397.29692
738.318	11096.47422
738.509	11793.33157
738.7	11705.15023
738.891	11495.20354
739.082	11369.6668
739.273	11861.32126
739.464	12142.57604
739.655	11670.91813
739.846	11622.45608
740.037	12033.52805
740.228	12013.51397
740.419	12099.0704
740.609	12425.72833
740.8	12350.06227
740.991	12357.11247
741.182	12178.3753
741.373	12319.59284
741.563	12788.54327
741.754	12449.64274
741.945	12259.33296
742.136	12323.79054
742.326	12726.45553
742.517	12697.71345
742.708	12727.76304
742.898	12547.99013
743.089	12868.99773
743.28	12660.13023
743.47	12900.9653
743.661	12360.13955
743.851	12587.78405
744.042	12733.52338
744.233	12779.20196
744.423	12659.90551
744.614	12761.10726
744.804	12952.81207
744.995	12370.52647
745.185	12503.23115
745.376	12725.07076
745.566	12740.35247
745.756	12727.50511
745.947	12689.50189
746.137	12858.9474
746.328	12688.48132
746.518	12573.72501
746.708	12546.96209
746.899	12855.65663
747.089	13175.58877
747.279	12505.34309
747.47	12715.77853
747.66	13002.44335
747.85	12811.28331
748.04	12560.29117
748.231	13114.74316
748.421	12941.2491
748.611	12761.19822
748.801	12462.77849
748.991	12524.01971
749.182	13207.47338
749.372	13119.08864
749.562	12857.40748
749.752	12713.36449
749.942	12776.86902
750.132	12788.99317
750.322	12655.98343
750.512	12663.22144
750.702	12966.12832
750.892	12800.04844
751.082	12681.2243
751.272	12436.38723
751.462	12862.87898
751.652	12640.45937
751.842	12938.80968
752.032	12300.48359
752.222	12686.18714
752.412	12769.05737
752.602	12659.32555
752.792	12412.51546
752.981	12564.30498
753.171	12382.33152
753.361	12376.48594
753.551	12174.54403
753.741	12570.13486
753.93	12542.71868
754.12	12549.83854
754.31	12366.38423
754.5	12560.87682
754.689	12351.57488
754.879	12105.81713
755.069	12039.79423
755.258	12345.78581
755.448	12301.05146
755.638	12335.22367
755.827	12027.43833
756.017	12514.99717
756.206	12416.03752
756.396	12174.14108
756.586	11869.38478
756.775	12234.72295
756.965	12181.80533
757.154	12242.16266
757.344	12002.97574
757.533	12131.02746
757.723	12392.49405
757.912	11798.15361
758.101	11899.66967
758.291	12376.24065
758.48	11759.66952
758.67	11854.08631
758.859	11795.72816
759.048	12008.58455
759.238	12008.36758
759.427	11638.62835
759.616	11736.75383
759.806	11982.189
759.995	11886.39925
760.184	11773.27755
760.373	11687.0604
760.563	11689.1437
760.752	11484.7294
760.941	11653.20092
761.13	11280.22644
761.319	11404.21387
761.509	11038.26139
761.698	10615.83143
761.887	10487.70666
762.076	10490.75042
762.265	10279.39972
762.454	10066.26636
762.643	9736.5938
762.832	9589.0124
763.021	9547.7865
763.21	9266.54935
763.399	9245.41535
763.588	9626.38649
763.777	9063.89051
763.966	8739.92605
764.155	8304.95127
764.344	8778.08319
764.533	8280.14599
764.722	8064.88262
764.911	7890.01129
765.1	8062.69946
765.288	7903.16427
765.477	7445.34396
765.666	7153.05196
765.855	7283.5313
766.044	7256.02839
766.232	6832.83239
766.421	6765.37965
766.61	6702.95492
766.799	6379.49142
766.987	6189.55014
767.176	6098.65921
767.365	6480.51509
767.553	6178.72531
767.742	6194.05345
767.931	5840.27945
768.119	6094.98562
768.308	5893.26765
768.497	5823.58607
768.685	5673.23658
768.874	5995.80004
769.062	5612.36776
769.251	5785.35231
769.439	5570.53063
769.628	5890.34101
769.816	6263.46341
770.005	5966.03295
770.193	5999.4581
770.382	6110.79728
770.57	6520.59021
770.758	6534.67681
770.947	6503.44538
771.135	7168.51676
771.323	6975.62826
771.512	7082.08112
771.7	7041.36677
771.888	7584.96565
772.077	7355.45455
772.265	7745.11624
772.453	7414.77426
772.642	8189.3199
772.83	7780.32443
773.018	8498.21344
773.206	7921.11054
773.394	8235.19289
773.583	8208.93695
773.771	8453.65238
773.959	8685.68726
774.147	8528.96708
774.335	8776.64908
774.523	8873.48788
774.711	8966.71291
774.899	8898.04729
775.087	9200.0698
775.275	9244.87324
775.463	8903.6011
775.651	9642.62726
775.839	9327.57885
776.027	9433.11799
776.215	9238.15305
776.403	9572.97593
776.591	9456.79163
776.779	9394.65781
776.967	9556.77995
777.155	9605.98012
777.343	9498.21391
777.531	9414.31597
777.718	9630.00207
777.906	9656.0196
778.094	9780.21457
778.282	9632.39507
778.47	9446.57318
778.657	9896.61455
778.845	9407.08839
779.033	9739.64245
779.22	9548.95067
779.408	9681.18346
779.596	9889.33103
779.783	9339.76191
779.971	9409.84887
780.159	9546.97009
780.346	9611.19059
780.534	9310.9068
780.722	9375.07087
780.909	9674.82262
781.097	9427.92971
781.284	9191.28061
781.472	9268.24841
781.659	9710.80968
781.847	9526.63854
782.034	9491.5397
782.222	9372.68015
782.409	9348.83069
782.597	9382.65279
782.784	9300.7274
782.971	10473.40346
783.159	9410.87387
783.346	9207.83118
783.533	9066.81517
783.721	9267.37003
783.908	9243.74523
784.095	9030.07741
784.283	8895.20624
784.47	9201.34464
784.657	9369.26041
784.844	9101.59005
785.032	9013.91901
785.219	9051.25305
785.406	9294.92446
785.593	9246.22978
785.78	9021.09812
785.968	9082.47432
786.155	9177.07245
786.342	8988.37941
786.529	9034.69514
786.716	8989.58111
786.903	9036.57787
787.09	8737.23451
787.277	8728.5069
787.464	8819.71653
787.651	9075.08119
787.838	8836.11446
788.025	8895.81022
788.212	8571.08767
788.399	8823.05539
788.586	8823.20088
788.773	8671.54804
788.96	8412.04042
789.147	8783.18549
789.334	8332.76104
789.521	8604.47201
789.707	8441.04927
789.894	8536.3431
790.081	8378.85734
790.268	8364.07649
790.455	8347.71108
790.641	9091.77439
790.828	8371.91961
791.015	8416.69104
791.202	8036.95837
791.388	8449.82017
791.575	8303.55642
791.762	8113.64492
791.948	7914.311
792.135	8256.96187
792.322	8100.8102
792.508	8119.13807
792.695	7695.31365
792.881	7886.90456
793.068	8050.3055
793.254	7730.57923
793.441	7771.81504
793.627	7998.34484
793.814	7761.26938
794	7594.97166
794.187	7635.67358
794.373	8014.91149
794.56	7824.19251
794.746	8004.96612
794.933	7703.19999
795.119	7694.43305
795.305	7761.94603
795.492	7443.23054
795.678	7455.53773
795.864	7490.69483
796.051	7488.48411
796.237	7464.42183
796.423	7384.86377
796.61	7572.02916
796.796	7452.00988
796.982	7248.6506
797.168	7418.37278
797.355	7649.58764
797.541	7525.9179
797.727	7521.40419
797.913	7147.8602
798.099	7567.73799
798.285	7153.18137
798.471	7657.50061
798.658	7199.6922
798.844	7316.47831
799.03	7376.04558
799.216	7460.86939
799.402	7220.23463
799.588	7667.56204
799.774	7586.71899
799.96	7478.34448
800.146	7647.70487
800.332	7408.75599
800.518	7268.18464
800.704	7369.63477
800.89	7215.44631
801.075	7349.66714
801.261	7280.04715
801.447	7391.14158
801.633	7164.65179
801.819	7435.11552
802.005	7256.77263
802.19	7361.77034
802.376	7198.56481
802.562	7469.57012
802.748	7641.15934
802.934	7845.00037
803.119	7223.58407
803.305	7128.92119
803.491	7282.28695
803.676	7150.27998
803.862	7173.85952
804.048	7339.35653
804.233	7226.00142
804.419	7261.6835
804.605	7052.96839
804.79	7203.90233
804.976	7281.94951
805.161	7201.20912
805.347	6970.6969
805.532	7121.30881
805.718	7094.57344
805.903	7138.46405
806.089	7236.07741
806.274	7227.39416
806.46	7491.96248
806.645	7130.21445
806.831	6919.15569
807.016	7055.23249
807.201	7493.8161
807.387	7092.16309
807.572	6944.12439
807.757	7201.7452
807.943	7087.94599
808.128	6834.81163
808.313	6979.82154
808.499	7141.81139
808.684	7142.16329
808.869	7011.38927
809.054	7128.04029
809.24	7000.29621
809.425	7140.28278
809.61	6827.26484
809.795	6936.8735
809.98	7066.91532
810.165	7122.56282
810.35	7484.98199
810.536	6739.97121
810.721	6987.14778
810.906	6747.73121
811.091	7273.6491
811.276	6775.84932
811.461	7004.21641
811.646	6991.60504
811.831	6718.94909
812.016	6694.68812
812.201	6710.83166
812.386	6686.18925
812.571	6546.5969
812.756	6554.3057
812.941	6727.10594
813.125	6919.15569
813.31	6536.23235
813.495	6691.51253
813.68	6725.75277
813.865	6687.89051
814.05	6509.21906
814.234	6329.82248
814.419	6491.02497
814.604	6496.79744
814.789	6597.86762
814.973	6371.07267
815.158	6749.59606
815.343	6271.59214
815.528	6375.20735
815.712	6238.50611
815.897	6049.93949
816.081	6176.97828
816.266	6034.17787
816.451	5884.5453
816.635	5859.80158
816.82	6030.85425
817.004	5718.52004
817.189	5669.93611
817.374	5769.92656
817.558	5889.74242
817.743	5371.33815
817.927	5460.00723
818.111	5578.14469
818.296	5438.54702
818.48	5270.15494
818.665	5148.02804
818.849	5362.93901
819.034	5227.26744
819.218	5241.82789
819.402	4870.22143
819.587	5142.00006
819.771	4983.27243
819.955	4908.38595
820.14	5023.62394
820.324	4711.64144
820.508	4732.51016
820.692	4699.28361
820.877	4460.65728
821.061	4712.65953
821.245	4513.44787
821.429	4521.72421
821.613	4572.95908
821.798	4352.52968
821.982	4505.67661
822.166	4174.89525
822.35	4032.59484
822.534	4224.61907
822.718	4292.80109
822.902	4287.50192
823.086	4292.43583
823.27	4314.09986
823.454	4139.2095
823.638	4143.99353
823.822	4193.99051
824.006	4081.46204
824.19	4285.86477
824.374	3909.98894
824.558	3905.9983
824.742	3948.03796
824.926	4061.46712
825.11	3851.45892
825.294	4024.79633
825.477	3990.21336
825.661	4064.31689
825.845	3826.93707
826.029	3950.76275
826.213	4226.07406
826.396	4101.70593
826.58	4034.65805
826.764	4121.05346
826.948	4230.72539
827.131	4299.18459
827.315	4040.60565
827.499	4073.7752
827.682	4454.63991
827.866	4333.30459
828.05	4037.56168
828.233	4148.13677
828.417	4383.87603
828.6	4544.53227
828.784	4032.07744
828.967	4609.29987
829.151	4564.36525
829.335	4315.40159
829.518	4076.12145
829.701	4147.21505
829.885	4281.71374
830.068	4230.88093
830.252	3997.12299
830.435	4070.58002
830.619	4268.55923
830.802	4170.37944
830.985	4203.03674
831.169	4043.48199
831.352	4251.33792
831.535	4077.96895
831.719	4285.2729
831.902	4057.9521
832.085	4178.16333
832.269	4085.03299
832.452	4030.3232
832.635	3945.3166
832.818	4326.73344
833.002	4198.03287
833.185	4518.73418
833.368	4166.97373
833.551	4325.05724
833.734	4238.26956
833.917	4090.29064
834.1	4066.89316
834.284	4235.6873
834.467	4260.31521
834.65	4100.95572
834.833	3974.10896
835.016	4350.10214
835.199	4165.13066
835.382	4034.02938
835.565	3976.90244
835.748	4303.87096
835.931	4200.48056
836.114	3933.97011
836.297	4110.60147
836.479	4239.41873
836.662	4447.20318
836.845	4182.02538
837.028	3963.19309
837.211	4085.0499
837.394	4195.48796
837.577	4099.5802
837.759	4066.78199
837.942	4287.95495
838.125	4201.1681
838.308	4048.61517
838.49	3867.33021
838.673	10276.30735
838.856	4053.54397
839.039	4150.73704
839.221	4006.4999
839.404	4515.92604
839.587	4350.39329
839.769	3969.15999
839.952	4058.57424
840.134	4264.67486
840.317	4227.09865
840.499	4516.37588
840.682	4254.3581
840.865	4181.00807
841.047	4516.87705
841.23	4266.07438
841.412	4300.54776
841.595	4548.23527
841.777	4455.82051
841.959	4069.87431
842.142	4082.58731
842.324	4341.54241
842.507	4826.33173
842.689	4290.63121
842.871	4164.9314
843.054	4771.02214
843.236	4452.28524
843.418	4326.23656
843.601	4333.85667
843.783	4315.36615
843.965	4412.14647
844.147	4275.66987
844.33	4469.3088
844.512	4544.79666
844.694	4375.36186
844.876	4324.1494
845.059	4347.84572
845.241	4611.92069
845.423	4491.4475
845.605	4344.53402
845.787	4385.66476
845.969	4875.62911
846.151	4543.67542
846.333	4243.8539
846.515	4132.85062
846.697	4290.94051
846.879	4519.0977
847.061	4237.8413
847.243	4325.37037
847.425	4333.88365
847.607	4315.5076
847.789	4051.71313
847.971	4169.59563
848.153	4414.71909
848.335	4461.35754
848.517	4204.40553
848.699	4147.09068
848.881	4463.88298
849.062	4493.33381
849.244	4334.32784
849.426	3976.51532
849.608	4382.09063
849.789	4215.34262
849.971	4595.10032
850.153	4095.11403
850.335	4219.03556
850.516	4356.44815
850.698	4146.80376
850.88	4085.37222
851.061	4802.09386
851.243	4575.80659
851.425	4036.79795
851.606	3938.2177
851.788	4327.42932
851.969	4208.10628
852.151	4153.79687
852.333	3891.22476
852.514	4394.9511
852.696	4125.26487
852.877	3978.06639
853.059	4142.61936
853.24	4592.38652
853.422	4475.73303
853.603	3943.54295
853.784	3905.91406
853.966	4300.70286
854.147	4104.95334
854.329	3896.03082
854.51	4096.75767
854.691	4102.1841
854.873	4416.86792
855.054	4037.93301
855.235	3817.54632
855.416	3997.58621
855.598	3960.04814
855.779	3890.07813
855.96	3840.72677
856.141	3943.97749
856.323	3876.74298
856.504	3557.92397
856.685	3480.37074
856.866	3956.48557
857.047	4035.36993
857.228	3635.04986
857.409	3733.94873
857.591	3761.52569
857.772	4564.54561
857.953	3628.93471
858.134	3466.66377
858.315	3619.6539
858.496	3819.89483
858.677	3531.51069
858.858	3629.33225
859.039	3661.92171
859.22	3906.2368
859.401	3697.75913
859.582	3331.95751
859.762	3868.80899
859.943	3447.59371
860.124	3652.46147
860.305	3752.67745
860.486	3741.18139
860.667	3664.76177
860.848	3518.62716
861.028	3401.92095
861.209	3438.24986
861.39	3474.58933
861.571	3440.78316
861.751	3313.18144
861.932	4263.02443
862.113	3618.82851
862.293	3272.07693
862.474	3643.93175
862.655	3565.07658
862.835	3675.5082
863.016	3978.95807
863.197	3741.90801
863.377	3583.43047
863.558	3349.16986
863.738	3617.62327
863.919	3400.09176
864.099	3726.06525
864.28	3588.37202
864.46	3360.86968
864.641	3333.30793
864.821	3765.73051
865.002	3396.76995
865.182	3368.0393
865.363	3410.73243
865.543	3443.40994
865.723	3700.05262
865.904	3484.91584
866.084	3300.3314
866.264	3640.86546
866.445	3520.22081
866.625	3437.47081
866.805	3319.74308
866.986	3505.32677
867.166	3551.90854
867.346	3220.34942
867.526	3214.4733
867.707	3288.97257
867.887	3808.81353
868.067	3296.83247
868.247	3267.56112
868.427	3635.41625
868.607	3337.91314
868.788	3288.89237
868.968	3170.02364
869.148	3814.50256
869.328	3284.97359
869.508	2993.98892
869.688	3138.1139
869.868	3267.20275
870.048	3377.70729
870.228	3078.02408
870.408	3305.68442
870.588	3305.23219
870.768	3317.42255
870.948	2966.38344
871.128	3281.14303
871.307	3323.63204
871.487	3174.18721
871.667	2925.21812
871.847	3002.54077
872.027	3089.75146
872.207	3285.94569
872.387	3137.25659
872.566	2816.24467
872.746	3261.94481
872.926	3411.44548
873.106	2828.80477
873.285	3084.89113
873.465	3387.31774
873.645	3108.86606
873.824	2801.09251
874.004	2894.85174
874.184	3125.37379
874.363	3331.95751
874.543	2772.37831
874.723	2739.75568
874.902	3144.02326
875.082	2863.55002
875.261	2990.23395
875.441	3114.68017
875.62	3016.58263
875.8	3053.06693
875.979	2863.02382
876.159	2986.64694
876.338	3254.44355
876.518	3064.15674
876.697	3078.81921
876.876	2867.12822
877.056	2927.68971
877.235	3080.78284
877.415	2795.69277
877.594	2809.47411
877.773	2931.48771
877.953	2987.55746
878.132	2894.73378
878.311	2768.66728
878.49	2925.70489
878.67	3001.36489
878.849	2902.71192
879.028	2655.80506
879.207	2879.2714
879.387	2866.42419
879.566	2592.34796
879.745	2618.4014
879.924	3376.77191
880.103	3165.17921
880.282	2916.91639
880.461	2876.3878
880.64	2891.16388
880.819	3204.55521
880.998	2498.10879
881.178	2823.82084
881.357	3067.93167
881.536	3021.22414
881.715	2588.61082
881.893	2593.19397
882.072	2883.94577
882.251	2871.94994
882.43	2615.1688
882.609	2654.30591
882.788	2972.68949
882.967	2704.13823
883.146	2708.10241
883.325	2581.63223
883.503	2572.38005
883.682	2648.75422
883.861	2627.76281
884.04	2539.98146
884.219	2583.2007
884.397	2883.10921
884.576	2809.98482
884.755	2532.60639
884.933	2816.25095
885.112	2751.3109
885.291	2600.84678
885.469	2602.66178
885.648	2703.27959
885.827	2753.65805
886.005	2422.58237
886.184	2649.01156
886.363	2657.81433
886.541	2645.00176
886.72	2425.13537
886.898	2488.76017
887.077	2764.5483
887.255	2693.8931
887.434	2638.26167
887.612	2497.88498
887.791	2604.25542
887.969	2957.61309
888.147	2813.83057
888.326	2628.98525
888.504	2894.8146
888.682	2776.41506
888.861	2433.11142
889.039	2735.24587
889.218	2850.22299
889.396	2681.91426
889.574	2336.73879
889.752	2637.71852
889.931	2848.86129
890.109	2616.60567
890.287	2496.29783
890.465	2325.52527
890.643	2746.94511
890.822	3201.15291
891	2621.66256
891.178	2446.62136
891.356	2651.3919
891.534	2659.59299
891.712	2462.75257
891.89	2519.36033
892.068	2530.12664
892.247	2630.12502
892.425	2531.62795
892.603	2379.78684
892.781	2705.70824
892.959	2598.04974
893.137	2517.87256
893.314	2423.47057
893.492	2552.47639
893.67	2631.67528
893.848	2932.11776
894.026	2477.76283
894.204	2569.62391
894.382	2642.27831
894.56	2376.18084
894.738	2626.19873
894.915	2527.79001
895.093	2762.7213
895.271	2565.31963
895.449	2578.78266
895.626	2673.10853
895.804	2436.16406
895.982	2797.87966
896.16	2418.21205
896.337	2465.69798
896.515	2558.71231
896.693	2282.88924
896.87	2312.6955
897.048	2573.54636
897.225	2459.14232
897.403	2038.98549
897.581	2276.04695
897.758	2515.7662
897.936	2448.06016
898.113	2241.9313
898.291	2349.04854
898.468	2515.29475
898.646	2454.53548
898.823	2144.26621
899.001	2126.11106
899.178	2402.03341
899.356	2209.78135
899.533	1978.0252
899.71	1988.43217
899.888	2489.05272
900.065	2112.3775
900.242	1949.97976
900.42	1932.82783
900.597	2127.8266
900.774	2206.10974
900.952	1647.69808
901.129	1758.48938
901.306	1957.45421
901.483	1972.30983
901.661	1886.43687
901.838	1604.87798
902.015	2062.46251
902.192	2141.12454
902.369	1485.13146
902.546	1683.61075
902.723	1917.38873
902.901	2081.49366
903.078	1614.53178
903.255	1633.33189
903.432	1800.75418
903.609	1676.69185
903.786	1472.07741
903.963	1373.34454
904.14	1763.95598
904.317	1704.51421
904.494	1297.49297
904.671	1474.04131
904.848	1427.54174
905.024	1481.25609
905.201	1434.4569
905.378	1325.60716
905.555	1597.84409
905.732	1851.0135
905.909	1226.66727
906.086	1628.81246
906.262	1788.84431
906.439	1536.97928
906.616	1344.94287
906.793	1721.39233
906.969	1453.94589
907.146	1549.51506
907.323	1287.28275
907.5	1363.08975
907.676	1775.98365
907.853	1551.02779
908.03	1272.26142
908.206	1706.10928
908.383	2355.08091
908.559	1738.62466
908.736	1809.05904
908.912	1349.33786
909.089	1953.07546
909.266	1670.19143
909.442	1509.07316
909.619	1503.92732
909.795	1531.34615
909.972	1606.05951
910.148	1455.24846
910.324	1286.07765
910.501	1460.53785
910.677	1451.84565
910.854	1324.83794
911.03	1332.53617
911.206	1513.73987
911.383	1650.97044
911.559	1434.26617
911.735	1523.12026
911.912	1808.73449
912.088	1599.9762
912.264	1767.90341
912.44	1740.51411
912.617	1813.27615
912.793	1636.83237
912.969	1282.98776
913.145	1445.65115
913.321	1593.27883
913.498	1464.96606
913.674	1307.04892
913.85	1174.68292
914.026	1781.0413
914.202	1609.94277
914.378	1199.31051
914.554	1390.29037
914.73	1592.82827
914.906	1557.75178
915.082	1123.61659
915.258	1190.19816
915.434	1643.50128
915.61	1557.70069
915.786	1163.02194
915.962	1241.35067
916.138	1288.59012
916.314	1257.18416
916.49	1368.85329
916.665	1087.7906
916.841	1305.31136
917.017	1242.42238
917.193	888.60425
917.369	1061.09481
917.545	1511.66008
917.72	1344.27056
917.896	1040.55778
918.072	1162.02134
918.247	1279.69044
918.423	1218.30654
918.599	1030.24347
918.775	965.69209
918.95	1357.90298
919.126	1349.50823
919.301	1036.54879
919.477	1165.69777
919.653	1172.3053
919.828	1480.56761
920.004	1205.09671
920.179	1029.02815
920.355	6436.86711
920.53	1211.33072
920.706	1002.70774
920.881	1069.00101
921.057	1145.59635
921.232	1202.67647
921.408	992.50411
921.583	992.53871
921.759	1069.59101
921.934	1150.47747
922.109	997.59027
922.285	970.85742
922.46	1250.40913
922.635	1249.77485
922.811	1086.81235
922.986	832.39672
923.161	1553.38806
923.336	1238.03446
923.512	879.20604
923.687	1148.89318
923.862	1346.79526
924.037	1279.82003
924.212	1498.51077
924.388	1209.17504
924.563	1132.72779
924.738	1379.05772
924.913	1047.21993
925.088	1244.38359
925.263	1357.94874
925.438	1236.4514
925.613	1320.55933
925.788	931.15673
925.963	1339.70735
926.138	1217.58981
926.313	1072.2166
926.488	1130.74275
926.663	1644.84107
926.838	1342.73649
927.013	1019.41769
927.188	927.76783
927.363	1396.75142
927.538	1504.4581
927.713	1120.53851
927.888	1001.25259
928.062	1614.37411
928.237	1397.49815
928.412	981.12333
928.587	1145.213
928.761	1509.05507
928.936	1142.35179
929.111	1166.85747
929.286	1295.5424
929.46	1131.5597
929.635	1290.07018
929.81	811.97699
929.984	978.76856
930.159	1238.65792
930.334	1169.23684
930.508	1045.79827
930.683	845.47122
930.857	1228.3804
931.032	1193.00683
931.206	886.06623
931.381	854.0923
931.556	1059.05753
931.73	1131.63889
931.904	985.67478
932.079	694.86049
932.253	1161.95714
932.428	994.88602
932.602	1127.35569
932.777	695.43128
932.951	942.1227
933.125	1185.11783
933.3	1007.77745
933.474	737.60094
933.648	808.90794
933.823	825.95035
933.997	835.933
934.171	835.7223
934.345	724.12552
934.52	694.02705
934.694	599.80633
934.868	511.74843
935.042	601.87927
935.217	649.2332
935.391	445.34872
935.565	383.25238
935.739	758.36246
935.913	880.79892
936.087	861.07295
936.261	189.09113
936.435	821.23313
936.609	541.14816
936.783	195.43915
936.957	79.79307
937.131	560.48467
937.305	552.95725
937.479	368.16262
937.653	194.39984
937.827	575.4961
938.001	266.45517
938.175	105.79114
938.349	111.44686
938.523	561.61037
938.697	266.13312
938.87	109.19349
939.044	61.95168
939.218	451.90506
939.392	709.63432
939.566	48.45759
939.739	-126.69561
939.913	316.85892
940.087	159.65364
940.261	-4.6099
940.434	-20.42559
940.608	515.58376
940.782	587.65391
940.955	47.24349
941.129	48.40319
941.302	413.14489
941.476	183.30315
941.65	138.50862
941.823	65.3196
941.997	467.94923
942.17	330.89263
942.344	45.04665
942.517	405.96158
942.691	483.71699
942.864	276.48872
943.038	-75.78281
943.211	139.61674
943.385	372.20844
943.558	397.5823
943.731	95.21886
943.905	98.97192
944.078	206.63023
944.251	328.79611
944.425	95.80977
944.598	51.75979
944.771	200.26067
944.945	237.06866
945.118	21.3202
945.291	153.93228
945.464	328.89479
945.638	273.1311
945.811	358.01014
945.984	215.56978
946.157	275.91731
946.33	230.17683
946.503	-28.3207
946.677	57.43703
946.85	494.66271
947.023	382.09591
947.196	8.93617
947.369	-101.91919
947.542	306.49432
947.715	194.07809
947.888	294.9868
948.061	-36.19818
948.234	201.0391
948.407	303.05102
948.58	157.64421
948.753	82.05278
948.926	695.28203
949.099	279.64526
949.271	243.90515
949.444	222.36811
949.617	325.51995
949.79	366.10956
949.963	260.72776
950.136	1.03357
950.308	375.38445
950.481	195.82545
950.654	296.39199
950.827	-95.13456
950.999	518.89239
951.172	329.67824
951.345	317.65381
951.517	165.20654
951.69	303.5545
951.863	551.06352
952.035	157.37973
952.208	-31.67904
952.381	311.26823
952.553	329.88779
952.726	258.29384
952.898	-80.39269
953.071	340.57901
953.243	561.0147
953.416	-10.27492
953.588	163.887
953.761	327.92598
953.933	136.06233
954.106	206.84127
954.278	-103.86973
954.45	606.86415
954.623	223.24416
954.795	-70.20434
954.967	79.99213
955.14	131.71712
955.312	433.32134
955.484	239.48902
955.657	40.53886
955.829	381.25147
956.001	712.32201
956.173	11.18896
956.346	312.18618
956.518	302.34388
956.69	346.12304
956.862	69.7986
957.034	95.63667
957.207	96.69091
957.379	383.26661
957.551	78.84741
957.723	296.04804
957.895	213.74368
958.067	334.2526
958.239	216.86072
958.411	-92.80971
958.583	660.36906
958.755	620.68813
958.927	95.71742
959.099	274.91354
959.271	148.33047
959.443	211.76794
959.615	76.56243
959.787	550.50228
959.959	75.41917
960.13	256.06619
960.302	321.19747
960.474	-13.63308
960.646	355.64488
960.818	490.58272
960.99	67.49991
961.161	52.96375
961.333	327.52031
961.505	444.85142
961.677	561.42879
961.848	128.29063
962.02	277.58683
962.192	258.72457
962.363	225.7346
962.535	198.63474
962.707	125.01989
962.878	433.6423
963.05	427.90293
963.221	164.22863
963.393	374.10399
963.564	428.49365
963.736	357.70237
963.907	217.13258
964.079	422.30802
964.25	427.87124
964.422	76.35525
964.593	222.77313
964.765	388.99479
964.936	498.93908
965.108	275.33829
965.279	115.94471
965.45	585.18463
965.622	381.18044
965.793	17.98108
965.964	467.9665
966.136	331.11575
966.307	178.04154
966.478	562.94319
966.65	155.41462
966.821	480.80457
966.992	604.82676
967.163	174.28201
967.334	222.66291
967.506	250.61399
967.677	308.72893
967.848	56.28399
968.019	318.83055
968.19	255.5288
968.361	209.27361
968.532	177.70778
968.703	257.1849
968.874	431.57414
969.045	963.48471
969.216	3.29438
969.387	225.09311
969.558	242.7026
969.729	457.60909
969.9	117.03768
970.071	169.82711
970.242	388.34468
970.413	514.56873
970.584	166.46064
970.755	240.46349
970.926	349.98757
971.097	403.08712
971.267	472.18527
971.438	154.28477
971.609	525.2592
971.78	258.97542
971.951	263.26607
972.121	326.64897
972.292	482.81223
972.463	470.52276
972.633	262.84719
972.804	462.56338
972.975	362.47369
973.145	350.99829
973.316	284.26798
973.487	124.94314
973.657	514.7389
973.828	548.07988
973.998	285.19301
974.169	224.84474
974.339	446.86142
974.51	596.50834
974.68	691.07037
974.851	222.56996
975.021	318.56777
975.192	292.9841
975.362	232.54617
975.533	217.13258
975.703	562.5541
975.874	509.27393
976.044	298.7957
976.214	232.76647
976.385	814.58163
976.555	415.78512
976.725	234.98964
976.896	417.84126
977.066	413.89742
977.236	544.57337
977.406	518.22107
977.577	186.83887
977.747	611.55471
977.917	397.62644
978.087	532.02532
978.257	135.01683
978.427	638.2571
978.598	430.71615
978.768	165.28179
978.938	331.29005
979.108	345.27994
979.278	224.44639
979.448	260.22809
979.618	262.87695
979.788	528.13295
979.958	552.1918
980.128	225.70909
980.298	308.70573
980.468	402.70699
980.638	236.76547
980.808	300.94106
980.978	204.48348
981.148	678.73926
981.317	518.94968
981.487	151.93204
981.657	276.70918
981.827	441.36592
981.997	316.81107
982.167	182.11917
982.336	108.21886
982.506	418.02732
982.676	507.64988
982.846	353.87044
983.015	429.85799
983.185	328.73455
983.355	376.19187
983.524	250.36827
983.694	134.00631
983.864	391.04863
984.033	309.0083
984.203	112.64495
984.372	141.81039
984.542	405.28236
984.712	557.63027
984.881	184.30586
985.051	270.46396
985.22	405.76315
985.39	312.28031
985.559	249.36246
985.728	424.51771
985.898	501.19567
986.067	361.07425
986.237	249.52275
986.406	298.53731
986.576	570.58472
986.745	257.65319
986.914	233.93145
987.084	213.70299
987.253	554.77323
987.422	585.54655
987.591	334.21515
987.761	155.33124
987.93	526.26256
988.099	614.85894
988.268	944.48672
988.438	427.5081
988.607	499.73145
988.776	388.63405
988.945	337.73876
989.114	149.59409
989.283	415.9553
989.452	463.96719
989.621	288.20073
989.791	74.19688
989.96	409.28699
990.129	557.34622
990.298	210.16353
990.467	7.80482
990.636	337.86541
990.805	411.30074
990.974	55.17025
991.142	245.17379
991.311	769.6848
991.48	398.54799
991.649	164.14741
991.818	205.81429
991.987	477.01398
992.156	532.64946
992.325	372.26392
992.493	292.96209
992.662	5182.50277
992.831	615.18214
993	312.68313
993.168	33.74841
993.337	397.23752
993.506	449.05229
993.675	73.12574
993.843	201.10743
994.012	356.7872
994.181	461.1423
994.349	187.93268
994.518	174.52163
994.686	293.95821
994.855	600.0659
995.024	96.79814
995.192	163.2059
995.361	523.40583
995.529	469.04317
995.698	137.36331
995.866	224.6746
996.035	666.75618
996.203	411.53042
996.371	273.86803
996.54	268.67407
996.708	537.56383
996.877	422.48034
997.045	164.4424
997.213	101.44925
997.382	498.39178
997.55	524.97243
997.718	364.69628
997.887	-7.99909
998.055	349.09331
998.223	238.3506
998.391	305.4689
998.56	-26.05145
998.728	1000.26371
998.896	348.6767
999.064	66.36953
999.232	309.87918
999.401	461.56182
999.569	338.85487
999.737	31.50199
999.905	22.4702
1000.073	293.10534
1000.241	572.23631
1000.409	135.09952
1000.577	421.13288
1000.745	411.66869
1000.913	546.14289
1001.081	74.25362
1001.249	202.28888
1001.417	384.08158
1001.585	307.92497
1001.753	270.76955
1001.921	93.48821
1002.089	266.28373
1002.256	459.89828
1002.424	37.13768
1002.592	150.94765
1002.76	398.79859
1002.928	539.2867
1003.096	-94.04572
1003.263	-56.53747
1003.431	498.30611
1003.599	363.72591
1003.767	43.85466
1003.934	-93.89445
1004.102	562.28658
1004.27	275.10978
1004.437	123.6679
1004.605	-61.17225
1004.773	327.08193
1004.94	690.46349
1005.108	49.54347
1005.275	-40.77774
1005.443	489.48945
1005.61	319.9957
1005.778	117.22688
1005.945	-32.85998
1006.113	410.46229
1006.28	222.53622
1006.448	-27.19533
1006.615	77.65242
1006.783	394.34541
1006.95	194.56218
1007.118	8.93132
1007.285	-151.77265
1007.452	709.8061
1007.62	240.3455
1007.787	105.77089
1007.954	-29.49868
1008.122	321.30688
1008.289	283.57601
1008.456	2.16366
1008.623	31.50932
1008.791	399.97108
1008.958	434.46549
1009.125	-125.70083
1009.292	-57.70336
1009.459	287.1057
1009.627	277.72362
1009.794	-136.9039
1009.961	-57.63396
1010.128	434.11084
1010.295	359.73152
1010.462	86.81037
1010.629	-181.19625
1010.796	392.55653
1010.963	267.54439
1011.13	-172.12738
1011.297	199.95693
1011.464	204.79439
1011.631	519.54625
1011.798	-19.23549
1011.965	95.66598
1012.132	377.85112
1012.299	334.24012
1012.466	-47.48994
1012.633	-114.33086
1012.799	390.83987
1012.966	381.8695
1013.133	-66.87631
1013.3	-179.96157
1013.467	494.40828
1013.633	628.74003
1013.8	29.24853
1013.967	126.18348
1014.134	545.97469
1014.3	357.76911
1014.467	-95.06735
1014.634	159.73874
1014.8	583.48103
1014.967	234.51148
1015.134	-93.91281
1015.3	-142.69459
1015.467	583.03492
1015.633	288.74225
1015.8	117.05561
1015.966	28.18312
1016.133	489.96839
1016.3	334.95679
1016.466	-169.98457
1016.632	196.50735
1016.799	154.1078
1016.965	226.10264
1017.132	129.27629
1017.298	-62.2363
1017.465	252.77657
1017.631	296.96521
1017.797	-79.14259
1017.964	-54.25449
1018.13	168.52584
1018.296	418.84557
1018.463	-61.1124
1018.629	-6.86355
1018.795	413.48151
1018.961	280.73176
1019.128	-75.74742
1019.294	68.65414
1019.46	295.27442
1019.626	123.70085
1019.792	-105.29475
1019.959	-17.00831
1020.125	43.85298
1020.291	248.21533
1020.457	-61.12434
1020.623	169.76899
1020.789	160.87968
1020.955	273.96067
1021.121	37.13194
1021.287	231.08756
1021.453	343.42181
1021.619	260.55061
1021.785	160.91653
1021.951	64.24769
1022.117	280.92246
1022.283	106.80945
1022.449	113.67409
1022.615	22.47978
1022.781	816.14485
1022.946	229.03198
1023.112	75.396
1023.278	-15.88284
1023.444	210.20335
1023.61	366.55321
1023.775	-185.62155
1023.941	-105.20811
1024.107	189.21432
1024.273	47.2635
1024.438	-167.76584
1024.604	-22.65124
1024.77	3353.50589
1024.935	157.3857
1025.101	-38.51754
1025.267	168.62804
1025.432	229.20476
1025.598	371.78972
1025.763	16.83403
1025.929	-128.02966
1026.095	190.91522
1026.26	513.85603
1026.426	-159.82579
1026.591	19.09333
1026.757	364.16162
1026.922	652.52207
1027.087	-13.64524
1027.253	33.7458
1027.418	429.09502
1027.584	226.76851
1027.749	-209.78064
1027.914	120.29941
1028.08	167.69797
1028.245	108.15202
1028.41	-177.81103
1028.576	-120.1495
1028.741	528.87391
1028.906	206.69259
1029.072	-3.48277
1029.237	-224.37778
1029.402	178.75496
1029.567	244.36332
1029.732	-111.02283
1029.898	-36.263
1030.063	355.32658
1030.228	96.88005
1030.393	88.98163
1030.558	-109.71631
1030.723	337.66294
1030.888	103.60185
1031.053	-170.12629
1031.218	-73.65321
1031.383	178.63309
1031.548	222.35973
1031.713	-238.48411
1031.878	-48.65334
1032.043	104.68676
1032.208	291.45213
1032.373	-134.84941
1032.538	14.55114
1032.703	311.9284
1032.868	77.5634
1033.033	-183.58336
1033.198	-309.19335
1033.362	210.42737
1033.527	400.32821
1033.692	-109.69489
1033.857	-151.77864
1034.021	351.3136
1034.186	541.84431
1034.351	-11.37877
1034.516	-17.03668
1034.68	182.09844
1034.845	70.92727
1035.01	-276.40996
1035.174	-41.90865
1035.339	150.59077
1035.504	144.06287
1035.668	295.13036
1035.833	-319.00441
1035.997	145.35925
1036.162	381.13787
1036.326	-336.11698
1036.491	-231.64484
1036.655	352.24504
1036.82	62.98641
1036.984	-92.64705
1037.149	102.28099
1037.313	215.72433
1037.478	252.62416
1037.642	44.96344
1037.807	-351.12295
1037.971	242.71178
1038.135	109.08499
1038.3	-81.44236
1038.464	244.89529
1038.628	179.95849
1038.792	156.26973
1038.957	-208.65961
1039.121	-132.25712
1039.285	447.99004
1039.449	94.49416
1039.614	-240.26539
1039.778	-322.73991
1039.942	178.53872
1040.106	250.45313
1040.27	-95.16078
1040.434	-179.9828
1040.599	130.62309
1040.763	-7.99536
1040.927	-144.88398
1041.091	42.82953
1041.255	8.93964
1041.419	243.85899
1041.583	-31.68393
1041.747	-83.72165
1041.911	72.0449
1042.075	214.57186
1042.239	-305.37233
1042.403	-167.22645
1042.567	428.69867
1042.731	214.12145
1042.894	-263.33278
1043.058	-186.77121
1043.222	72.09768
1043.386	222.41005
1043.55	-17.02675
1043.714	-212.03916
1043.877	88.98506
1044.041	363.46701
1044.205	-140.32618
1044.369	-134.80148
1044.532	16.83599
1044.696	101.14638
1044.86	-222.33295
1045.023	-97.17316
1045.187	265.89344
1045.351	353.20235
1045.514	-292.11693
1045.678	177.47212
1045.841	281.3963
