Data from Sun covered_USB4F034991__0__09-50-03-477.txt Node

Date: Tue Sep 23 09:50:03 EDT 2025
User: brett
Spectrometer: USB4F03499
Trigger mode: 4
Integration Time (sec): 5.000000E-1
Scans to average: 1
Electric dark correction enabled: true
Nonlinearity correction enabled: true
Boxcar width: 0
XAxis mode: Wavelengths
Number of Pixels in Spectrum: 3648
>>>>>Begin Spectral Data<<<<<
0	-637.09943
0.225	-637.09943
0.449	-637.09943
0.674	-714.61823
0.898	-580.86597
1.123	144.42586
1.347	-151.28879
1.572	41.6093
1.796	25.58336
2.021	30.16309
2.245	210.49815
2.469	-20.2535
2.694	-61.5686
2.918	50.76304
3.143	-208.95092
3.367	89.63477
3.591	-153.59302
3.815	21.00291
4.04	7.25726
4.264	-109.84451
4.488	34.74211
4.712	126.17337
4.936	-22.54724
5.161	-287.56188
5.385	-259.79155
5.609	4.96569
5.833	262.7978
6.057	349.01055
6.281	53.05104
6.505	-29.42954
6.729	121.6085
6.953	78.20723
7.177	105.62594
7.401	-82.24834
7.625	75.92119
7.849	-61.5686
8.073	27.87332
8.297	137.58248
8.521	-178.95193
8.744	-91.44411
8.968	123.89102
9.192	-54.67865
9.416	48.47487
9.64	-63.86561
9.863	41.6093
10.087	-89.14489
10.311	-158.20204
10.535	7.25726
10.758	194.56293
10.982	-68.46019
11.205	-38.60849
11.429	105.62594
11.653	-56.97511
11.876	80.49309
12.1	-153.59302
12.323	-98.34287
12.547	21.00291
12.77	32.45269
12.994	55.33885
13.217	39.32041
13.441	-142.07374
13.664	283.23848
13.887	2.67394
14.111	342.21303
14.334	296.85802
14.557	-146.68089
14.781	180.89748
15.004	53.05104
15.227	23.29323
15.451	-36.31348
15.674	-82.24834
15.897	196.83991
16.12	153.54792
16.343	43.898
16.567	11.83986
16.79	82.77877
17.013	403.33726
17.236	30.16309
17.459	139.86378
17.682	-43.19905
17.905	221.8753
18.128	110.19326
18.351	-63.86561
18.574	187.73098
18.797	105.62594
19.02	103.34202
19.243	103.34202
19.466	123.89102
19.689	130.73754
19.911	-24.84116
20.134	-75.35344
20.357	276.42643
20.58	-22.54724
20.803	-68.46019
21.025	153.54792
21.248	133.01936
21.471	203.6698
21.694	89.63477
21.916	4.96569
22.139	89.63477
22.362	-128.25675
22.584	82.77877
22.807	205.94609
23.029	-181.25841
23.252	-34.01865
23.475	988.32626
23.697	-144.37722
23.92	-125.95457
24.142	155.82801
24.365	73.63497
24.587	2.67394
24.809	-20.2535
25.032	240.06987
25.254	-22.54724
25.477	-61.5686
25.699	185.45332
25.921	199.11671
26.144	-1.91011
26.366	-123.65257
26.588	226.42497
26.81	37.03135
27.033	-158.20204
27.255	39.32041
27.477	43.898
27.699	107.90969
27.921	-107.54381
28.144	-84.54701
28.366	169.50486
28.588	-128.25675
28.81	-213.56899
29.032	0.38201
29.254	260.52577
29.476	-40.90368
29.698	112.47666
29.92	55.33885
30.142	89.63477
30.364	48.47487
30.586	130.73754
30.808	-181.25841
31.029	-52.38236
31.251	-6.49487
31.473	71.34857
31.695	121.6085
31.917	-218.18781
32.139	212.77392
32.36	119.3258
32.582	32.45269
32.804	-20.2535
33.026	244.61682
33.247	-148.98475
33.469	-172.03361
33.691	30.16309
33.912	-105.2433
34.134	158.10792
34.355	-45.4946
34.577	78.20723
34.798	-73.05551
35.02	80.49309
35.242	-8.78752
35.463	-211.25986
35.684	-20.2535
35.906	-54.67865
36.127	-50.08626
36.349	253.70866
36.57	126.17337
36.792	-24.84116
37.013	80.49309
37.234	153.54792
37.456	258.25357
37.677	85.06428
37.898	153.54792
38.119	-66.16281
38.341	4.96569
38.562	-75.35344
38.783	16.42175
39.004	71.34857
39.225	-176.64563
39.447	-135.1644
39.668	-93.74351
39.889	-47.79034
40.11	-119.04914
40.331	126.17337
40.552	-135.1644
40.773	285.50882
40.994	-227.42775
41.215	25.58336
41.436	-98.34287
41.657	-17.95994
41.878	-146.68089
42.099	-148.98475
42.32	53.05104
42.54	126.17337
42.761	292.31884
42.982	-66.16281
43.203	-181.25841
43.424	-31.724
43.645	151.26767
43.865	87.34962
44.086	148.98724
44.307	-47.79034
44.527	23.29323
44.748	-82.24834
44.969	7.25726
45.189	75.92119
45.41	-17.95994
45.631	139.86378
45.851	183.17549
46.072	-144.37722
46.292	178.6193
46.513	-178.95193
46.733	185.45332
46.954	205.94609
47.174	-326.95084
47.395	9.54865
47.615	160.38765
47.836	2.67394
48.056	-84.54701
48.276	-27.13526
48.497	107.90969
48.717	98.77364
48.937	171.78373
49.158	121.6085
49.378	-56.97511
49.598	180.89748
49.818	144.42586
50.038	139.86378
50.259	89.63477
50.479	-146.68089
50.699	89.63477
50.919	2.67394
51.139	4.96569
51.359	-54.67865
51.579	-86.84586
51.799	91.91976
52.02	64.48833
52.24	39.32041
52.46	4.96569
52.68	7.25726
52.899	53.05104
53.119	48.47487
53.339	-165.11698
53.559	62.20123
53.779	230.97395
53.999	317.27603
54.219	328.61352
54.439	-34.01865
54.658	-273.67325
54.878	192.28579
55.098	155.82801
55.318	101.05792
55.538	43.898
55.757	-40.90368
55.977	-165.11698
56.197	11.83986
56.416	-47.79034
56.636	75.92119
56.855	71.34857
57.075	73.63497
57.295	-208.95092
57.514	43.898
57.734	16.42175
57.953	48.47487
58.173	-75.35344
58.392	-128.25675
58.612	25.58336
58.831	75.92119
59.051	135.30101
59.27	123.89102
59.489	-75.35344
59.709	69.062
59.928	-181.25841
60.147	30.16309
60.367	103.34202
60.586	217.32495
60.805	-24.84116
61.024	-121.35077
61.244	85.06428
61.463	-112.14539
61.682	-130.55911
61.901	-66.16281
62.12	224.15022
62.34	9.54865
62.559	-17.95994
62.778	355.80657
62.997	16.42175
63.216	-252.85329
63.435	-68.46019
63.654	30.16309
63.873	-17.95994
64.092	-132.86167
64.311	196.83991
64.53	162.66721
64.749	-77.65156
64.968	-79.94986
65.187	-162.81182
65.405	-15.66657
65.624	55.33885
65.843	-17.95994
66.062	139.86378
66.281	59.91394
66.499	-84.54701
66.718	-86.84586
66.937	-107.54381
67.156	2.67394
67.374	240.06987
67.593	144.42586
67.812	0.38201
68.03	244.61682
68.249	55.33885
68.467	75.92119
68.686	107.90969
68.905	258.25357
69.123	-112.14539
69.342	-79.94986
69.56	-43.19905
69.779	-56.97511
69.997	192.28579
70.216	-11.08036
70.434	23.29323
70.652	142.14491
70.871	103.34202
71.089	18.71242
71.307	-146.68089
71.526	-91.44411
71.744	-107.54381
71.962	-116.74771
72.181	-34.01865
72.399	-123.65257
72.617	73.63497
72.835	144.42586
73.054	-148.98475
73.272	276.42643
73.49	-137.46733
73.708	-4.2024
73.926	-93.74351
74.144	46.18653
74.362	80.49309
74.58	7.25726
74.798	37.03135
75.016	75.92119
75.234	9.54865
75.452	55.33885
75.67	-13.37337
75.888	55.33885
76.106	358.07158
76.324	-105.2433
76.542	-119.04914
76.76	169.50486
76.978	89.63477
77.196	-174.33953
77.413	-17.95994
77.631	114.75988
77.849	-91.44411
78.067	-22.54724
78.284	-125.95457
78.502	53.05104
78.72	-107.54381
78.938	-24.84116
79.155	-84.54701
79.373	98.77364
79.59	43.898
79.808	299.12736
80.026	-77.65156
80.243	30.16309
80.461	246.89003
80.678	230.97395
80.896	0.38201
81.113	-93.74351
81.331	-183.56508
81.548	848.0572
81.766	-20.2535
81.983	287.779
82.2	69.062
82.418	-63.86561
82.635	203.6698
82.852	504.94731
83.07	249.16308
83.287	4.96569
83.504	9.54865
83.722	114.75988
83.939	155.82801
84.156	242.34343
84.373	-29.42954
84.591	32.45269
84.808	39.32041
85.025	91.91976
85.242	25.58336
85.459	2.67394
85.676	110.19326
85.893	-109.84451
86.11	-22.54724
86.327	315.00803
86.544	-59.27176
86.761	164.9466
86.978	91.91976
87.195	-1.91011
87.412	-27.13526
87.629	-8.78752
87.846	4.96569
88.063	339.94686
88.28	48.47487
88.497	-47.79034
88.713	2.67394
88.93	-93.74351
89.147	-38.60849
89.364	94.20456
89.58	78.20723
89.797	53.05104
90.014	-24.84116
90.231	153.54792
90.447	-29.42954
90.664	139.86378
90.881	-70.75776
91.097	240.06987
91.314	112.47666
91.53	-105.2433
91.747	110.19326
91.963	-172.03361
92.18	-40.90368
92.396	114.75988
92.613	80.49309
92.829	-56.97511
93.046	-73.05551
93.262	-43.19905
93.479	73.63497
93.695	-24.84116
93.911	9.54865
94.128	-148.98475
94.344	183.17549
94.56	85.06428
94.777	-144.37722
94.993	-29.42954
95.209	-128.25675
95.426	462.08509
95.642	-208.95092
95.858	151.26767
96.074	48.47487
96.29	-84.54701
96.506	-102.94297
96.723	308.20303
96.939	-107.54381
97.155	2.67394
97.371	-119.04914
97.587	-153.59302
97.803	43.898
98.019	66.77525
98.235	219.60021
98.451	-70.75776
98.667	335.41403
98.883	80.49309
99.099	-109.84451
99.315	-89.14489
99.53	135.30101
99.746	-31.724
99.962	7.25726
100.178	185.45332
100.394	21.00291
100.61	98.77364
100.825	-109.84451
101.041	162.66721
101.257	-82.24834
101.473	71.34857
101.688	-11.08036
101.904	-47.79034
102.12	-59.27176
102.335	-114.44645
102.551	-61.5686
102.766	71.34857
102.982	-146.68089
103.198	135.30101
103.413	39.32041
103.629	-142.07374
103.844	43.898
104.06	110.19326
104.275	190.00847
104.49	237.79615
104.706	87.34962
104.921	2577.51504
105.137	80.49309
105.352	64.48833
105.567	-105.2433
105.783	139.86378
105.998	78.20723
106.213	139.86378
106.429	-128.25675
106.644	105.62594
106.859	-29.42954
107.074	498.18343
107.29	107.90969
107.505	-245.91676
107.72	269.61288
107.935	235.52225
108.15	174.06243
108.365	-188.17899
108.58	11.83986
108.795	89.63477
109.01	-43.19905
109.226	-47.79034
109.441	351.27605
109.656	-50.08626
109.871	228.69954
110.085	-135.1644
110.3	34.74211
110.515	82.77877
110.73	128.45554
110.945	82.77877
111.16	142.14491
111.375	-151.28879
111.59	-109.84451
111.804	-84.54701
112.019	-66.16281
112.234	-158.20204
112.449	-45.4946
112.663	174.06243
112.878	164.9466
113.093	-98.34287
113.308	110.19326
113.522	66.77525
113.737	-188.17899
113.951	-11.08036
114.166	87.34962
114.381	139.86378
114.595	50.76304
114.81	237.79615
115.024	25.58336
115.239	-82.24834
115.453	-287.56188
115.668	-54.67865
115.882	-96.0431
116.097	-144.37722
116.311	-204.33361
116.525	27.87332
116.74	-266.73153
116.954	290.049
117.169	9.54865
117.383	176.34095
117.597	-56.97511
117.811	-86.84586
118.026	265.06966
118.24	242.34343
118.454	18.71242
118.668	287.779
118.883	-56.97511
119.097	155.82801
119.311	-52.38236
119.525	-165.11698
119.739	-13.37337
119.953	-66.16281
120.167	294.58852
120.381	-34.01865
120.595	137.58248
120.809	-54.67865
121.023	-77.65156
121.237	-112.14539
121.451	-102.94297
121.665	25.58336
121.879	48.47487
122.093	151.26767
122.307	-250.54092
122.521	-61.5686
122.735	215.04952
122.949	-47.79034
123.163	-204.33361
123.376	-13.37337
123.59	376.18574
123.804	78.20723
124.018	-132.86167
124.231	34.74211
124.445	-89.14489
124.659	224.15022
124.872	190.00847
125.086	244.61682
125.3	-123.65257
125.513	59.91394
125.727	146.70664
125.94	64.48833
126.154	-98.34287
126.368	-84.54701
126.581	-43.19905
126.795	-112.14539
127.008	-211.25986
127.222	-112.14539
127.435	-144.37722
127.648	-54.67865
127.862	82.77877
128.075	-8.78752
128.289	-17.95994
128.502	-172.03361
128.715	-70.75776
128.929	-105.2433
129.142	-43.19905
129.355	39.32041
129.568	-36.31348
129.782	-73.05551
129.995	160.38765
130.208	-84.54701
130.421	39.32041
130.634	50.76304
130.848	153.54792
131.061	441.76169
131.274	185.45332
131.487	-59.27176
131.7	0.38201
131.913	178.6193
132.126	-84.54701
132.339	280.96796
132.552	371.65819
132.765	133.01936
132.978	162.66721
133.191	89.63477
133.404	-66.16281
133.617	-178.95193
133.83	-1.91011
134.043	-285.24662
134.255	-89.14489
134.468	146.70664
134.681	114.75988
134.894	-105.2433
135.107	-34.01865
135.319	30.16309
135.532	-75.35344
135.745	7.25726
135.958	-73.05551
136.17	80.49309
136.383	119.3258
136.596	-96.0431
136.808	-93.74351
137.021	39.32041
137.233	-75.35344
137.446	-75.35344
137.659	-162.81182
137.871	453.05408
138.084	151.26767
138.296	262.7978
138.509	-61.5686
138.721	-84.54701
138.934	-132.86167
139.146	89.63477
139.358	-27.13526
139.571	448.53761
139.783	123.89102
139.996	9.54865
140.208	-4.2024
140.42	196.83991
140.632	-63.86561
140.845	50.76304
141.057	-116.74771
141.269	80.49309
141.481	0.38201
141.694	-197.40907
141.906	-128.25675
142.118	-6.49487
142.33	142.14491
142.542	23.29323
142.754	55.33885
142.967	194.56293
143.179	-82.24834
143.391	280.96796
143.603	59.91394
143.815	153.54792
144.027	-142.07374
144.239	269.61288
144.451	14.1309
144.663	-50.08626
144.875	123.89102
145.086	271.88423
145.298	14.1309
145.51	-199.71706
145.722	142.14491
145.934	-119.04914
146.146	133.01936
146.358	34.74211
146.569	-89.14489
146.781	27.87332
146.993	-215.8783
147.205	142.14491
147.416	-56.97511
147.628	-31.724
147.84	41.6093
148.051	-202.02524
148.263	27.87332
148.475	-121.35077
148.686	-160.50684
148.898	160.38765
149.109	66.77525
149.321	-255.16585
149.532	-4.2024
149.744	280.96796
149.955	53.05104
150.167	-119.04914
150.378	-52.38236
150.59	-93.74351
150.801	-15.66657
151.013	0.38201
151.224	-29.42954
151.435	-63.86561
151.647	401.07553
151.858	32.45269
152.069	82.77877
152.281	-29.42954
152.492	119.3258
152.703	-128.25675
152.914	57.62649
153.126	-190.48623
153.337	46.18653
153.548	-82.24834
153.759	-17.95994
153.97	-121.35077
154.181	2.67394
154.392	121.6085
154.604	-123.65257
154.815	-52.38236
155.026	7.25726
155.237	148.98724
155.448	267.34135
155.659	237.79615
155.87	103.34202
156.081	253.70866
156.292	-137.46733
156.502	-61.5686
156.713	148.98724
156.924	25.58336
157.135	-218.18781
157.346	87.34962
157.557	235.52225
157.768	50.76304
157.978	-151.28879
158.189	-116.74771
158.4	-155.89744
158.611	117.04293
158.821	228.69954
159.032	23.29323
159.243	130.73754
159.453	66.77525
159.664	-112.14539
159.875	158.10792
160.085	-24.84116
160.296	48.47487
160.507	-34.01865
160.717	-144.37722
160.928	98.77364
161.138	-301.45746
161.349	103.34202
161.559	2.67394
161.77	-89.14489
161.98	-45.4946
162.19	114.75988
162.401	2.67394
162.611	283.23848
162.822	80.49309
163.032	-70.75776
163.242	-68.46019
163.453	39.32041
163.663	-241.29336
163.873	176.34095
164.084	-45.4946
164.294	0.38201
164.504	135.30101
164.714	-158.20204
164.924	153.54792
165.135	-181.25841
165.345	80.49309
165.555	-11.08036
165.765	139.86378
165.975	215.04952
166.185	-66.16281
166.395	25.58336
166.605	110.19326
166.815	-13.37337
167.025	-27.13526
167.235	-56.97511
167.445	-151.28879
167.655	-130.55911
167.865	-132.86167
168.075	-52.38236
168.285	82.77877
168.495	23.29323
168.705	53.05104
168.915	167.22582
169.124	43.898
169.334	57.62649
169.544	-148.98475
169.754	-73.05551
169.964	219.60021
170.173	199.11671
170.383	121.6085
170.593	-213.56899
170.802	82.77877
171.012	-89.14489
171.222	-202.02524
171.431	-232.04885
171.641	-82.24834
171.851	-139.77044
172.06	-188.17899
172.27	-59.27176
172.479	55.33885
172.689	-47.79034
172.898	98.77364
173.108	-84.54701
173.317	353.5414
173.527	-84.54701
173.736	-38.60849
173.945	237.79615
174.155	71.34857
174.364	37.03135
174.574	153.54792
174.783	-54.67865
174.992	53.05104
175.202	308.20303
175.411	171.78373
175.62	-107.54381
175.829	-151.28879
176.039	-11.08036
176.248	151.26767
176.457	-29.42954
176.666	450.79593
176.875	-70.75776
177.084	50.76304
177.294	25.58336
177.503	11.83986
177.712	276.42643
177.921	130.73754
178.13	-8.78752
178.339	-144.37722
178.548	-178.95193
178.757	-116.74771
178.966	130.73754
179.175	7.25726
179.384	-82.24834
179.593	-8.78752
179.802	-294.5088
180.011	46.18653
180.219	123.89102
180.428	-52.38236
180.637	-59.27176
180.846	196.83991
181.055	-116.74771
181.263	-162.81182
181.472	7.25726
181.681	-17.95994
181.89	158.10792
182.098	249.16308
182.307	-20.2535
182.516	80.49309
182.724	-102.94297
182.933	121.6085
183.142	107.90969
183.35	151.26767
183.559	66.77525
183.767	-75.35344
183.976	-43.19905
184.184	30.16309
184.393	48.47487
184.601	21.00291
184.81	69.062
185.018	194.56293
185.227	43.898
185.435	0.38201
185.644	-123.65257
185.852	-116.74771
186.06	91.91976
186.269	-8.78752
186.477	91.91976
186.685	82.77877
186.894	201.39334
187.102	-84.54701
187.31	43.898
187.518	112.47666
187.727	-56.97511
187.935	-162.81182
188.143	-165.11698
188.351	262.7978
188.559	-91.44411
188.768	101.05792
188.976	32.45269
189.184	75.92119
189.392	117.04293
189.6	146.70664
189.808	324.07903
190.016	39.32041
190.224	-84.54701
190.432	66.77525
190.64	-202.02524
190.848	-24.84116
191.056	94.20456
191.264	53.05104
191.472	-128.25675
191.679	25.58336
191.887	119.3258
192.095	-238.98195
192.303	71.34857
192.511	87.34962
192.719	-45.4946
192.926	80.49309
193.134	-250.54092
193.342	0.38201
193.55	178.6193
193.757	30.16309
193.965	46.18653
194.173	212.77392
194.38	4.96569
194.588	-220.49751
194.796	-75.35344
195.003	121.6085
195.211	23.29323
195.418	-43.19905
195.626	-121.35077
195.833	228.69954
196.041	98.77364
196.248	-11.08036
196.456	62.20123
196.663	335.41403
196.871	-225.11748
197.078	82.77877
197.285	21.00291
197.493	-73.05551
197.7	292.31884
197.908	139.86378
198.115	-98.34287
198.322	-121.35077
198.529	-36.31348
198.737	-172.03361
198.944	-172.03361
199.151	-82.24834
199.358	-79.94986
199.566	-169.72788
199.773	-15.66657
199.98	59.91394
200.187	-27.13526
200.394	73.63497
200.601	75.92119
200.809	-43.19905
201.016	-20.2535
201.223	130.73754
201.43	-139.77044
201.637	-86.84586
201.844	-206.64217
202.051	-315.36003
202.258	142.14491
202.465	-112.14539
202.672	-172.03361
202.878	-8.78752
203.085	18.71242
203.292	-20.2535
203.499	107.90969
203.706	69.062
203.913	-130.55911
204.12	-63.86561
204.326	-29.42954
204.533	-8.78752
204.74	87.34962
204.947	96.48919
205.153	151.26767
205.36	55.33885
205.567	64.48833
205.773	-181.25841
205.98	237.79615
206.187	-29.42954
206.393	50.76304
206.6	46.18653
206.806	-54.67865
207.013	18.71242
207.22	62.20123
207.426	-52.38236
207.633	37.03135
207.839	23.29323
208.046	0.38201
208.252	-38.60849
208.458	117.04293
208.665	55.33885
208.871	-125.95457
209.078	516.21727
209.284	-56.97511
209.49	-47.79034
209.697	-222.8074
209.903	-130.55911
210.109	-100.64283
210.316	139.86378
210.522	43.898
210.728	-70.75776
210.934	507.20162
211.14	-29.42954
211.347	-181.25841
211.553	155.82801
211.759	-24.84116
211.965	176.34095
212.171	-22.54724
212.377	380.71263
212.583	73.63497
212.789	-116.74771
212.996	4.96569
213.202	403.33726
213.408	41.6093
213.614	4.96569
213.82	11.83986
214.025	39.32041
214.231	27.87332
214.437	-125.95457
214.643	78.20723
214.849	112.47666
215.055	87.34962
215.261	-50.08626
215.467	-75.35344
215.672	164.9466
215.878	155.82801
216.084	-188.17899
216.29	180.89748
216.496	139.86378
216.701	89.63477
216.907	-130.55911
217.113	78.20723
217.318	107.90969
217.524	251.43596
217.73	123.89102
217.935	89.63477
218.141	219.60021
218.346	262.7978
218.552	78.20723
218.758	258.25357
218.963	151.26767
219.169	326.34636
219.374	267.34135
219.58	-36.31348
219.785	87.34962
219.991	308.20303
220.196	-174.33953
220.401	57.62649
220.607	71.34857
220.812	240.06987
221.017	2.67394
221.223	133.01936
221.428	55.33885
221.633	144.42586
221.839	96.48919
222.044	-222.8074
222.249	162.66721
222.454	137.58248
222.66	7.25726
222.865	160.38765
223.07	178.6193
223.275	73.63497
223.48	-1.91011
223.686	73.63497
223.891	-130.55911
224.096	30.16309
224.301	30.16309
224.506	-20.2535
224.711	176.34095
224.916	155.82801
225.121	-13.37337
225.326	-273.67325
225.531	-222.8074
225.736	43.898
225.941	-79.94986
226.146	-31.724
226.351	101.05792
226.555	148.98724
226.76	-20.2535
226.965	0.38201
227.17	-190.48623
227.375	37.03135
227.58	-125.95457
227.784	-59.27176
227.989	-178.95193
228.194	21.00291
228.399	169.50486
228.603	23.29323
228.808	174.06243
229.013	85.06428
229.217	98.77364
229.422	-13.37337
229.627	-185.87194
229.831	101.05792
230.036	162.66721
230.24	-153.59302
230.445	39.32041
230.649	62.20123
230.854	267.34135
231.058	98.77364
231.263	-15.66657
231.467	103.34202
231.672	-121.35077
231.876	-125.95457
232.081	32.45269
232.285	135.30101
232.489	-66.16281
232.694	-11.08036
232.898	-40.90368
233.102	228.69954
233.307	-116.74771
233.511	-52.38236
233.715	205.94609
233.919	196.83991
234.124	-86.84586
234.328	-167.42234
234.532	328.61352
234.736	285.50882
234.94	48.47487
235.145	30.16309
235.349	137.58248
235.553	192.28579
235.757	75.92119
235.961	-79.94986
236.165	-17.95994
236.369	235.52225
236.573	-34.01865
236.777	-139.77044
236.981	-45.4946
237.185	305.93436
237.389	-123.65257
237.593	-132.86167
237.797	75.92119
238.001	148.98724
238.205	274.15542
238.409	-11.08036
238.612	-162.81182
238.816	423.68546
239.02	-15.66657
239.224	-232.04885
239.428	201.39334
239.631	46.18653
239.835	94.20456
240.039	-82.24834
240.243	89.63477
240.446	392.02699
240.65	-188.17899
240.854	-322.31393
241.057	-13.37337
241.261	69.062
241.464	-105.2433
241.668	267.34135
241.872	-102.94297
242.075	39.32041
242.279	-38.60849
242.482	-43.19905
242.686	66.77525
242.889	34.74211
243.093	80.49309
243.296	253.70866
243.499	-79.94986
243.703	265.06966
243.906	-66.16281
244.11	-24.84116
244.313	69.062
244.516	-6.49487
244.72	230.97395
244.923	59.91394
245.126	121.6085
245.33	48.47487
245.533	-167.42234
245.736	-245.91676
245.939	2.67394
246.142	171.78373
246.346	-66.16281
246.549	-84.54701
246.752	-17.95994
246.955	135.30101
247.158	82.77877
247.361	59.91394
247.564	98.77364
247.767	230.97395
247.971	11.83986
248.174	30.16309
248.377	-17.95994
248.58	57.62649
248.783	46.18653
248.985	-45.4946
249.188	258.25357
249.391	-24.84116
249.594	-102.94297
249.797	-75.35344
250	203.6698
250.203	30.16309
250.406	-116.74771
250.609	-36.31348
250.811	-1.91011
251.014	96.48919
251.217	-271.35915
251.42	-15.66657
251.622	367.12998
251.825	226.42497
252.028	-121.35077
252.231	-54.67865
252.433	53.05104
252.636	53.05104
252.838	73.63497
253.041	432.72487
253.244	151.26767
253.446	385.23887
253.649	-52.38236
253.851	176.34095
254.054	-93.74351
254.256	117.04293
254.459	-132.86167
254.661	48.47487
254.864	-17.95994
255.066	360.33643
255.269	-100.64283
255.471	262.7978
255.673	199.11671
255.876	-43.19905
256.078	-27.13526
256.281	-24.84116
256.483	119.3258
256.685	-36.31348
256.887	-119.04914
257.09	71.34857
257.292	-137.46733
257.494	224.15022
257.696	-61.5686
257.899	-61.5686
258.101	371.65819
258.303	119.3258
258.505	-20.2535
258.707	80.49309
258.909	-22.54724
259.111	-158.20204
259.314	-86.84586
259.516	-132.86167
259.718	328.61352
259.92	-165.11698
260.122	98.77364
260.324	-93.74351
260.526	178.6193
260.728	-24.84116
260.93	71.34857
261.131	-130.55911
261.333	-195.10126
261.535	105.62594
261.737	-132.86167
261.939	-8.78752
262.141	25.58336
262.343	64.48833
262.544	-15.66657
262.746	103.34202
262.948	-188.17899
263.15	-112.14539
263.352	-77.65156
263.553	-27.13526
263.755	-192.79365
263.957	260.52577
264.158	119.3258
264.36	-34.01865
264.562	112.47666
264.763	-195.10126
264.965	-119.04914
265.166	-63.86561
265.368	-40.90368
265.569	114.75988
265.771	-36.31348
265.972	146.70664
266.174	7.25726
266.375	25.58336
266.577	-13.37337
266.778	-24.84116
266.98	364.86563
267.181	-139.77044
267.383	-151.28879
267.584	-45.4946
267.785	-59.27176
267.987	-100.64283
268.188	4.96569
268.389	180.89748
268.591	-45.4946
268.792	-84.54701
268.993	91.91976
269.194	-148.98475
269.396	201.39334
269.597	237.79615
269.798	39.32041
269.999	18.71242
270.2	11.83986
270.401	-98.34287
270.603	-8.78752
270.804	176.34095
271.005	203.6698
271.206	-6.49487
271.407	71.34857
271.608	139.86378
271.809	-63.86561
272.01	75.92119
272.211	-6.49487
272.412	-17.95994
272.613	98.77364
272.814	-208.95092
273.015	-50.08626
273.216	-102.94297
273.416	103.34202
273.617	34.74211
273.818	-34.01865
274.019	41.6093
274.22	-82.24834
274.421	244.61682
274.621	75.92119
274.822	-105.2433
275.023	107.90969
275.224	-11.08036
275.424	135.30101
275.625	-174.33953
275.826	-11.08036
276.026	27.87332
276.227	46.18653
276.428	274.15542
276.628	-24.84116
276.829	43.898
277.029	57.62649
277.23	23.29323
277.43	-40.90368
277.631	240.06987
277.831	-98.34287
278.032	-167.42234
278.232	-8.78752
278.433	7.25726
278.633	183.17549
278.834	73.63497
279.034	144.42586
279.234	80.49309
279.435	-167.42234
279.635	194.56293
279.835	103.34202
280.036	-59.27176
280.236	-1.91011
280.436	-56.97511
280.637	-229.7382
280.837	176.34095
281.037	-119.04914
281.237	121.6085
281.438	39.32041
281.638	-24.84116
281.838	23.29323
282.038	-24.84116
282.238	133.01936
282.438	174.06243
282.638	-4.2024
282.838	85.06428
283.038	-38.60849
283.239	-47.79034
283.439	59.91394
283.639	267.34135
283.839	-100.64283
284.039	57.62649
284.238	203.6698
284.438	-114.44645
284.638	-82.24834
284.838	27.87332
285.038	-52.38236
285.238	-100.64283
285.438	-4.2024
285.638	96.48919
285.838	-24.84116
286.037	-6.49487
286.237	-11.08036
286.437	-91.44411
286.637	-121.35077
286.836	-132.86167
287.036	50.76304
287.236	16.42175
287.436	-96.0431
287.635	258.25357
287.835	21.00291
288.034	-93.74351
288.234	96.48919
288.434	91.91976
288.633	37.03135
288.833	-178.95193
289.032	-160.50684
289.232	103.34202
289.431	-153.59302
289.631	-54.67865
289.83	-1.91011
290.03	30.16309
290.229	-102.94297
290.429	25.58336
290.628	55.33885
290.828	-91.44411
291.027	-6.49487
291.226	23.29323
291.426	-43.19905
291.625	39.32041
291.824	-66.16281
292.024	146.70664
292.223	-36.31348
292.422	82.77877
292.621	-128.25675
292.821	-135.1644
293.02	-112.14539
293.219	64.48833
293.418	203.6698
293.617	50.76304
293.817	-119.04914
294.016	215.04952
294.215	208.2222
294.414	-158.20204
294.613	-70.75776
294.812	50.76304
295.011	-169.72788
295.21	133.01936
295.409	57.62649
295.608	-36.31348
295.807	-181.25841
296.006	21.00291
296.205	-142.07374
296.404	212.77392
296.603	-20.2535
296.802	155.82801
297.001	2.67394
297.2	71.34857
297.398	-29.42954
297.597	43.898
297.796	-123.65257
297.995	-135.1644
298.194	80.49309
298.392	34.74211
298.591	-15.66657
298.79	-107.54381
298.988	299.12736
299.187	-70.75776
299.386	62.20123
299.585	57.62649
299.783	217.32495
299.982	-15.66657
300.18	-112.14539
300.379	126.17337
300.578	-89.14489
300.776	-169.72788
300.975	-119.04914
301.173	11.83986
301.372	7.25726
301.57	217.32495
301.769	-229.7382
301.967	110.19326
302.166	169.50486
302.364	-165.11698
302.562	75.92119
302.761	144.42586
302.959	0.38201
303.157	53.05104
303.356	-137.46733
303.554	91.91976
303.752	226.42497
303.951	32.45269
304.149	178.6193
304.347	-47.79034
304.546	-56.97511
304.744	142.14491
304.942	117.04293
305.14	-218.18781
305.338	2.67394
305.536	64.48833
305.735	11.83986
305.933	-190.48623
306.131	-206.64217
306.329	-229.7382
306.527	-139.77044
306.725	-36.31348
306.923	64.48833
307.121	107.90969
307.319	-56.97511
307.517	-73.05551
307.715	162.66721
307.913	353.5414
308.111	-50.08626
308.309	-116.74771
308.507	14.1309
308.705	-47.79034
308.903	103.34202
309.1	-162.81182
309.298	39.32041
309.496	-52.38236
309.694	107.90969
309.892	-183.56508
310.089	-31.724
310.287	-56.97511
310.485	-34.01865
310.683	-121.35077
310.88	-43.19905
311.078	18.71242
311.276	48.47487
311.473	-155.89744
311.671	2.67394
311.869	39.32041
312.066	25.58336
312.264	-15.66657
312.461	139.86378
312.659	89.63477
312.856	319.54386
313.054	-38.60849
313.251	0.38201
313.449	219.60021
313.646	-218.18781
313.844	-130.55911
314.041	-1.91011
314.239	164.9466
314.436	62.20123
314.634	308.20303
314.831	-8.78752
315.028	-167.42234
315.226	27.87332
315.423	233.24819
315.62	-105.2433
315.817	2.67394
316.015	94.20456
316.212	-148.98475
316.409	57.62649
316.606	-54.67865
316.804	-91.44411
317.001	-176.64563
317.198	158.10792
317.395	142.14491
317.592	-31.724
317.789	98.77364
317.987	-29.42954
318.184	-285.24662
318.381	55.33885
318.578	66.77525
318.775	-109.84451
318.972	-1.91011
319.169	-82.24834
319.366	80.49309
319.563	121.6085
319.76	203.6698
319.957	-70.75776
320.154	-36.31348
320.351	-47.79034
320.547	53.05104
320.744	96.48919
320.941	360.33643
321.138	9.54865
321.335	98.77364
321.532	-176.64563
321.728	-112.14539
321.925	-8.78752
322.122	69.062
322.319	-1.91011
322.515	-52.38236
322.712	85.06428
322.909	-227.42775
323.105	-241.29336
323.302	11.83986
323.499	262.7978
323.695	14.1309
323.892	25.58336
324.089	-73.05551
324.285	-130.55911
324.482	-153.59302
324.678	-158.20204
324.875	-213.56899
325.071	121.6085
325.268	-75.35344
325.464	-195.10126
325.661	-82.24834
325.857	153.54792
326.054	-98.34287
326.25	4.96569
326.446	276.42643
326.643	43.898
326.839	-93.74351
327.035	-123.65257
327.232	199.11671
327.428	-75.35344
327.624	-139.77044
327.821	41.6093
328.017	-56.97511
328.213	-22.54724
328.409	-77.65156
328.606	-63.86561
328.802	121.6085
328.998	-172.03361
329.194	-102.94297
329.39	110.19326
329.586	-47.79034
329.783	78.20723
329.979	112.47666
330.175	-8.78752
330.371	-59.27176
330.567	205.94609
330.763	185.45332
330.959	-132.86167
331.155	-43.19905
331.351	71.34857
331.547	358.07158
331.743	-202.02524
331.939	-123.65257
332.135	-100.64283
332.33	305.93436
332.526	-66.16281
332.722	-271.35915
332.918	0.38201
333.114	-100.64283
333.31	160.38765
333.506	183.17549
333.701	162.66721
333.897	-24.84116
334.093	32.45269
334.289	-102.94297
334.484	271.88423
334.68	80.49309
334.876	-47.79034
335.071	43.898
335.267	-112.14539
335.463	114.75988
335.658	112.47666
335.854	-181.25841
336.049	14.1309
336.245	87.34962
336.441	48.47487
336.636	21.00291
336.832	80.49309
337.027	94.20456
337.223	-285.24662
337.418	71.34857
337.613	32.45269
337.809	135.30101
338.004	-40.90368
338.2	-107.54381
338.395	-181.25841
338.591	-174.33953
338.786	-181.25841
338.981	-89.14489
339.177	-91.44411
339.372	-128.25675
339.567	78.20723
339.762	-34.01865
339.958	-119.04914
340.153	-66.16281
340.348	2419.05885
340.543	-116.74771
340.739	-45.4946
340.934	-63.86561
341.129	-38.60849
341.324	2.67394
341.519	-13.37337
341.714	-148.98475
341.909	-73.05551
342.104	-66.16281
342.299	-27.13526
342.495	-50.08626
342.69	-202.02524
342.885	7.25726
343.08	1313.47746
343.275	205.94609
343.469	-11.08036
343.664	174.06243
343.859	41.6093
344.054	-158.20204
344.249	-299.14105
344.444	11.83986
344.639	-121.35077
344.834	-40.90368
345.029	-144.37722
345.223	271.88423
345.418	-86.84586
345.613	-190.48623
345.808	205.94609
346.003	-75.35344
346.197	103.34202
346.392	48.47487
346.587	64.48833
346.781	-119.04914
346.976	11.83986
347.171	217.32495
347.365	-114.44645
347.56	-139.77044
347.755	89.63477
347.949	-22.54724
348.144	64.48833
348.338	0.38201
348.533	16.42175
348.727	64.48833
348.922	-213.56899
349.116	30.16309
349.311	-13.37337
349.505	-63.86561
349.7	-167.42234
349.894	-195.10126
350.089	53.05104
350.283	2.67394
350.477	-204.33361
350.672	-59.27176
350.866	180.89748
351.06	169.50486
351.255	91.91976
351.449	7.25726
351.643	258.25357
351.837	-1.91011
352.032	-262.10468
352.226	-52.38236
352.42	-1.91011
352.614	64.48833
352.809	123.89102
353.003	62.20123
353.197	-86.84586
353.391	-73.05551
353.585	155.82801
353.779	-197.40907
353.973	437.24361
354.167	110.19326
354.361	-31.724
354.555	55.33885
354.749	-109.84451
354.943	-20.2535
355.137	-75.35344
355.331	-75.35344
355.525	-287.56188
355.719	126.17337
355.913	-34.01865
356.107	-158.20204
356.301	-15.66657
356.495	107.90969
356.689	85.06428
356.883	-107.54381
357.076	-174.33953
357.27	-139.77044
357.464	30.16309
357.658	-24.84116
357.852	94.20456
358.045	-8.78752
358.239	-89.14489
358.433	-27.13526
358.626	89.63477
358.82	34.74211
359.014	43.898
359.207	-54.67865
359.401	-59.27176
359.595	-73.05551
359.788	-6.49487
359.982	-17.95994
360.175	-4.2024
360.369	71.34857
360.563	-195.10126
360.756	-146.68089
360.95	387.50174
361.143	-220.49751
361.336	-213.56899
361.53	-190.48623
361.723	4.96569
361.917	64.48833
362.11	-185.87194
362.304	-142.07374
362.497	59.91394
362.69	180.89748
362.884	32.45269
363.077	-91.44411
363.27	-130.55911
363.464	73.63497
363.657	-59.27176
363.85	-22.54724
364.043	41.6093
364.237	69.062
364.43	7.25726
364.623	139.86378
364.816	-121.35077
365.009	-50.08626
365.202	-130.55911
365.396	2.67394
365.589	-4.2024
365.782	-13.37337
365.975	-146.68089
366.168	-1.91011
366.361	-20.2535
366.554	-43.19905
366.747	98.77364
366.94	-107.54381
367.133	-24.84116
367.326	71.34857
367.519	2.67394
367.712	-275.98754
367.905	155.82801
368.098	-24.84116
368.291	130.73754
368.484	57.62649
368.676	-52.38236
368.869	-86.84586
369.062	-98.34287
369.255	-22.54724
369.448	57.62649
369.64	190.00847
369.833	-22.54724
370.026	-162.81182
370.219	130.73754
370.411	-11.08036
370.604	-17.95994
370.797	-195.10126
370.989	-22.54724
371.182	-227.42775
371.375	-22.54724
371.567	4.96569
371.76	-158.20204
371.952	123.89102
372.145	-43.19905
372.338	-13.37337
372.53	-82.24834
372.723	-102.94297
372.915	-158.20204
373.108	-31.724
373.3	43.898
373.493	-36.31348
373.685	-75.35344
373.877	-52.38236
374.07	-8.78752
374.262	37.03135
374.455	-38.60849
374.647	-218.18781
374.839	137.58248
375.032	32.45269
375.224	73.63497
375.416	-11.08036
375.609	1699.10352
375.801	0.38201
375.993	-84.54701
376.185	-11.08036
376.378	-15.66657
376.57	85.06428
376.762	158.10792
376.954	2.67394
377.146	180.89748
377.338	-36.31348
377.53	-135.1644
377.723	71.34857
377.915	71.34857
378.107	91.91976
378.299	-100.64283
378.491	107.90969
378.683	98.77364
378.875	-36.31348
379.067	135.30101
379.259	-59.27176
379.451	-45.4946
379.643	37.03135
379.835	-93.74351
380.027	-123.65257
380.219	-4.2024
380.41	-6.49487
380.602	-155.89744
380.794	-289.87732
380.986	-116.74771
381.178	101.05792
381.37	-190.48623
381.561	-79.94986
381.753	385.23887
381.945	-50.08626
382.137	-213.56899
382.328	-116.74771
382.52	-197.40907
382.712	-54.67865
382.903	144.42586
383.095	-79.94986
383.287	-303.77407
383.478	34.74211
383.67	-178.95193
383.862	-6.49487
384.053	212.77392
384.245	9.54865
384.436	255.9812
384.628	30.16309
384.819	-146.68089
385.011	25.58336
385.202	75.92119
385.394	-54.67865
385.585	299.12736
385.777	-137.46733
385.968	-6.49487
386.159	-54.67865
386.351	-54.67865
386.542	185.45332
386.734	155.82801
386.925	-169.72788
387.116	-220.49751
387.308	-1.91011
387.499	-167.42234
387.69	11.83986
387.881	158.10792
388.073	-15.66657
388.264	251.43596
388.455	-257.4786
388.646	230.97395
388.837	16.42175
389.029	85.06428
389.22	-148.98475
389.411	-227.42775
389.602	9.54865
389.793	-61.5686
389.984	-24.84116
390.175	180.89748
390.366	43.898
390.557	-197.40907
390.748	-22.54724
390.939	-24.84116
391.13	78.20723
391.321	-82.24834
391.512	2.67394
391.703	105.62594
391.894	-17.95994
392.085	-148.98475
392.276	-29.42954
392.467	-102.94297
392.658	121.6085
392.849	-264.41801
393.039	2.67394
393.23	176.34095
393.421	75.92119
393.612	-17.95994
393.803	-98.34287
393.993	278.69728
394.184	103.34202
394.375	123.89102
394.566	-183.56508
394.756	-181.25841
394.947	78.20723
395.138	23.29323
395.328	-75.35344
395.519	244.61682
395.709	-8.78752
395.9	2.67394
396.091	-123.65257
396.281	-8.78752
396.472	55.33885
396.662	-84.54701
396.853	-208.95092
397.043	162.66721
397.234	-6.49487
397.424	-185.87194
397.615	-20.2535
397.805	-68.46019
397.996	-123.65257
398.186	18.71242
398.376	25.58336
398.567	30.16309
398.757	-109.84451
398.947	-142.07374
399.138	230.97395
399.328	-54.67865
399.518	-220.49751
399.709	-45.4946
399.899	-56.97511
400.089	-66.16281
400.279	27.87332
400.47	82.77877
400.66	-54.67865
400.85	82.77877
401.04	228.69954
401.23	267.34135
401.421	192.28579
401.611	-169.72788
401.801	-54.67865
401.991	-86.84586
402.181	112.47666
402.371	-4.2024
402.561	158.10792
402.751	-172.03361
402.941	180.89748
403.131	73.63497
403.321	91.91976
403.511	-82.24834
403.701	59.91394
403.891	-148.98475
404.081	-70.75776
404.271	-93.74351
404.461	75.92119
404.651	-96.0431
404.84	180.89748
405.03	-160.50684
405.22	73.63497
405.41	21.00291
405.6	233.24819
405.789	110.19326
405.979	64.48833
406.169	-6.49487
406.359	-79.94986
406.548	-66.16281
406.738	-20.2535
406.928	137.58248
407.118	146.70664
407.307	48.47487
407.497	-208.95092
407.686	260.52577
407.876	-86.84586
408.066	-68.46019
408.255	-29.42954
408.445	16.42175
408.634	-47.79034
408.824	-61.5686
409.013	-229.7382
409.203	91.91976
409.392	14.1309
409.582	-40.90368
409.771	-222.8074
409.961	0.38201
410.15	-6.49487
410.34	246.89003
410.529	-121.35077
410.718	103.34202
410.908	190.00847
411.097	-169.72788
411.286	-68.46019
411.476	-109.84451
411.665	11.83986
411.854	4.96569
412.044	-1.91011
412.233	27.87332
412.422	126.17337
412.611	39.32041
412.8	73.63497
412.99	-43.19905
413.179	-43.19905
413.368	-91.44411
413.557	-61.5686
413.746	-96.0431
413.935	-20.2535
414.124	-208.95092
414.313	43.898
414.503	-190.48623
414.692	32.45269
414.881	183.17549
415.07	-24.84116
415.259	9.54865
415.448	66.77525
415.637	-61.5686
415.826	-148.98475
416.015	-89.14489
416.203	-238.98195
416.392	-17.95994
416.581	-208.95092
416.77	246.89003
416.959	176.34095
417.148	0.38201
417.337	-27.13526
417.525	-93.74351
417.714	18.71242
417.903	-153.59302
418.092	-146.68089
418.281	-45.4946
418.469	64.48833
418.658	-73.05551
418.847	-112.14539
419.035	-144.37722
419.224	-98.34287
419.413	-158.20204
419.601	-29.42954
419.79	-329.26959
419.979	174.06243
420.167	-160.50684
420.356	105.62594
420.544	98.77364
420.733	-36.31348
420.921	78.20723
421.11	89.63477
421.299	267.34135
421.487	-139.77044
421.675	53.05104
421.864	-102.94297
422.052	55.33885
422.241	190.00847
422.429	-137.46733
422.618	-100.64283
422.806	-38.60849
422.994	-165.11698
423.183	119.3258
423.371	37.03135
423.559	169.50486
423.748	-31.724
423.936	-73.05551
424.124	-56.97511
424.312	-98.34287
424.501	128.45554
424.689	169.50486
424.877	-112.14539
425.065	-84.54701
425.254	-27.13526
425.442	412.38253
425.63	-24.84116
425.818	139.86378
426.006	18.71242
426.194	121.6085
426.382	158.10792
426.57	146.70664
426.758	-105.2433
426.946	-114.44645
427.134	-195.10126
427.323	-36.31348
427.51	21.00291
427.698	112.47666
427.886	9.54865
428.074	-4.2024
428.262	-142.07374
428.45	-36.31348
428.638	-139.77044
428.826	41.6093
429.014	53.05104
429.202	-155.89744
429.39	-128.25675
429.577	217.32495
429.765	-11.08036
429.953	55.33885
430.141	59.91394
430.329	53.05104
430.516	-93.74351
430.704	192.28579
430.892	-100.64283
431.079	37.03135
431.267	98.77364
431.455	-144.37722
431.643	-50.08626
431.83	112.47666
432.018	59.91394
432.205	-8.78752
432.393	14.1309
432.581	-114.44645
432.768	-151.28879
432.956	-17.95994
433.143	69.062
433.331	-6.49487
433.518	-135.1644
433.706	-86.84586
433.893	-151.28879
434.081	-257.4786
434.268	353.5414
434.456	-82.24834
434.643	-13.37337
434.83	9.54865
435.018	-45.4946
435.205	-52.38236
435.392	-132.86167
435.58	-232.04885
435.767	117.04293
435.954	-169.72788
436.142	144.42586
436.329	187.73098
436.516	-96.0431
436.703	-89.14489
436.891	139.86378
437.078	64.48833
437.265	9.54865
437.452	-27.13526
437.639	-13.37337
437.827	4.96569
438.014	30.16309
438.201	-142.07374
438.388	-89.14489
438.575	212.77392
438.762	-137.46733
438.949	-139.77044
439.136	30.16309
439.323	21.00291
439.51	-11.08036
439.697	91.91976
439.884	164.9466
440.071	-11.08036
440.258	180.89748
440.445	126.17337
440.632	237.79615
440.819	-15.66657
441.006	210.49815
441.193	2.67394
441.38	-54.67865
441.566	14.1309
441.753	32.45269
441.94	-119.04914
442.127	-114.44645
442.314	135.30101
442.5	246.89003
442.687	-105.2433
442.874	-4.2024
443.061	-31.724
443.247	73.63497
443.434	85.06428
443.621	-146.68089
443.807	34.74211
443.994	287.779
444.181	87.34962
444.367	-183.56508
444.554	-29.42954
444.74	148.98724
444.927	-192.79365
445.114	-11.08036
445.3	344.47904
445.487	-24.84116
445.673	73.63497
445.86	-109.84451
446.046	-50.08626
446.233	48.47487
446.419	-38.60849
446.605	-100.64283
446.792	4.96569
446.978	-238.98195
447.165	-52.38236
447.351	-52.38236
447.537	-98.34287
447.724	-243.60496
447.91	-135.1644
448.096	34.74211
448.283	133.01936
448.469	-29.42954
448.655	112.47666
448.841	-245.91676
449.028	64.48833
449.214	119.3258
449.4	-17.95994
449.586	-73.05551
449.773	185.45332
449.959	-45.4946
450.145	242.34343
450.331	-162.81182
450.517	-178.95193
450.703	-169.72788
450.889	-183.56508
451.075	-70.75776
451.261	98.77364
451.447	-121.35077
451.633	-259.79155
451.819	46.18653
452.005	219.60021
452.191	164.9466
452.377	98.77364
452.563	-98.34287
452.749	-17.95994
452.935	233.24819
453.121	-119.04914
453.307	-27.13526
453.493	205.94609
453.679	178.6193
453.865	110.19326
454.05	-29.42954
454.236	-70.75776
454.422	-66.16281
454.608	-47.79034
454.794	-79.94986
454.979	-17.95994
455.165	-125.95457
455.351	21.00291
455.537	18.71242
455.722	192.28579
455.908	-190.48623
456.094	41.6093
456.279	107.90969
456.465	57.62649
456.65	-121.35077
456.836	119.3258
457.022	201.39334
457.207	112.47666
457.393	-52.38236
457.578	253.70866
457.764	260.52577
457.949	110.19326
458.135	285.50882
458.32	160.38765
458.506	-11.08036
458.691	201.39334
458.877	-153.59302
459.062	-50.08626
459.248	2.67394
459.433	-43.19905
459.618	-56.97511
459.804	-40.90368
459.989	64.48833
460.174	39.32041
460.36	226.42497
460.545	-24.84116
460.73	-52.38236
460.915	-24.84116
461.101	283.23848
461.286	-151.28879
461.471	4.96569
461.656	-11.08036
461.842	112.47666
462.027	-105.2433
462.212	-61.5686
462.397	-109.84451
462.582	66.77525
462.767	162.66721
462.952	-52.38236
463.138	-255.16585
463.323	137.58248
463.508	107.90969
463.693	130.73754
463.878	-128.25675
464.063	-70.75776
464.248	14.1309
464.433	-1.91011
464.618	133.01936
464.803	126.17337
464.988	-52.38236
465.173	142.14491
465.357	-20.2535
465.542	64.48833
465.727	123.89102
465.912	217.32495
466.097	219.60021
466.282	158.10792
466.467	128.45554
466.651	162.66721
466.836	121.6085
467.021	-73.05551
467.206	30.16309
467.391	-116.74771
467.575	69.062
467.76	269.61288
467.945	187.73098
468.129	137.58248
468.314	171.78373
468.499	94.20456
468.683	96.48919
468.868	27.87332
469.053	-1.91011
469.237	-86.84586
469.422	-59.27176
469.606	14.1309
469.791	235.52225
469.975	-109.84451
470.16	-278.30202
470.344	62.20123
470.529	73.63497
470.713	66.77525
470.898	32.45269
471.082	-6.49487
471.267	-31.724
471.451	146.70664
471.636	-45.4946
471.82	-183.56508
472.004	333.14736
472.189	66.77525
472.373	14.1309
472.557	155.82801
472.742	18.71242
472.926	-158.20204
473.11	-34.01865
473.295	142.14491
473.479	7.25726
473.663	130.73754
473.847	27.87332
474.031	-38.60849
474.216	14.1309
474.4	48.47487
474.584	-11.08036
474.768	82.77877
474.952	190.00847
475.136	371.65819
475.32	-227.42775
475.505	7.25726
475.689	59.91394
475.873	121.6085
476.057	224.15022
476.241	-15.66657
476.425	269.61288
476.609	96.48919
476.793	21.00291
476.977	-121.35077
477.161	87.34962
477.345	242.34343
477.529	-119.04914
477.713	380.71263
477.896	112.47666
478.08	392.02699
478.264	57.62649
478.448	139.86378
478.632	87.34962
478.816	-93.74351
478.999	18.71242
479.183	48.47487
479.367	-116.74771
479.551	135.30101
479.735	-63.86561
479.918	39.32041
480.102	208.2222
480.286	130.73754
480.469	21.00291
480.653	-15.66657
480.837	253.70866
481.02	57.62649
481.204	11.83986
481.388	-70.75776
481.571	-40.90368
481.755	101.05792
481.938	32.45269
482.122	-31.724
482.305	23.29323
482.489	360.33643
482.673	-52.38236
482.856	114.75988
483.04	27.87332
483.223	144.42586
483.406	-91.44411
483.59	-125.95457
483.773	46.18653
483.957	-114.44645
484.14	183.17549
484.323	34.74211
484.507	48.47487
484.69	267.34135
484.874	-38.60849
485.057	-109.84451
485.24	169.50486
485.423	-121.35077
485.607	176.34095
485.79	117.04293
485.973	-77.65156
486.156	392.02699
486.34	55.33885
486.523	265.06966
486.706	151.26767
486.889	16.42175
487.072	0.38201
487.256	158.10792
487.439	253.70866
487.622	37.03135
487.805	25.58336
487.988	-6.49487
488.171	240.06987
488.354	-135.1644
488.537	114.75988
488.72	110.19326
488.903	-54.67865
489.086	-93.74351
489.269	142.14491
489.452	48.47487
489.635	199.11671
489.818	477.88316
490.001	-188.17899
490.184	-107.54381
490.367	23.29323
490.55	133.01936
490.732	308.20303
490.915	39.32041
491.098	-82.24834
491.281	37.03135
491.464	-66.16281
491.647	185.45332
491.829	-54.67865
492.012	-31.724
492.195	187.73098
492.378	-176.64563
492.56	321.81153
492.743	121.6085
492.926	-50.08626
493.108	-112.14539
493.291	-4.2024
493.474	-40.90368
493.656	69.062
493.839	91.91976
494.022	151.26767
494.204	362.60111
494.387	192.28579
494.569	62.20123
494.752	91.91976
494.934	276.42643
495.117	-40.90368
495.299	59.91394
495.482	269.61288
495.664	296.85802
495.847	-1.91011
496.029	-11.08036
496.212	827.97189
496.394	146.70664
496.576	128.45554
496.759	9.54865
496.941	158.10792
497.123	249.16308
497.306	-70.75776
497.488	64.48833
497.67	94.20456
497.853	-107.54381
498.035	192.28579
498.217	423.68546
498.4	43.898
498.582	11.83986
498.764	7.25726
498.946	174.06243
499.128	321.81153
499.311	217.32495
499.493	-79.94986
499.675	23.29323
499.857	312.73986
500.039	419.16477
500.221	96.48919
500.403	43.898
500.585	371.65819
500.767	335.41403
500.949	283.23848
501.132	50.76304
501.314	142.14491
501.496	392.02699
501.678	41.6093
501.859	310.47153
502.041	69.062
502.223	94.20456
502.405	-11.08036
502.587	249.16308
502.769	326.34636
502.951	107.90969
503.133	121.6085
503.315	221.8753
503.497	246.89003
503.678	453.05408
503.86	-61.5686
504.042	103.34202
504.224	292.31884
504.406	321.81153
504.587	21.00291
504.769	196.83991
504.951	-4.2024
505.132	-107.54381
505.314	16.42175
505.496	-114.44645
505.678	280.96796
505.859	117.04293
506.041	2.67394
506.222	-91.44411
506.404	308.20303
506.586	126.17337
506.767	14.1309
506.949	69.062
507.13	4.96569
507.312	249.16308
507.493	215.04952
507.675	205.94609
507.856	-114.44645
508.038	89.63477
508.219	-158.20204
508.401	-45.4946
508.582	251.43596
508.764	349.01055
508.945	101.05792
509.126	-162.81182
509.308	142.14491
509.489	158.10792
509.671	43.898
509.852	269.61288
510.033	50.76304
510.214	371.65819
510.396	128.45554
510.577	-36.31348
510.758	637.68212
510.94	504.94731
511.121	144.42586
511.302	258.25357
511.483	66.77525
511.664	215.04952
511.846	-172.03361
512.027	190.00847
512.208	-34.01865
512.389	226.42497
512.57	39.32041
512.751	382.97583
512.932	187.73098
513.113	303.66553
513.294	144.42586
513.476	119.3258
513.657	89.63477
513.838	183.17549
514.019	119.3258
514.2	117.04293
514.381	283.23848
514.561	310.47153
514.742	50.76304
514.923	25.58336
515.104	137.58248
515.285	178.6193
515.466	233.24819
515.647	25.58336
515.828	208.2222
516.009	328.61352
516.189	174.06243
516.37	183.17549
516.551	148.98724
516.732	192.28579
516.913	103.34202
517.093	7.25726
517.274	78.20723
517.455	151.26767
517.636	91.91976
517.816	148.98724
517.997	240.06987
518.178	196.83991
518.358	-66.16281
518.539	107.90969
518.72	130.73754
518.9	89.63477
519.081	148.98724
519.261	240.06987
519.442	432.72487
519.622	164.9466
519.803	-56.97511
519.984	342.21303
520.164	162.66721
520.345	94.20456
520.525	208.2222
520.705	-17.95994
520.886	196.83991
521.066	-107.54381
521.247	-24.84116
521.427	148.98724
521.608	423.68546
521.788	-13.37337
521.968	412.38253
522.149	62.20123
522.329	146.70664
522.509	25.58336
522.69	46.18653
522.87	85.06428
523.05	39.32041
523.231	75.92119
523.411	-40.90368
523.591	130.73754
523.771	196.83991
523.951	285.50882
524.132	66.77525
524.312	267.34135
524.492	217.32495
524.672	190.00847
524.852	335.41403
525.032	98.77364
525.213	27.87332
525.393	457.56991
525.573	89.63477
525.753	237.79615
525.933	217.32495
526.113	258.25357
526.293	34.74211
526.473	37.03135
526.653	276.42643
526.833	362.60111
527.013	53.05104
527.193	27.87332
527.373	192.28579
527.553	123.89102
527.733	30.16309
527.913	64.48833
528.092	4.96569
528.272	324.07903
528.452	48.47487
528.632	139.86378
528.812	-82.24834
528.992	183.17549
529.171	276.42643
529.351	128.45554
529.531	48.47487
529.711	98.77364
529.89	117.04293
530.07	-27.13526
530.25	317.27603
530.43	183.17549
530.609	89.63477
530.789	114.75988
530.969	171.78373
531.148	155.82801
531.328	-93.74351
531.507	-181.25841
531.687	30.16309
531.867	119.3258
532.046	217.32495
532.226	-181.25841
532.405	392.02699
532.585	-93.74351
532.764	117.04293
532.944	394.28937
533.123	107.90969
533.303	71.34857
533.482	160.38765
533.662	133.01936
533.841	128.45554
534.021	249.16308
534.2	75.92119
534.379	9.54865
534.559	205.94609
534.738	210.49815
534.917	-20.2535
535.097	30.16309
535.276	57.62649
535.455	48.47487
535.635	69.062
535.814	105.62594
535.993	-31.724
536.172	199.11671
536.352	130.73754
536.531	-24.84116
536.71	260.52577
536.889	224.15022
537.068	16.42175
537.248	-22.54724
537.427	346.74487
537.606	-38.60849
537.785	-75.35344
537.964	-20.2535
538.143	-70.75776
538.322	185.45332
538.501	-225.11748
538.68	18.71242
538.859	126.17337
539.038	155.82801
539.217	-4.2024
539.396	-84.54701
539.575	103.34202
539.754	342.21303
539.933	-61.5686
540.112	-89.14489
540.291	89.63477
540.47	121.6085
540.649	25.58336
540.828	-59.27176
541.007	210.49815
541.186	-98.34287
541.364	98.77364
541.543	50.76304
541.722	187.73098
541.901	21.00291
542.08	441.76169
542.258	162.66721
542.437	4.96569
542.616	64.48833
542.795	-13.37337
542.973	153.54792
543.152	-56.97511
543.331	0.38201
543.509	-114.44645
543.688	98.77364
543.867	-59.27176
544.045	-40.90368
544.224	-8.78752
544.402	561.2575
544.581	-6.49487
544.76	133.01936
544.938	-70.75776
545.117	21.00291
545.295	-151.28879
545.474	4.96569
545.652	-6.49487
545.831	-29.42954
546.009	317.27603
546.188	11.83986
546.366	39.32041
546.544	217.32495
546.723	158.10792
546.901	87.34962
547.08	85.06428
547.258	-4.2024
547.436	237.79615
547.615	11.83986
547.793	-75.35344
547.971	80.49309
548.15	16.42175
548.328	235.52225
548.506	153.54792
548.684	240.06987
548.863	-36.31348
549.041	62.20123
549.219	-123.65257
549.397	160.38765
549.576	160.38765
549.754	-86.84586
549.932	48.47487
550.11	48.47487
550.288	4.96569
550.466	98.77364
550.644	16.42175
550.822	-8.78752
551.001	69.062
551.179	39.32041
551.357	280.96796
551.535	55.33885
551.713	107.90969
551.891	190.00847
552.069	-43.19905
552.247	-40.90368
552.425	-116.74771
552.603	171.78373
552.781	85.06428
552.958	27.87332
553.136	430.46526
553.314	169.50486
553.492	303.66553
553.67	-4.2024
553.848	-36.31348
554.026	-1.91011
554.204	-50.08626
554.381	9.54865
554.559	50.76304
554.737	-73.05551
554.915	192.28579
555.092	-11.08036
555.27	441.76169
555.448	-13.37337
555.626	25.58336
555.803	21.00291
555.981	385.23887
556.159	217.32495
556.336	280.96796
556.514	14.1309
556.692	190.00847
556.869	46.18653
557.047	-20.2535
557.224	-34.01865
557.402	137.58248
557.58	158.10792
557.757	-181.25841
557.935	-137.46733
558.112	-45.4946
558.29	203.6698
558.467	-206.64217
558.645	-61.5686
558.822	85.06428
559	144.42586
559.177	27.87332
559.354	-13.37337
559.532	228.69954
559.709	87.34962
559.887	-105.2433
560.064	-27.13526
560.241	146.70664
560.419	-66.16281
560.596	55.33885
560.773	78.20723
560.951	-15.66657
561.128	208.2222
561.305	-34.01865
561.482	-135.1644
561.66	405.59882
561.837	57.62649
562.014	-132.86167
562.191	59.91394
562.368	50.76304
562.546	-91.44411
562.723	-20.2535
562.9	-82.24834
563.077	315.00803
563.254	-22.54724
563.431	-17.95994
563.608	158.10792
563.785	-121.35077
563.962	287.779
564.139	-27.13526
564.317	37.03135
564.494	-176.64563
564.671	144.42586
564.848	9.54865
565.025	-185.87194
565.201	-56.97511
565.378	30.16309
565.555	59.91394
565.732	46.18653
565.909	89.63477
566.086	55.33885
566.263	48.47487
566.44	-63.86561
566.617	71.34857
566.794	439.50273
566.97	-38.60849
567.147	-59.27176
567.324	112.47666
567.501	-61.5686
567.678	39.32041
567.854	-100.64283
568.031	-68.46019
568.208	-89.14489
568.384	-190.48623
568.561	16.42175
568.738	-176.64563
568.915	210.49815
569.091	-116.74771
569.268	190.00847
569.444	85.06428
569.621	48.47487
569.798	73.63497
569.974	208.2222
570.151	112.47666
570.327	7.25726
570.504	75.92119
570.681	-107.54381
570.857	75.92119
571.034	174.06243
571.21	176.34095
571.387	18.71242
571.563	135.30101
571.739	255.9812
571.916	-11.08036
572.092	-34.01865
572.269	180.89748
572.445	164.9466
572.622	-93.74351
572.798	-17.95994
572.974	98.77364
573.151	-36.31348
573.327	-153.59302
573.503	64.48833
573.68	34.74211
573.856	-121.35077
574.032	-137.46733
574.208	11.83986
574.385	-66.16281
574.561	-40.90368
574.737	137.58248
574.913	4.96569
575.089	260.52577
575.266	-31.724
575.442	-11.08036
575.618	43.898
575.794	-4.2024
575.97	89.63477
576.146	-135.1644
576.322	18.71242
576.499	62.20123
576.675	148.98724
576.851	53.05104
577.027	69.062
577.203	-167.42234
577.379	146.70664
577.555	98.77364
577.731	151.26767
577.907	1300.2625
578.083	212.77392
578.259	82.77877
578.435	-82.24834
578.611	135.30101
578.786	98.77364
578.962	110.19326
579.138	41.6093
579.314	117.04293
579.49	0.38201
579.666	7.25726
579.842	-15.66657
580.017	23.29323
580.193	-98.34287
580.369	53.05104
580.545	-75.35344
580.72	192.28579
580.896	-40.90368
581.072	162.66721
581.248	62.20123
581.423	-38.60849
581.599	148.98724
581.775	0.38201
581.95	-50.08626
582.126	11.83986
582.302	330.88052
582.477	-137.46733
582.653	-17.95994
582.829	117.04293
583.004	-162.81182
583.18	185.45332
583.355	-169.72788
583.531	-11.08036
583.706	-114.44645
583.882	-34.01865
584.057	-190.48623
584.233	217.32495
584.408	196.83991
584.584	-54.67865
584.759	-146.68089
584.935	-45.4946
585.11	41.6093
585.285	-68.46019
585.461	-130.55911
585.636	130.73754
585.812	192.28579
585.987	-125.95457
586.162	43.898
586.338	164.9466
586.513	14.1309
586.688	-125.95457
586.863	114.75988
587.039	9.54865
587.214	-93.74351
587.389	-128.25675
587.564	-125.95457
587.74	43.898
587.915	-125.95457
588.09	-96.0431
588.265	-144.37722
588.44	-125.95457
588.615	-8.78752
588.791	-144.37722
588.966	30.16309
589.141	-109.84451
589.316	117.04293
589.491	-169.72788
589.666	-31.724
589.841	162.66721
590.016	-102.94297
590.191	89.63477
590.366	-153.59302
590.541	-73.05551
590.716	224.15022
590.891	251.43596
591.066	-68.46019
591.241	-105.2433
591.416	146.70664
591.591	-61.5686
591.766	55.33885
591.941	-43.19905
592.116	-119.04914
592.29	16.42175
592.465	-100.64283
592.64	-185.87194
592.815	78.20723
592.99	-229.7382
593.165	-56.97511
593.339	69.062
593.514	167.22582
593.689	230.97395
593.864	11.83986
594.038	25.58336
594.213	71.34857
594.388	-24.84116
594.562	-6.49487
594.737	130.73754
594.912	194.56293
595.086	-82.24834
595.261	4.96569
595.436	59.91394
595.61	-54.67865
595.785	7.25726
595.959	-17.95994
596.134	82.77877
596.309	112.47666
596.483	-22.54724
596.658	-27.13526
596.832	110.19326
597.007	317.27603
597.181	-107.54381
597.356	2.67394
597.53	-63.86561
597.704	-31.724
597.879	-162.81182
598.053	-68.46019
598.228	240.06987
598.402	114.75988
598.576	-73.05551
598.751	66.77525
598.925	208.2222
599.1	-225.11748
599.274	-20.2535
599.448	-68.46019
599.622	180.89748
599.797	114.75988
599.971	-315.36003
600.145	203.6698
600.32	4.96569
600.494	-13.37337
600.668	-75.35344
600.842	-45.4946
601.016	-27.13526
601.191	190.00847
601.365	471.11352
601.539	14.1309
601.713	112.47666
601.887	146.70664
602.061	-100.64283
602.235	27.87332
602.409	-112.14539
602.583	25.58336
602.758	32.45269
602.932	-75.35344
603.106	-84.54701
603.28	-93.74351
603.454	105.62594
603.628	73.63497
603.802	46.18653
603.976	-142.07374
604.149	-93.74351
604.323	-130.55911
604.497	-121.35077
604.671	23.29323
604.845	-34.01865
605.019	-70.75776
605.193	-114.44645
605.367	135.30101
605.541	34.74211
605.714	50.76304
605.888	112.47666
606.062	78.20723
606.236	-165.11698
606.41	9.54865
606.583	25.58336
606.757	-89.14489
606.931	107.90969
607.105	64.48833
607.278	-151.28879
607.452	-123.65257
607.626	-79.94986
607.799	-11.08036
607.973	30.16309
608.147	-6.49487
608.32	57.62649
608.494	-130.55911
608.668	-114.44645
608.841	34.74211
609.015	158.10792
609.188	57.62649
609.362	-202.02524
609.535	11.83986
609.709	-66.16281
609.882	48.47487
610.056	-132.86167
610.229	-75.35344
610.403	66.77525
610.576	-123.65257
610.75	66.77525
610.923	139.86378
611.097	-329.26959
611.27	192.28579
611.443	-158.20204
611.617	-82.24834
611.79	-20.2535
611.963	-75.35344
612.137	94.20456
612.31	-11.08036
612.483	-38.60849
612.657	-146.68089
612.83	-123.65257
613.003	-1.91011
613.177	89.63477
613.35	-132.86167
613.523	105.62594
613.696	89.63477
613.869	-27.13526
614.043	-155.89744
614.216	-238.98195
614.389	-162.81182
614.562	-96.0431
614.735	9.54865
614.908	-22.54724
615.082	89.63477
615.255	-6.49487
615.428	194.56293
615.601	-192.79365
615.774	107.90969
615.947	-77.65156
616.12	-13.37337
616.293	228.69954
616.466	34.74211
616.639	-50.08626
616.812	18.71242
616.985	162.66721
617.158	-176.64563
617.331	-24.84116
617.504	230.97395
617.677	18.71242
617.85	30.16309
618.022	-59.27176
618.195	-29.42954
618.368	-52.38236
618.541	-36.31348
618.714	-29.42954
618.887	-222.8074
619.059	4.96569
619.232	16.42175
619.405	139.86378
619.578	-56.97511
619.751	-160.50684
619.923	-169.72788
620.096	-102.94297
620.269	224.15022
620.441	39.32041
620.614	-116.74771
620.787	-17.95994
620.96	-47.79034
621.132	57.62649
621.305	242.34343
621.477	-43.19905
621.65	0.38201
621.823	121.6085
621.995	69.062
622.168	192.28579
622.34	-38.60849
622.513	-47.79034
622.685	265.06966
622.858	-100.64283
623.03	-43.19905
623.203	73.63497
623.375	-27.13526
623.548	-66.16281
623.72	-109.84451
623.893	-91.44411
624.065	-273.67325
624.238	59.91394
624.41	-98.34287
624.582	133.01936
624.755	71.34857
624.927	-1.91011
625.1	-96.0431
625.272	-132.86167
625.444	-15.66657
625.617	137.58248
625.789	-137.46733
625.961	-96.0431
626.133	-40.90368
626.306	39.32041
626.478	80.49309
626.65	219.60021
626.822	43.898
626.995	2.67394
627.167	-160.50684
627.339	137.58248
627.511	14.1309
627.683	-61.5686
627.855	62.20123
628.027	-24.84116
628.2	48.47487
628.372	27.87332
628.544	27.87332
628.716	82.77877
628.888	144.42586
629.06	110.19326
629.232	-135.1644
629.404	96.48919
629.576	151.26767
629.748	-204.33361
629.92	-89.14489
630.092	98.77364
630.264	2.67394
630.436	-130.55911
630.608	-8.78752
630.78	89.63477
630.952	-144.37722
631.124	-20.2535
631.295	-153.59302
631.467	-36.31348
631.639	-31.724
631.811	-96.0431
631.983	-54.67865
632.155	-123.65257
632.326	71.34857
632.498	185.45332
632.67	-135.1644
632.842	119.3258
633.014	117.04293
633.185	137.58248
633.357	-139.77044
633.529	107.90969
633.7	142.14491
633.872	-137.46733
634.044	-125.95457
634.215	201.39334
634.387	89.63477
634.559	-98.34287
634.73	-38.60849
634.902	-89.14489
635.074	2.67394
635.245	16.42175
635.417	-68.46019
635.588	319.54386
635.76	21.00291
635.931	39.32041
636.103	-109.84451
636.274	142.14491
636.446	101.05792
636.617	-121.35077
636.789	-123.65257
636.96	155.82801
637.132	230.97395
637.303	-13.37337
637.474	-38.60849
637.646	71.34857
637.817	107.90969
637.989	-68.46019
638.16	-52.38236
638.331	-158.20204
638.503	290.049
638.674	-146.68089
638.845	89.63477
639.017	144.42586
639.188	87.34962
639.359	-218.18781
639.53	-75.35344
639.702	-93.74351
639.873	-238.98195
640.044	-162.81182
640.215	-222.8074
640.387	-100.64283
640.558	244.61682
640.729	215.04952
640.9	119.3258
641.071	-34.01865
641.242	271.88423
641.413	178.6193
641.585	-174.33953
641.756	146.70664
641.927	-98.34287
642.098	-66.16281
642.269	-190.48623
642.44	-15.66657
642.611	-105.2433
642.782	-68.46019
642.953	11.83986
643.124	37.03135
643.295	-137.46733
643.466	82.77877
643.637	85.06428
643.808	87.34962
643.979	50.76304
644.15	160.38765
644.32	87.34962
644.491	-82.24834
644.662	-54.67865
644.833	-116.74771
645.004	-34.01865
645.175	-105.2433
645.346	23.29323
645.516	-6.49487
645.687	-100.64283
645.858	101.05792
646.029	192.28579
646.199	126.17337
646.37	158.10792
646.541	-123.65257
646.712	139.86378
646.882	-13.37337
647.053	-84.54701
647.224	-109.84451
647.394	-1.91011
647.565	105.62594
647.736	-61.5686
647.906	-167.42234
648.077	-54.67865
648.248	-59.27176
648.418	-54.67865
648.589	-153.59302
648.759	-119.04914
648.93	-6.49487
649.1	-169.72788
649.271	246.89003
649.441	362.60111
649.612	14.1309
649.782	18.71242
649.953	50.76304
650.123	-73.05551
650.294	-31.724
650.464	-20.2535
650.635	2553.99336
650.805	121.6085
650.975	21.00291
651.146	-116.74771
651.316	-93.74351
651.487	-34.01865
651.657	-153.59302
651.827	-59.27176
651.998	-183.56508
652.168	265.06966
652.338	4.96569
652.508	-144.37722
652.679	-144.37722
652.849	308.20303
653.019	-135.1644
653.189	30.16309
653.36	148.98724
653.53	16.42175
653.7	-176.64563
653.87	-238.98195
654.04	9.54865
654.211	208.2222
654.381	-105.2433
654.551	-121.35077
654.721	280.96796
654.891	71.34857
655.061	-266.73153
655.231	-185.87194
655.401	121.6085
655.571	217.32495
655.741	112.47666
655.911	-280.61669
656.081	196.83991
656.251	-93.74351
656.421	91.91976
656.591	-116.74771
656.761	176.34095
656.931	-79.94986
657.101	-162.81182
657.271	114.75988
657.441	385.23887
657.611	-52.38236
657.781	-232.04885
657.951	-73.05551
658.121	-61.5686
658.291	55.33885
658.46	-174.33953
658.63	34.74211
658.8	107.90969
658.97	103.34202
659.14	21.00291
659.309	-185.87194
659.479	260.52577
659.649	-121.35077
659.819	-102.94297
659.988	-232.04885
660.158	-70.75776
660.328	133.01936
660.497	-109.84451
660.667	-190.48623
660.837	62.20123
661.006	-24.84116
661.176	-190.48623
661.346	-66.16281
661.515	85.06428
661.685	-185.87194
661.854	-109.84451
662.024	-116.74771
662.194	-40.90368
662.363	274.15542
662.533	-29.42954
662.702	-211.25986
662.872	312.73986
663.041	50.76304
663.211	-43.19905
663.38	-130.55911
663.55	85.06428
663.719	135.30101
663.889	-132.86167
664.058	-165.11698
664.227	-77.65156
664.397	-29.42954
664.566	-119.04914
664.735	-38.60849
664.905	-68.46019
665.074	18.71242
665.244	-135.1644
665.413	-227.42775
665.582	57.62649
665.751	-45.4946
665.921	-56.97511
666.09	-153.59302
666.259	244.61682
666.428	-54.67865
666.598	-245.91676
666.767	-146.68089
666.936	37.03135
667.105	230.97395
667.275	-153.59302
667.444	-45.4946
667.613	75.92119
667.782	-86.84586
667.951	-43.19905
668.12	75.92119
668.289	4.96569
668.458	53.05104
668.628	-148.98475
668.797	-176.64563
668.966	-98.34287
669.135	-121.35077
669.304	-146.68089
669.473	-77.65156
669.642	-34.01865
669.811	11.83986
669.98	9.54865
670.149	-54.67865
670.318	123.89102
670.487	107.90969
670.656	126.17337
670.824	-169.72788
670.993	-123.65257
671.162	-40.90368
671.331	-306.09087
671.5	-139.77044
671.669	121.6085
671.838	-169.72788
672.007	-77.65156
672.175	-135.1644
672.344	262.7978
672.513	75.92119
672.682	-169.72788
672.85	-91.44411
673.019	39.32041
673.188	82.77877
673.357	-218.18781
673.525	-208.95092
673.694	187.73098
673.863	-132.86167
674.032	-43.19905
674.2	-206.64217
674.369	112.47666
674.537	180.89748
674.706	-250.54092
674.875	25.58336
675.043	73.63497
675.212	144.42586
675.381	46.18653
675.549	-40.90368
675.718	32.45269
675.886	330.88052
676.055	-144.37722
676.223	-70.75776
676.392	199.11671
676.56	50.76304
676.729	-82.24834
676.897	-125.95457
677.066	-13.37337
677.234	34.74211
677.403	-123.65257
677.571	-135.1644
677.739	32.45269
677.908	-8.78752
678.076	-50.08626
678.244	-86.84586
678.413	-75.35344
678.581	103.34202
678.75	-165.11698
678.918	2.67394
679.086	7.25726
679.254	-153.59302
679.423	-125.95457
679.591	78.20723
679.759	-6.49487
679.928	-22.54724
680.096	-70.75776
680.264	-45.4946
680.432	-109.84451
680.6	212.77392
680.769	30.16309
680.937	-77.65156
681.105	382.97583
681.273	133.01936
681.441	-119.04914
681.609	50.76304
681.777	-31.724
681.945	7.25726
682.114	-259.79155
682.282	-167.42234
682.45	-158.20204
682.618	-137.46733
682.786	-215.8783
682.954	-4.2024
683.122	1152.37325
683.29	11.83986
683.458	-202.02524
683.626	75.92119
683.794	18.71242
683.962	-114.44645
684.13	-47.79034
684.298	-86.84586
684.465	4.96569
684.633	135.30101
684.801	-172.03361
684.969	-70.75776
685.137	180.89748
685.305	14.1309
685.473	-68.46019
685.64	-257.4786
685.808	-96.0431
685.976	242.34343
686.144	-271.35915
686.312	30.16309
686.479	-86.84586
686.647	-93.74351
686.815	-222.8074
686.983	-139.77044
687.15	66.77525
687.318	151.26767
687.486	-68.46019
687.653	-139.77044
687.821	-61.5686
687.989	371.65819
688.156	-125.95457
688.324	-174.33953
688.492	96.48919
688.659	-91.44411
688.827	-109.84451
688.994	-102.94297
689.162	-86.84586
689.329	114.75988
689.497	-266.73153
689.665	-238.98195
689.832	48.47487
690	53.05104
690.167	-105.2433
690.335	-75.35344
690.502	-146.68089
690.669	151.26767
690.837	-105.2433
691.004	73.63497
691.172	87.34962
691.339	210.49815
691.507	-208.95092
691.674	-317.6778
691.841	0.38201
692.009	80.49309
692.176	-15.66657
692.343	-73.05551
692.511	137.58248
692.678	-6.49487
692.845	-70.75776
693.013	-54.67865
693.18	71.34857
693.347	-116.74771
693.514	-112.14539
693.682	-98.34287
693.849	18.71242
694.016	-43.19905
694.183	142.14491
694.35	-202.02524
694.518	34.74211
694.685	-56.97511
694.852	-299.14105
695.019	-308.40787
695.186	43.898
695.353	155.82801
695.52	39.32041
695.687	62.20123
695.855	133.01936
696.022	32.45269
696.189	4.96569
696.356	-243.60496
696.523	137.58248
696.69	205.94609
696.857	-153.59302
697.024	-36.31348
697.191	85.06428
697.358	240.06987
697.525	-151.28879
697.692	-45.4946
697.858	43.898
698.025	-13.37337
698.192	-128.25675
698.359	-232.04885
698.526	199.11671
698.693	32.45269
698.86	-82.24834
699.027	-24.84116
699.193	-40.90368
699.36	18.71242
699.527	-162.81182
699.694	-148.98475
699.861	25.58336
700.027	7.25726
700.194	-50.08626
700.361	-29.42954
700.528	201.39334
700.694	50.76304
700.861	-238.98195
701.028	9.54865
701.195	210.49815
701.361	312.73986
701.528	-144.37722
701.694	-31.724
701.861	-86.84586
702.028	85.06428
702.194	-98.34287
702.361	-167.42234
702.528	9.54865
702.694	11.83986
702.861	-96.0431
703.027	-73.05551
703.194	-47.79034
703.36	53.05104
703.527	-197.40907
703.693	23.29323
703.86	199.11671
704.026	34.74211
704.193	-303.77407
704.359	50.76304
704.526	55.33885
