Created as New Dataset,Sample 004 By Administrator Date Tuesday, October 14 2025
cm-1,A
4000.00,-0.0030
3999.00,-0.0029
3998.00,-0.0029
3997.00,-0.0029
3996.00,-0.0029
3995.00,-0.0029
3994.00,-0.0029
3993.00,-0.0030
3992.00,-0.0030
3991.00,-0.0030
3990.00,-0.0030
3989.00,-0.0030
3988.00,-0.0030
3987.00,-0.0030
3986.00,-0.0029
3985.00,-0.0029
3984.00,-0.0030
3983.00,-0.0030
3982.00,-0.0030
3981.00,-0.0030
3980.00,-0.0030
3979.00,-0.0029
3978.00,-0.0029
3977.00,-0.0029
3976.00,-0.0029
3975.00,-0.0029
3974.00,-0.0029
3973.00,-0.0029
3972.00,-0.0029
3971.00,-0.0029
3970.00,-0.0029
3969.00,-0.0029
3968.00,-0.0029
3967.00,-0.0029
3966.00,-0.0029
3965.00,-0.0029
3964.00,-0.0029
3963.00,-0.0029
3962.00,-0.0029
3961.00,-0.0029
3960.00,-0.0029
3959.00,-0.0029
3958.00,-0.0029
3957.00,-0.0029
3956.00,-0.0029
3955.00,-0.0029
3954.00,-0.0029
3953.00,-0.0029
3952.00,-0.0030
3951.00,-0.0030
3950.00,-0.0030
3949.00,-0.0030
3948.00,-0.0030
3947.00,-0.0031
3946.00,-0.0032
3945.00,-0.0033
3944.00,-0.0033
3943.00,-0.0033
3942.00,-0.0032
3941.00,-0.0032
3940.00,-0.0031
3939.00,-0.0031
3938.00,-0.0030
3937.00,-0.0030
3936.00,-0.0030
3935.00,-0.0030
3934.00,-0.0030
3933.00,-0.0030
3932.00,-0.0030
3931.00,-0.0030
3930.00,-0.0031
3929.00,-0.0031
3928.00,-0.0031
3927.00,-0.0032
3926.00,-0.0032
3925.00,-0.0032
3924.00,-0.0031
3923.00,-0.0032
3922.00,-0.0032
3921.00,-0.0032
3920.00,-0.0031
3919.00,-0.0030
3918.00,-0.0031
3917.00,-0.0031
3916.00,-0.0031
3915.00,-0.0031
3914.00,-0.0031
3913.00,-0.0031
3912.00,-0.0030
3911.00,-0.0030
3910.00,-0.0031
3909.00,-0.0032
3908.00,-0.0033
3907.00,-0.0035
3906.00,-0.0037
3905.00,-0.0038
3904.00,-0.0037
3903.00,-0.0036
3902.00,-0.0036
3901.00,-0.0036
3900.00,-0.0036
3899.00,-0.0035
3898.00,-0.0034
3897.00,-0.0033
3896.00,-0.0033
3895.00,-0.0032
3894.00,-0.0034
3893.00,-0.0037
3892.00,-0.0040
3891.00,-0.0039
3890.00,-0.0035
3889.00,-0.0032
3888.00,-0.0033
3887.00,-0.0034
3886.00,-0.0034
3885.00,-0.0033
3884.00,-0.0032
3883.00,-0.0033
3882.00,-0.0035
3881.00,-0.0036
3880.00,-0.0036
3879.00,-0.0035
3878.00,-0.0034
3877.00,-0.0035
3876.00,-0.0035
3875.00,-0.0035
3874.00,-0.0034
3873.00,-0.0035
3872.00,-0.0039
3871.00,-0.0042
3870.00,-0.0039
3869.00,-0.0034
3868.00,-0.0033
3867.00,-0.0035
3866.00,-0.0037
3865.00,-0.0035
3864.00,-0.0034
3863.00,-0.0035
3862.00,-0.0035
3861.00,-0.0033
3860.00,-0.0032
3859.00,-0.0030
3858.00,-0.0025
3857.00,-0.0016
3856.00,-0.0011
3855.00,-0.0014
3854.00,-0.0019
3853.00,-0.0019
3852.00,-0.0017
3851.00,-0.0018
3850.00,-0.0021
3849.00,-0.0023
3848.00,-0.0026
3847.00,-0.0029
3846.00,-0.0032
3845.00,-0.0033
3844.00,-0.0035
3843.00,-0.0036
3842.00,-0.0036
3841.00,-0.0036
3840.00,-0.0038
3839.00,-0.0039
3838.00,-0.0038
3837.00,-0.0036
3836.00,-0.0034
3835.00,-0.0034
3834.00,-0.0035
3833.00,-0.0036
3832.00,-0.0034
3831.00,-0.0032
3830.00,-0.0030
3829.00,-0.0029
3828.00,-0.0031
3827.00,-0.0031
3826.00,-0.0031
3825.00,-0.0031
3824.00,-0.0034
3823.00,-0.0038
3822.00,-0.0040
3821.00,-0.0038
3820.00,-0.0033
3819.00,-0.0031
3818.00,-0.0031
3817.00,-0.0031
3816.00,-0.0026
3815.00,-0.0023
3814.00,-0.0024
3813.00,-0.0028
3812.00,-0.0030
3811.00,-0.0029
3810.00,-0.0028
3809.00,-0.0030
3808.00,-0.0032
3807.00,-0.0031
3806.00,-0.0027
3805.00,-0.0026
3804.00,-0.0027
3803.00,-0.0028
3802.00,-0.0028
3801.00,-0.0024
3800.00,-0.0022
3799.00,-0.0024
3798.00,-0.0028
3797.00,-0.0029
3796.00,-0.0030
3795.00,-0.0031
3794.00,-0.0031
3793.00,-0.0031
3792.00,-0.0030
3791.00,-0.0030
3790.00,-0.0031
3789.00,-0.0031
3788.00,-0.0030
3787.00,-0.0029
3786.00,-0.0029
3785.00,-0.0029
3784.00,-0.0030
3783.00,-0.0030
3782.00,-0.0031
3781.00,-0.0031
3780.00,-0.0031
3779.00,-0.0031
3778.00,-0.0031
3777.00,-0.0032
3776.00,-0.0032
3775.00,-0.0032
3774.00,-0.0030
3773.00,-0.0030
3772.00,-0.0031
3771.00,-0.0032
3770.00,-0.0032
3769.00,-0.0033
3768.00,-0.0033
3767.00,-0.0034
3766.00,-0.0033
3765.00,-0.0032
3764.00,-0.0031
3763.00,-0.0031
3762.00,-0.0031
3761.00,-0.0030
3760.00,-0.0030
3759.00,-0.0030
3758.00,-0.0029
3757.00,-0.0026
3756.00,-0.0021
3755.00,-0.0015
3754.00,-0.0007
3753.00,0.0006
3752.00,0.0025
3751.00,0.0045
3750.00,0.0065
3749.00,0.0081
3748.00,0.0095
3747.00,0.0111
3746.00,0.0136
3745.00,0.0171
3744.00,0.0207
3743.00,0.0230
3742.00,0.0246
3741.00,0.0269
3740.00,0.0299
3739.00,0.0326
3738.00,0.0338
3737.00,0.0332
3736.00,0.0302
3735.00,0.0253
3734.00,0.0205
3733.00,0.0185
3732.00,0.0196
3731.00,0.0218
3730.00,0.0231
3729.00,0.0231
3728.00,0.0223
3727.00,0.0212
3726.00,0.0204
3725.00,0.0201
3724.00,0.0202
3723.00,0.0206
3722.00,0.0209
3721.00,0.0209
3720.00,0.0203
3719.00,0.0187
3718.00,0.0163
3717.00,0.0137
3716.00,0.0124
3715.00,0.0133
3714.00,0.0168
3713.00,0.0216
3712.00,0.0251
3711.00,0.0260
3710.00,0.0251
3709.00,0.0236
3708.00,0.0221
3707.00,0.0207
3706.00,0.0196
3705.00,0.0185
3704.00,0.0170
3703.00,0.0153
3702.00,0.0141
3701.00,0.0135
3700.00,0.0134
3699.00,0.0136
3698.00,0.0139
3697.00,0.0142
3696.00,0.0145
3695.00,0.0147
3694.00,0.0148
3693.00,0.0146
3692.00,0.0135
3691.00,0.0115
3690.00,0.0097
3689.00,0.0094
3688.00,0.0105
3687.00,0.0117
3686.00,0.0121
3685.00,0.0115
3684.00,0.0107
3683.00,0.0099
3682.00,0.0091
3681.00,0.0083
3680.00,0.0078
3679.00,0.0075
3678.00,0.0070
3677.00,0.0060
3676.00,0.0048
3675.00,0.0038
3674.00,0.0029
3673.00,0.0020
3672.00,0.0013
3671.00,0.0008
3670.00,0.0006
3669.00,0.0003
3668.00,-0.0001
3667.00,-0.0005
3666.00,-0.0008
3665.00,-0.0009
3664.00,-0.0011
3663.00,-0.0014
3662.00,-0.0016
3661.00,-0.0018
3660.00,-0.0018
3659.00,-0.0019
3658.00,-0.0021
3657.00,-0.0022
3656.00,-0.0021
3655.00,-0.0019
3654.00,-0.0019
3653.00,-0.0021
3652.00,-0.0021
3651.00,-0.0018
3650.00,-0.0013
3649.00,-0.0004
3648.00,0.0009
3647.00,0.0023
3646.00,0.0036
3645.00,0.0050
3644.00,0.0066
3643.00,0.0084
3642.00,0.0101
3641.00,0.0118
3640.00,0.0135
3639.00,0.0151
3638.00,0.0165
3637.00,0.0177
3636.00,0.0188
3635.00,0.0197
3634.00,0.0203
3633.00,0.0208
3632.00,0.0216
3631.00,0.0225
3630.00,0.0231
3629.00,0.0228
3628.00,0.0218
3627.00,0.0205
3626.00,0.0195
3625.00,0.0188
3624.00,0.0176
3623.00,0.0150
3622.00,0.0112
3621.00,0.0079
3620.00,0.0071
3619.00,0.0089
3618.00,0.0111
3617.00,0.0116
3616.00,0.0097
3615.00,0.0069
3614.00,0.0052
3613.00,0.0056
3612.00,0.0081
3611.00,0.0118
3610.00,0.0153
3609.00,0.0178
3608.00,0.0187
3607.00,0.0184
3606.00,0.0179
3605.00,0.0177
3604.00,0.0179
3603.00,0.0183
3602.00,0.0187
3601.00,0.0188
3600.00,0.0185
3599.00,0.0181
3598.00,0.0180
3597.00,0.0183
3596.00,0.0188
3595.00,0.0190
3594.00,0.0189
3593.00,0.0184
3592.00,0.0176
3591.00,0.0168
3590.00,0.0160
3589.00,0.0151
3588.00,0.0141
3587.00,0.0131
3586.00,0.0122
3585.00,0.0114
3584.00,0.0104
3583.00,0.0095
3582.00,0.0085
3581.00,0.0077
3580.00,0.0071
3579.00,0.0066
3578.00,0.0064
3577.00,0.0063
3576.00,0.0061
3575.00,0.0058
3574.00,0.0055
3573.00,0.0051
3572.00,0.0048
3571.00,0.0046
3570.00,0.0045
3569.00,0.0044
3568.00,0.0042
3567.00,0.0039
3566.00,0.0034
3565.00,0.0030
3564.00,0.0027
3563.00,0.0023
3562.00,0.0020
3561.00,0.0016
3560.00,0.0013
3559.00,0.0010
3558.00,0.0007
3557.00,0.0005
3556.00,0.0003
3555.00,0.0002
3554.00,0.0001
3553.00,-0.0001
3552.00,-0.0003
3551.00,-0.0005
3550.00,-0.0007
3549.00,-0.0008
3548.00,-0.0009
3547.00,-0.0010
3546.00,-0.0012
3545.00,-0.0013
3544.00,-0.0015
3543.00,-0.0016
3542.00,-0.0017
3541.00,-0.0018
3540.00,-0.0019
3539.00,-0.0020
3538.00,-0.0021
3537.00,-0.0022
3536.00,-0.0023
3535.00,-0.0024
3534.00,-0.0025
3533.00,-0.0025
3532.00,-0.0025
3531.00,-0.0025
3530.00,-0.0025
3529.00,-0.0024
3528.00,-0.0024
3527.00,-0.0025
3526.00,-0.0025
3525.00,-0.0025
3524.00,-0.0024
3523.00,-0.0025
3522.00,-0.0026
3521.00,-0.0026
3520.00,-0.0026
3519.00,-0.0026
3518.00,-0.0026
3517.00,-0.0026
3516.00,-0.0026
3515.00,-0.0026
3514.00,-0.0026
3513.00,-0.0026
3512.00,-0.0025
3511.00,-0.0025
3510.00,-0.0026
3509.00,-0.0026
3508.00,-0.0026
3507.00,-0.0026
3506.00,-0.0026
3505.00,-0.0026
3504.00,-0.0026
3503.00,-0.0026
3502.00,-0.0027
3501.00,-0.0028
3500.00,-0.0028
3499.00,-0.0028
3498.00,-0.0028
3497.00,-0.0028
3496.00,-0.0029
3495.00,-0.0029
3494.00,-0.0029
3493.00,-0.0029
3492.00,-0.0029
3491.00,-0.0029
3490.00,-0.0029
3489.00,-0.0029
3488.00,-0.0029
3487.00,-0.0029
3486.00,-0.0029
3485.00,-0.0029
3484.00,-0.0029
3483.00,-0.0029
3482.00,-0.0029
3481.00,-0.0029
3480.00,-0.0029
3479.00,-0.0030
3478.00,-0.0030
3477.00,-0.0029
3476.00,-0.0029
3475.00,-0.0029
3474.00,-0.0030
3473.00,-0.0030
3472.00,-0.0030
3471.00,-0.0030
3470.00,-0.0029
3469.00,-0.0029
3468.00,-0.0029
3467.00,-0.0030
3466.00,-0.0030
3465.00,-0.0030
3464.00,-0.0030
3463.00,-0.0030
3462.00,-0.0030
3461.00,-0.0030
3460.00,-0.0030
3459.00,-0.0030
3458.00,-0.0030
3457.00,-0.0030
3456.00,-0.0030
3455.00,-0.0030
3454.00,-0.0030
3453.00,-0.0030
3452.00,-0.0030
3451.00,-0.0030
3450.00,-0.0030
3449.00,-0.0030
3448.00,-0.0030
3447.00,-0.0030
3446.00,-0.0030
3445.00,-0.0030
3444.00,-0.0030
3443.00,-0.0030
3442.00,-0.0030
3441.00,-0.0030
3440.00,-0.0031
3439.00,-0.0031
3438.00,-0.0030
3437.00,-0.0031
3436.00,-0.0031
3435.00,-0.0030
3434.00,-0.0030
3433.00,-0.0030
3432.00,-0.0030
3431.00,-0.0030
3430.00,-0.0030
3429.00,-0.0031
3428.00,-0.0031
3427.00,-0.0031
3426.00,-0.0031
3425.00,-0.0031
3424.00,-0.0031
3423.00,-0.0030
3422.00,-0.0030
3421.00,-0.0030
3420.00,-0.0030
3419.00,-0.0031
3418.00,-0.0031
3417.00,-0.0031
3416.00,-0.0031
3415.00,-0.0031
3414.00,-0.0031
3413.00,-0.0030
3412.00,-0.0030
3411.00,-0.0030
3410.00,-0.0030
3409.00,-0.0030
3408.00,-0.0030
3407.00,-0.0030
3406.00,-0.0030
3405.00,-0.0030
3404.00,-0.0030
3403.00,-0.0030
3402.00,-0.0030
3401.00,-0.0030
3400.00,-0.0030
3399.00,-0.0030
3398.00,-0.0030
3397.00,-0.0030
3396.00,-0.0030
3395.00,-0.0030
3394.00,-0.0030
3393.00,-0.0030
3392.00,-0.0031
3391.00,-0.0031
3390.00,-0.0031
3389.00,-0.0031
3388.00,-0.0031
3387.00,-0.0031
3386.00,-0.0031
3385.00,-0.0031
3384.00,-0.0031
3383.00,-0.0031
3382.00,-0.0031
3381.00,-0.0031
3380.00,-0.0031
3379.00,-0.0031
3378.00,-0.0031
3377.00,-0.0031
3376.00,-0.0031
3375.00,-0.0031
3374.00,-0.0030
3373.00,-0.0030
3372.00,-0.0030
3371.00,-0.0030
3370.00,-0.0030
3369.00,-0.0030
3368.00,-0.0029
3367.00,-0.0029
3366.00,-0.0030
3365.00,-0.0030
3364.00,-0.0030
3363.00,-0.0030
3362.00,-0.0030
3361.00,-0.0030
3360.00,-0.0030
3359.00,-0.0031
3358.00,-0.0030
3357.00,-0.0030
3356.00,-0.0030
3355.00,-0.0030
3354.00,-0.0030
3353.00,-0.0030
3352.00,-0.0030
3351.00,-0.0030
3350.00,-0.0030
3349.00,-0.0030
3348.00,-0.0031
3347.00,-0.0032
3346.00,-0.0032
3345.00,-0.0031
3344.00,-0.0031
3343.00,-0.0031
3342.00,-0.0031
3341.00,-0.0031
3340.00,-0.0031
3339.00,-0.0031
3338.00,-0.0031
3337.00,-0.0031
3336.00,-0.0031
3335.00,-0.0031
3334.00,-0.0031
3333.00,-0.0031
3332.00,-0.0031
3331.00,-0.0031
3330.00,-0.0031
3329.00,-0.0031
3328.00,-0.0031
3327.00,-0.0031
3326.00,-0.0031
3325.00,-0.0032
3324.00,-0.0032
3323.00,-0.0031
3322.00,-0.0031
3321.00,-0.0031
3320.00,-0.0031
3319.00,-0.0031
3318.00,-0.0031
3317.00,-0.0030
3316.00,-0.0030
3315.00,-0.0030
3314.00,-0.0031
3313.00,-0.0031
3312.00,-0.0031
3311.00,-0.0031
3310.00,-0.0031
3309.00,-0.0030
3308.00,-0.0030
3307.00,-0.0030
3306.00,-0.0030
3305.00,-0.0031
3304.00,-0.0031
3303.00,-0.0032
3302.00,-0.0032
3301.00,-0.0031
3300.00,-0.0031
3299.00,-0.0031
3298.00,-0.0031
3297.00,-0.0030
3296.00,-0.0030
3295.00,-0.0031
3294.00,-0.0031
3293.00,-0.0031
3292.00,-0.0031
3291.00,-0.0031
3290.00,-0.0031
3289.00,-0.0032
3288.00,-0.0032
3287.00,-0.0032
3286.00,-0.0032
3285.00,-0.0032
3284.00,-0.0032
3283.00,-0.0032
3282.00,-0.0032
3281.00,-0.0031
3280.00,-0.0031
3279.00,-0.0031
3278.00,-0.0031
3277.00,-0.0030
3276.00,-0.0030
3275.00,-0.0030
3274.00,-0.0031
3273.00,-0.0031
3272.00,-0.0031
3271.00,-0.0032
3270.00,-0.0032
3269.00,-0.0032
3268.00,-0.0032
3267.00,-0.0032
3266.00,-0.0032
3265.00,-0.0032
3264.00,-0.0032
3263.00,-0.0032
3262.00,-0.0031
3261.00,-0.0031
3260.00,-0.0031
3259.00,-0.0031
3258.00,-0.0032
3257.00,-0.0032
3256.00,-0.0031
3255.00,-0.0031
3254.00,-0.0031
3253.00,-0.0031
3252.00,-0.0031
3251.00,-0.0031
3250.00,-0.0031
3249.00,-0.0031
3248.00,-0.0031
3247.00,-0.0031
3246.00,-0.0030
3245.00,-0.0030
3244.00,-0.0030
3243.00,-0.0031
3242.00,-0.0031
3241.00,-0.0031
3240.00,-0.0031
3239.00,-0.0031
3238.00,-0.0032
3237.00,-0.0032
3236.00,-0.0031
3235.00,-0.0031
3234.00,-0.0031
3233.00,-0.0031
3232.00,-0.0031
3231.00,-0.0031
3230.00,-0.0031
3229.00,-0.0031
3228.00,-0.0032
3227.00,-0.0032
3226.00,-0.0032
3225.00,-0.0032
3224.00,-0.0032
3223.00,-0.0031
3222.00,-0.0031
3221.00,-0.0031
3220.00,-0.0030
3219.00,-0.0030
3218.00,-0.0030
3217.00,-0.0030
3216.00,-0.0031
3215.00,-0.0031
3214.00,-0.0031
3213.00,-0.0031
3212.00,-0.0031
3211.00,-0.0031
3210.00,-0.0031
3209.00,-0.0031
3208.00,-0.0031
3207.00,-0.0032
3206.00,-0.0032
3205.00,-0.0032
3204.00,-0.0032
3203.00,-0.0032
3202.00,-0.0032
3201.00,-0.0032
3200.00,-0.0031
3199.00,-0.0031
3198.00,-0.0031
3197.00,-0.0031
3196.00,-0.0032
3195.00,-0.0032
3194.00,-0.0032
3193.00,-0.0031
3192.00,-0.0031
3191.00,-0.0031
3190.00,-0.0031
3189.00,-0.0032
3188.00,-0.0032
3187.00,-0.0032
3186.00,-0.0032
3185.00,-0.0032
3184.00,-0.0032
3183.00,-0.0032
3182.00,-0.0032
3181.00,-0.0032
3180.00,-0.0031
3179.00,-0.0031
3178.00,-0.0031
3177.00,-0.0032
3176.00,-0.0032
3175.00,-0.0032
3174.00,-0.0032
3173.00,-0.0033
3172.00,-0.0033
3171.00,-0.0033
3170.00,-0.0032
3169.00,-0.0032
3168.00,-0.0032
3167.00,-0.0032
3166.00,-0.0032
3165.00,-0.0032
3164.00,-0.0032
3163.00,-0.0032
3162.00,-0.0032
3161.00,-0.0032
3160.00,-0.0032
3159.00,-0.0032
3158.00,-0.0032
3157.00,-0.0032
3156.00,-0.0032
3155.00,-0.0032
3154.00,-0.0031
3153.00,-0.0031
3152.00,-0.0032
3151.00,-0.0032
3150.00,-0.0032
3149.00,-0.0032
3148.00,-0.0032
3147.00,-0.0032
3146.00,-0.0032
3145.00,-0.0032
3144.00,-0.0032
3143.00,-0.0032
3142.00,-0.0032
3141.00,-0.0032
3140.00,-0.0032
3139.00,-0.0032
3138.00,-0.0032
3137.00,-0.0032
3136.00,-0.0032
3135.00,-0.0032
3134.00,-0.0031
3133.00,-0.0031
3132.00,-0.0031
3131.00,-0.0032
3130.00,-0.0032
3129.00,-0.0031
3128.00,-0.0031
3127.00,-0.0032
3126.00,-0.0031
3125.00,-0.0031
3124.00,-0.0031
3123.00,-0.0031
3122.00,-0.0031
3121.00,-0.0031
3120.00,-0.0031
3119.00,-0.0031
3118.00,-0.0031
3117.00,-0.0030
3116.00,-0.0030
3115.00,-0.0031
3114.00,-0.0031
3113.00,-0.0031
3112.00,-0.0031
3111.00,-0.0031
3110.00,-0.0031
3109.00,-0.0031
3108.00,-0.0031
3107.00,-0.0032
3106.00,-0.0032
3105.00,-0.0032
3104.00,-0.0032
3103.00,-0.0031
3102.00,-0.0031
3101.00,-0.0031
3100.00,-0.0031
3099.00,-0.0031
3098.00,-0.0031
3097.00,-0.0031
3096.00,-0.0031
3095.00,-0.0031
3094.00,-0.0031
3093.00,-0.0031
3092.00,-0.0032
3091.00,-0.0032
3090.00,-0.0032
3089.00,-0.0032
3088.00,-0.0032
3087.00,-0.0032
3086.00,-0.0032
3085.00,-0.0032
3084.00,-0.0032
3083.00,-0.0032
3082.00,-0.0031
3081.00,-0.0031
3080.00,-0.0031
3079.00,-0.0031
3078.00,-0.0031
3077.00,-0.0031
3076.00,-0.0031
3075.00,-0.0032
3074.00,-0.0032
3073.00,-0.0032
3072.00,-0.0032
3071.00,-0.0032
3070.00,-0.0031
3069.00,-0.0031
3068.00,-0.0031
3067.00,-0.0031
3066.00,-0.0031
3065.00,-0.0031
3064.00,-0.0032
3063.00,-0.0032
3062.00,-0.0032
3061.00,-0.0032
3060.00,-0.0032
3059.00,-0.0032
3058.00,-0.0032
3057.00,-0.0032
3056.00,-0.0032
3055.00,-0.0032
3054.00,-0.0032
3053.00,-0.0032
3052.00,-0.0032
3051.00,-0.0032
3050.00,-0.0032
3049.00,-0.0032
3048.00,-0.0032
3047.00,-0.0032
3046.00,-0.0032
3045.00,-0.0033
3044.00,-0.0033
3043.00,-0.0033
3042.00,-0.0032
3041.00,-0.0032
3040.00,-0.0032
3039.00,-0.0032
3038.00,-0.0032
3037.00,-0.0031
3036.00,-0.0031
3035.00,-0.0032
3034.00,-0.0032
3033.00,-0.0031
3032.00,-0.0031
3031.00,-0.0031
3030.00,-0.0031
3029.00,-0.0032
3028.00,-0.0032
3027.00,-0.0032
3026.00,-0.0032
3025.00,-0.0032
3024.00,-0.0032
3023.00,-0.0032
3022.00,-0.0032
3021.00,-0.0031
3020.00,-0.0031
3019.00,-0.0031
3018.00,-0.0031
3017.00,-0.0030
3016.00,-0.0030
3015.00,-0.0030
3014.00,-0.0030
3013.00,-0.0030
3012.00,-0.0031
3011.00,-0.0031
3010.00,-0.0031
3009.00,-0.0032
3008.00,-0.0032
3007.00,-0.0032
3006.00,-0.0032
3005.00,-0.0032
3004.00,-0.0032
3003.00,-0.0032
3002.00,-0.0032
3001.00,-0.0032
3000.00,-0.0032
2999.00,-0.0032
2998.00,-0.0032
2997.00,-0.0032
2996.00,-0.0032
2995.00,-0.0032
2994.00,-0.0032
2993.00,-0.0032
2992.00,-0.0032
2991.00,-0.0032
2990.00,-0.0032
2989.00,-0.0032
2988.00,-0.0032
2987.00,-0.0032
2986.00,-0.0032
2985.00,-0.0032
2984.00,-0.0032
2983.00,-0.0032
2982.00,-0.0032
2981.00,-0.0032
2980.00,-0.0032
2979.00,-0.0032
2978.00,-0.0032
2977.00,-0.0032
2976.00,-0.0032
2975.00,-0.0032
2974.00,-0.0032
2973.00,-0.0032
2972.00,-0.0032
2971.00,-0.0032
2970.00,-0.0032
2969.00,-0.0032
2968.00,-0.0032
2967.00,-0.0033
2966.00,-0.0033
2965.00,-0.0033
2964.00,-0.0033
2963.00,-0.0032
2962.00,-0.0032
2961.00,-0.0032
2960.00,-0.0032
2959.00,-0.0032
2958.00,-0.0032
2957.00,-0.0032
2956.00,-0.0032
2955.00,-0.0032
2954.00,-0.0032
2953.00,-0.0032
2952.00,-0.0032
2951.00,-0.0032
2950.00,-0.0032
2949.00,-0.0032
2948.00,-0.0032
2947.00,-0.0031
2946.00,-0.0031
2945.00,-0.0032
2944.00,-0.0032
2943.00,-0.0032
2942.00,-0.0032
2941.00,-0.0032
2940.00,-0.0032
2939.00,-0.0032
2938.00,-0.0032
2937.00,-0.0032
2936.00,-0.0032
2935.00,-0.0032
2934.00,-0.0032
2933.00,-0.0032
2932.00,-0.0032
2931.00,-0.0032
2930.00,-0.0032
2929.00,-0.0032
2928.00,-0.0033
2927.00,-0.0033
2926.00,-0.0033
2925.00,-0.0033
2924.00,-0.0032
2923.00,-0.0033
2922.00,-0.0033
2921.00,-0.0033
2920.00,-0.0033
2919.00,-0.0034
2918.00,-0.0034
2917.00,-0.0034
2916.00,-0.0034
2915.00,-0.0033
2914.00,-0.0033
2913.00,-0.0033
2912.00,-0.0033
2911.00,-0.0033
2910.00,-0.0033
2909.00,-0.0033
2908.00,-0.0032
2907.00,-0.0032
2906.00,-0.0032
2905.00,-0.0032
2904.00,-0.0032
2903.00,-0.0033
2902.00,-0.0033
2901.00,-0.0033
2900.00,-0.0033
2899.00,-0.0033
2898.00,-0.0032
2897.00,-0.0032
2896.00,-0.0032
2895.00,-0.0032
2894.00,-0.0033
2893.00,-0.0033
2892.00,-0.0033
2891.00,-0.0032
2890.00,-0.0032
2889.00,-0.0032
2888.00,-0.0032
2887.00,-0.0032
2886.00,-0.0032
2885.00,-0.0032
2884.00,-0.0033
2883.00,-0.0033
2882.00,-0.0033
2881.00,-0.0032
2880.00,-0.0032
2879.00,-0.0032
2878.00,-0.0032
2877.00,-0.0032
2876.00,-0.0033
2875.00,-0.0033
2874.00,-0.0033
2873.00,-0.0033
2872.00,-0.0033
2871.00,-0.0033
2870.00,-0.0033
2869.00,-0.0033
2868.00,-0.0033
2867.00,-0.0032
2866.00,-0.0032
2865.00,-0.0032
2864.00,-0.0032
2863.00,-0.0033
2862.00,-0.0033
2861.00,-0.0033
2860.00,-0.0033
2859.00,-0.0033
2858.00,-0.0033
2857.00,-0.0032
2856.00,-0.0032
2855.00,-0.0032
2854.00,-0.0032
2853.00,-0.0032
2852.00,-0.0032
2851.00,-0.0033
2850.00,-0.0034
2849.00,-0.0034
2848.00,-0.0034
2847.00,-0.0034
2846.00,-0.0033
2845.00,-0.0033
2844.00,-0.0033
2843.00,-0.0033
2842.00,-0.0033
2841.00,-0.0033
2840.00,-0.0033
2839.00,-0.0033
2838.00,-0.0033
2837.00,-0.0033
2836.00,-0.0033
2835.00,-0.0033
2834.00,-0.0033
2833.00,-0.0033
2832.00,-0.0033
2831.00,-0.0033
2830.00,-0.0033
2829.00,-0.0033
2828.00,-0.0033
2827.00,-0.0033
2826.00,-0.0032
2825.00,-0.0032
2824.00,-0.0033
2823.00,-0.0033
2822.00,-0.0033
2821.00,-0.0033
2820.00,-0.0032
2819.00,-0.0032
2818.00,-0.0032
2817.00,-0.0032
2816.00,-0.0033
2815.00,-0.0033
2814.00,-0.0032
2813.00,-0.0032
2812.00,-0.0032
2811.00,-0.0032
2810.00,-0.0032
2809.00,-0.0033
2808.00,-0.0033
2807.00,-0.0033
2806.00,-0.0033
2805.00,-0.0033
2804.00,-0.0033
2803.00,-0.0033
2802.00,-0.0033
2801.00,-0.0033
2800.00,-0.0033
2799.00,-0.0033
2798.00,-0.0033
2797.00,-0.0033
2796.00,-0.0033
2795.00,-0.0033
2794.00,-0.0033
2793.00,-0.0033
2792.00,-0.0033
2791.00,-0.0033
2790.00,-0.0032
2789.00,-0.0032
2788.00,-0.0032
2787.00,-0.0033
2786.00,-0.0033
2785.00,-0.0033
2784.00,-0.0033
2783.00,-0.0033
2782.00,-0.0033
2781.00,-0.0033
2780.00,-0.0033
2779.00,-0.0033
2778.00,-0.0033
2777.00,-0.0033
2776.00,-0.0033
2775.00,-0.0033
2774.00,-0.0033
2773.00,-0.0032
2772.00,-0.0032
2771.00,-0.0032
2770.00,-0.0033
2769.00,-0.0033
2768.00,-0.0033
2767.00,-0.0032
2766.00,-0.0032
2765.00,-0.0032
2764.00,-0.0032
2763.00,-0.0033
2762.00,-0.0033
2761.00,-0.0033
2760.00,-0.0033
2759.00,-0.0033
2758.00,-0.0033
2757.00,-0.0032
2756.00,-0.0033
2755.00,-0.0033
2754.00,-0.0033
2753.00,-0.0033
2752.00,-0.0033
2751.00,-0.0033
2750.00,-0.0033
2749.00,-0.0033
2748.00,-0.0033
2747.00,-0.0033
2746.00,-0.0033
2745.00,-0.0032
2744.00,-0.0032
2743.00,-0.0033
2742.00,-0.0033
2741.00,-0.0033
2740.00,-0.0033
2739.00,-0.0033
2738.00,-0.0033
2737.00,-0.0033
2736.00,-0.0032
2735.00,-0.0032
2734.00,-0.0032
2733.00,-0.0032
2732.00,-0.0032
2731.00,-0.0033
2730.00,-0.0033
2729.00,-0.0033
2728.00,-0.0033
2727.00,-0.0033
2726.00,-0.0033
2725.00,-0.0033
2724.00,-0.0032
2723.00,-0.0032
2722.00,-0.0033
2721.00,-0.0033
2720.00,-0.0033
2719.00,-0.0033
2718.00,-0.0033
2717.00,-0.0033
2716.00,-0.0033
2715.00,-0.0033
2714.00,-0.0033
2713.00,-0.0033
2712.00,-0.0033
2711.00,-0.0033
2710.00,-0.0033
2709.00,-0.0033
2708.00,-0.0033
2707.00,-0.0033
2706.00,-0.0033
2705.00,-0.0033
2704.00,-0.0033
2703.00,-0.0033
2702.00,-0.0033
2701.00,-0.0033
2700.00,-0.0033
2699.00,-0.0033
2698.00,-0.0033
2697.00,-0.0033
2696.00,-0.0033
2695.00,-0.0033
2694.00,-0.0033
2693.00,-0.0033
2692.00,-0.0033
2691.00,-0.0033
2690.00,-0.0033
2689.00,-0.0033
2688.00,-0.0033
2687.00,-0.0032
2686.00,-0.0032
2685.00,-0.0033
2684.00,-0.0033
2683.00,-0.0033
2682.00,-0.0033
2681.00,-0.0033
2680.00,-0.0033
2679.00,-0.0032
2678.00,-0.0032
2677.00,-0.0032
2676.00,-0.0032
2675.00,-0.0032
2674.00,-0.0033
2673.00,-0.0032
2672.00,-0.0032
2671.00,-0.0032
2670.00,-0.0032
2669.00,-0.0033
2668.00,-0.0033
2667.00,-0.0033
2666.00,-0.0033
2665.00,-0.0033
2664.00,-0.0033
2663.00,-0.0033
2662.00,-0.0033
2661.00,-0.0033
2660.00,-0.0033
2659.00,-0.0032
2658.00,-0.0032
2657.00,-0.0032
2656.00,-0.0033
2655.00,-0.0033
2654.00,-0.0033
2653.00,-0.0033
2652.00,-0.0033
2651.00,-0.0033
2650.00,-0.0033
2649.00,-0.0033
2648.00,-0.0033
2647.00,-0.0033
2646.00,-0.0033
2645.00,-0.0033
2644.00,-0.0033
2643.00,-0.0033
2642.00,-0.0032
2641.00,-0.0032
2640.00,-0.0033
2639.00,-0.0033
2638.00,-0.0033
2637.00,-0.0033
2636.00,-0.0033
2635.00,-0.0033
2634.00,-0.0033
2633.00,-0.0033
2632.00,-0.0033
2631.00,-0.0033
2630.00,-0.0033
2629.00,-0.0033
2628.00,-0.0032
2627.00,-0.0032
2626.00,-0.0032
2625.00,-0.0033
2624.00,-0.0033
2623.00,-0.0033
2622.00,-0.0033
2621.00,-0.0033
2620.00,-0.0033
2619.00,-0.0033
2618.00,-0.0033
2617.00,-0.0033
2616.00,-0.0033
2615.00,-0.0033
2614.00,-0.0033
2613.00,-0.0033
2612.00,-0.0033
2611.00,-0.0033
2610.00,-0.0033
2609.00,-0.0033
2608.00,-0.0033
2607.00,-0.0033
2606.00,-0.0033
2605.00,-0.0033
2604.00,-0.0033
2603.00,-0.0033
2602.00,-0.0033
2601.00,-0.0033
2600.00,-0.0033
2599.00,-0.0033
2598.00,-0.0033
2597.00,-0.0033
2596.00,-0.0033
2595.00,-0.0033
2594.00,-0.0033
2593.00,-0.0033
2592.00,-0.0033
2591.00,-0.0033
2590.00,-0.0033
2589.00,-0.0033
2588.00,-0.0033
2587.00,-0.0033
2586.00,-0.0033
2585.00,-0.0033
2584.00,-0.0033
2583.00,-0.0033
2582.00,-0.0033
2581.00,-0.0033
2580.00,-0.0033
2579.00,-0.0033
2578.00,-0.0033
2577.00,-0.0033
2576.00,-0.0033
2575.00,-0.0033
2574.00,-0.0033
2573.00,-0.0033
2572.00,-0.0033
2571.00,-0.0033
2570.00,-0.0033
2569.00,-0.0033
2568.00,-0.0033
2567.00,-0.0033
2566.00,-0.0033
2565.00,-0.0033
2564.00,-0.0033
2563.00,-0.0033
2562.00,-0.0033
2561.00,-0.0033
2560.00,-0.0033
2559.00,-0.0033
2558.00,-0.0033
2557.00,-0.0033
2556.00,-0.0033
2555.00,-0.0033
2554.00,-0.0033
2553.00,-0.0033
2552.00,-0.0033
2551.00,-0.0033
2550.00,-0.0033
2549.00,-0.0033
2548.00,-0.0033
2547.00,-0.0032
2546.00,-0.0032
2545.00,-0.0032
2544.00,-0.0033
2543.00,-0.0033
2542.00,-0.0033
2541.00,-0.0033
2540.00,-0.0033
2539.00,-0.0033
2538.00,-0.0033
2537.00,-0.0033
2536.00,-0.0033
2535.00,-0.0033
2534.00,-0.0033
2533.00,-0.0033
2532.00,-0.0033
2531.00,-0.0033
2530.00,-0.0033
2529.00,-0.0033
2528.00,-0.0033
2527.00,-0.0033
2526.00,-0.0033
2525.00,-0.0033
2524.00,-0.0033
2523.00,-0.0033
2522.00,-0.0033
2521.00,-0.0033
2520.00,-0.0033
2519.00,-0.0033
2518.00,-0.0033
2517.00,-0.0033
2516.00,-0.0033
2515.00,-0.0033
2514.00,-0.0033
2513.00,-0.0033
2512.00,-0.0033
2511.00,-0.0033
2510.00,-0.0033
2509.00,-0.0033
2508.00,-0.0034
2507.00,-0.0034
2506.00,-0.0034
2505.00,-0.0033
2504.00,-0.0033
2503.00,-0.0033
2502.00,-0.0033
2501.00,-0.0033
2500.00,-0.0033
2499.00,-0.0033
2498.00,-0.0033
2497.00,-0.0033
2496.00,-0.0033
2495.00,-0.0034
2494.00,-0.0034
2493.00,-0.0034
2492.00,-0.0034
2491.00,-0.0033
2490.00,-0.0033
2489.00,-0.0033
2488.00,-0.0033
2487.00,-0.0033
2486.00,-0.0033
2485.00,-0.0033
2484.00,-0.0033
2483.00,-0.0033
2482.00,-0.0033
2481.00,-0.0034
2480.00,-0.0034
2479.00,-0.0034
2478.00,-0.0033
2477.00,-0.0033
2476.00,-0.0033
2475.00,-0.0033
2474.00,-0.0033
2473.00,-0.0033
2472.00,-0.0033
2471.00,-0.0033
2470.00,-0.0033
2469.00,-0.0034
2468.00,-0.0034
2467.00,-0.0034
2466.00,-0.0034
2465.00,-0.0034
2464.00,-0.0034
2463.00,-0.0034
2462.00,-0.0034
2461.00,-0.0034
2460.00,-0.0034
2459.00,-0.0033
2458.00,-0.0033
2457.00,-0.0033
2456.00,-0.0033
2455.00,-0.0033
2454.00,-0.0033
2453.00,-0.0033
2452.00,-0.0033
2451.00,-0.0033
2450.00,-0.0033
2449.00,-0.0033
2448.00,-0.0033
2447.00,-0.0033
2446.00,-0.0033
2445.00,-0.0033
2444.00,-0.0033
2443.00,-0.0033
2442.00,-0.0033
2441.00,-0.0033
2440.00,-0.0034
2439.00,-0.0034
2438.00,-0.0034
2437.00,-0.0034
2436.00,-0.0034
2435.00,-0.0034
2434.00,-0.0034
2433.00,-0.0034
2432.00,-0.0034
2431.00,-0.0034
2430.00,-0.0033
2429.00,-0.0034
2428.00,-0.0034
2427.00,-0.0034
2426.00,-0.0034
2425.00,-0.0034
2424.00,-0.0034
2423.00,-0.0034
2422.00,-0.0033
2421.00,-0.0033
2420.00,-0.0033
2419.00,-0.0033
2418.00,-0.0033
2417.00,-0.0033
2416.00,-0.0033
2415.00,-0.0033
2414.00,-0.0033
2413.00,-0.0033
2412.00,-0.0033
2411.00,-0.0033
2410.00,-0.0033
2409.00,-0.0033
2408.00,-0.0033
2407.00,-0.0033
2406.00,-0.0033
2405.00,-0.0033
2404.00,-0.0033
2403.00,-0.0033
2402.00,-0.0032
2401.00,-0.0033
2400.00,-0.0033
2399.00,-0.0033
2398.00,-0.0033
2397.00,-0.0033
2396.00,-0.0032
2395.00,-0.0031
2394.00,-0.0028
2393.00,-0.0022
2392.00,-0.0010
2391.00,0.0012
2390.00,0.0049
2389.00,0.0102
2388.00,0.0172
2387.00,0.0251
2386.00,0.0325
2385.00,0.0376
2384.00,0.0388
2383.00,0.0353
2382.00,0.0274
2381.00,0.0166
2380.00,0.0054
2379.00,-0.0034
2378.00,-0.0073
2377.00,-0.0050
2376.00,0.0033
2375.00,0.0160
2374.00,0.0300
2373.00,0.0422
2372.00,0.0504
2371.00,0.0541
2370.00,0.0545
2369.00,0.0526
2368.00,0.0500
2367.00,0.0489
2366.00,0.0498
2365.00,0.0515
2364.00,0.0519
2363.00,0.0518
2362.00,0.0548
2361.00,0.0610
2360.00,0.0687
2359.00,0.0755
2358.00,0.0777
2357.00,0.0735
2356.00,0.0685
2355.00,0.0677
2354.00,0.0668
2353.00,0.0613
2352.00,0.0572
2351.00,0.0609
2350.00,0.0685
2349.00,0.0725
2348.00,0.0702
2347.00,0.0728
2346.00,0.0794
2345.00,0.1152
2344.00,0.1139
2343.00,0.1629
2342.00,0.0700
2341.00,0.4177
2340.00,8.0000
2339.00,0.9474
2338.00,1.3591
2337.00,1.0709
2336.00,1.1755
2335.00,1.0911
2334.00,1.0992
2333.00,1.0759
2332.00,1.0648
2331.00,1.0247
2330.00,1.0498
2329.00,0.9368
2328.00,1.0614
2327.00,0.7928
2326.00,1.4049
2325.00,0.2947
2324.00,0.0435
2323.00,0.1059
2322.00,0.0702
2321.00,0.0920
2320.00,0.0862
2319.00,0.0958
2318.00,0.0946
2317.00,0.0924
2316.00,0.0874
2315.00,0.0838
2314.00,0.0853
2313.00,0.0926
2312.00,0.1025
2311.00,0.1104
2310.00,0.1130
2309.00,0.1098
2308.00,0.1023
2307.00,0.0926
2306.00,0.0840
2305.00,0.0799
2304.00,0.0816
2303.00,0.0867
2302.00,0.0905
2301.00,0.0905
2300.00,0.0879
2299.00,0.0856
2298.00,0.0849
2297.00,0.0847
2296.00,0.0833
2295.00,0.0799
2294.00,0.0748
2293.00,0.0690
2292.00,0.0634
2291.00,0.0586
2290.00,0.0543
2289.00,0.0496
2288.00,0.0442
2287.00,0.0381
2286.00,0.0321
2285.00,0.0270
2284.00,0.0237
2283.00,0.0226
2282.00,0.0230
2281.00,0.0238
2280.00,0.0241
2279.00,0.0236
2278.00,0.0226
2277.00,0.0215
2276.00,0.0202
2275.00,0.0190
2274.00,0.0179
2273.00,0.0169
2272.00,0.0161
2271.00,0.0155
2270.00,0.0153
2269.00,0.0152
2268.00,0.0154
2267.00,0.0156
2266.00,0.0157
2265.00,0.0157
2264.00,0.0156
2263.00,0.0153
2262.00,0.0149
2261.00,0.0145
2260.00,0.0141
2259.00,0.0137
2258.00,0.0135
2257.00,0.0132
2256.00,0.0127
2255.00,0.0120
2254.00,0.0113
2253.00,0.0105
2252.00,0.0096
2251.00,0.0086
2250.00,0.0077
2249.00,0.0068
2248.00,0.0059
2247.00,0.0051
2246.00,0.0044
2245.00,0.0037
2244.00,0.0030
2243.00,0.0024
2242.00,0.0018
2241.00,0.0012
2240.00,0.0006
2239.00,0.0002
2238.00,-0.0002
2237.00,-0.0006
2236.00,-0.0009
2235.00,-0.0012
2234.00,-0.0015
2233.00,-0.0017
2232.00,-0.0020
2231.00,-0.0022
2230.00,-0.0023
2229.00,-0.0025
2228.00,-0.0026
2227.00,-0.0027
2226.00,-0.0028
2225.00,-0.0029
2224.00,-0.0030
2223.00,-0.0030
2222.00,-0.0031
2221.00,-0.0032
2220.00,-0.0032
2219.00,-0.0033
2218.00,-0.0033
2217.00,-0.0033
2216.00,-0.0033
2215.00,-0.0033
2214.00,-0.0033
2213.00,-0.0033
2212.00,-0.0033
2211.00,-0.0033
2210.00,-0.0033
2209.00,-0.0033
2208.00,-0.0034
2207.00,-0.0034
2206.00,-0.0034
2205.00,-0.0034
2204.00,-0.0034
2203.00,-0.0034
2202.00,-0.0034
2201.00,-0.0034
2200.00,-0.0034
2199.00,-0.0034
2198.00,-0.0034
2197.00,-0.0034
2196.00,-0.0035
2195.00,-0.0035
2194.00,-0.0035
2193.00,-0.0034
2192.00,-0.0034
2191.00,-0.0034
2190.00,-0.0034
2189.00,-0.0034
2188.00,-0.0034
2187.00,-0.0034
2186.00,-0.0034
2185.00,-0.0034
2184.00,-0.0034
2183.00,-0.0034
2182.00,-0.0034
2181.00,-0.0034
2180.00,-0.0035
2179.00,-0.0035
2178.00,-0.0034
2177.00,-0.0034
2176.00,-0.0034
2175.00,-0.0035
2174.00,-0.0035
2173.00,-0.0035
2172.00,-0.0035
2171.00,-0.0035
2170.00,-0.0035
2169.00,-0.0035
2168.00,-0.0035
2167.00,-0.0034
2166.00,-0.0034
2165.00,-0.0034
2164.00,-0.0034
2163.00,-0.0034
2162.00,-0.0035
2161.00,-0.0035
2160.00,-0.0035
2159.00,-0.0034
2158.00,-0.0034
2157.00,-0.0034
2156.00,-0.0034
2155.00,-0.0034
2154.00,-0.0034
2153.00,-0.0035
2152.00,-0.0035
2151.00,-0.0035
2150.00,-0.0035
2149.00,-0.0035
2148.00,-0.0035
2147.00,-0.0035
2146.00,-0.0035
2145.00,-0.0035
2144.00,-0.0035
2143.00,-0.0035
2142.00,-0.0034
2141.00,-0.0034
2140.00,-0.0034
2139.00,-0.0034
2138.00,-0.0034
2137.00,-0.0034
2136.00,-0.0034
2135.00,-0.0034
2134.00,-0.0034
2133.00,-0.0034
2132.00,-0.0034
2131.00,-0.0034
2130.00,-0.0033
2129.00,-0.0034
2128.00,-0.0034
2127.00,-0.0035
2126.00,-0.0035
2125.00,-0.0035
2124.00,-0.0035
2123.00,-0.0035
2122.00,-0.0034
2121.00,-0.0034
2120.00,-0.0034
2119.00,-0.0034
2118.00,-0.0034
2117.00,-0.0034
2116.00,-0.0034
2115.00,-0.0034
2114.00,-0.0034
2113.00,-0.0034
2112.00,-0.0034
2111.00,-0.0035
2110.00,-0.0035
2109.00,-0.0034
2108.00,-0.0034
2107.00,-0.0034
2106.00,-0.0034
2105.00,-0.0034
2104.00,-0.0035
2103.00,-0.0035
2102.00,-0.0034
2101.00,-0.0034
2100.00,-0.0035
2099.00,-0.0034
2098.00,-0.0034
2097.00,-0.0034
2096.00,-0.0033
2095.00,-0.0032
2094.00,-0.0032
2093.00,-0.0033
2092.00,-0.0033
2091.00,-0.0034
2090.00,-0.0034
2089.00,-0.0034
2088.00,-0.0034
2087.00,-0.0034
2086.00,-0.0034
2085.00,-0.0034
2084.00,-0.0034
2083.00,-0.0034
2082.00,-0.0033
2081.00,-0.0032
2080.00,-0.0029
2079.00,-0.0025
2078.00,-0.0023
2077.00,-0.0024
2076.00,-0.0028
2075.00,-0.0032
2074.00,-0.0034
2073.00,-0.0034
2072.00,-0.0033
2071.00,-0.0033
2070.00,-0.0033
2069.00,-0.0033
2068.00,-0.0033
2067.00,-0.0033
2066.00,-0.0032
2065.00,-0.0032
2064.00,-0.0032
2063.00,-0.0032
2062.00,-0.0032
2061.00,-0.0032
2060.00,-0.0032
2059.00,-0.0033
2058.00,-0.0033
2057.00,-0.0032
2056.00,-0.0033
2055.00,-0.0033
2054.00,-0.0033
2053.00,-0.0033
2052.00,-0.0033
2051.00,-0.0033
2050.00,-0.0033
2049.00,-0.0034
2048.00,-0.0034
2047.00,-0.0034
2046.00,-0.0034
2045.00,-0.0034
2044.00,-0.0034
2043.00,-0.0034
2042.00,-0.0034
2041.00,-0.0034
2040.00,-0.0034
2039.00,-0.0034
2038.00,-0.0034
2037.00,-0.0034
2036.00,-0.0034
2035.00,-0.0035
2034.00,-0.0035
2033.00,-0.0035
2032.00,-0.0035
2031.00,-0.0035
2030.00,-0.0035
2029.00,-0.0035
2028.00,-0.0035
2027.00,-0.0035
2026.00,-0.0035
2025.00,-0.0035
2024.00,-0.0035
2023.00,-0.0035
2022.00,-0.0035
2021.00,-0.0035
2020.00,-0.0035
2019.00,-0.0035
2018.00,-0.0035
2017.00,-0.0035
2016.00,-0.0036
2015.00,-0.0036
2014.00,-0.0035
2013.00,-0.0035
2012.00,-0.0035
2011.00,-0.0036
2010.00,-0.0035
2009.00,-0.0036
2008.00,-0.0036
2007.00,-0.0036
2006.00,-0.0035
2005.00,-0.0035
2004.00,-0.0035
2003.00,-0.0035
2002.00,-0.0035
2001.00,-0.0035
2000.00,-0.0035
1999.00,-0.0035
1998.00,-0.0035
1997.00,-0.0035
1996.00,-0.0035
1995.00,-0.0035
1994.00,-0.0035
1993.00,-0.0035
1992.00,-0.0035
1991.00,-0.0035
1990.00,-0.0035
1989.00,-0.0035
1988.00,-0.0035
1987.00,-0.0035
1986.00,-0.0035
1985.00,-0.0035
1984.00,-0.0035
1983.00,-0.0036
1982.00,-0.0036
1981.00,-0.0036
1980.00,-0.0036
1979.00,-0.0036
1978.00,-0.0036
1977.00,-0.0036
1976.00,-0.0035
1975.00,-0.0035
1974.00,-0.0035
1973.00,-0.0035
1972.00,-0.0035
1971.00,-0.0035
1970.00,-0.0035
1969.00,-0.0035
1968.00,-0.0035
1967.00,-0.0035
1966.00,-0.0035
1965.00,-0.0035
1964.00,-0.0035
1963.00,-0.0035
1962.00,-0.0035
1961.00,-0.0036
1960.00,-0.0036
1959.00,-0.0036
1958.00,-0.0036
1957.00,-0.0036
1956.00,-0.0036
1955.00,-0.0035
1954.00,-0.0035
1953.00,-0.0036
1952.00,-0.0036
1951.00,-0.0036
1950.00,-0.0036
1949.00,-0.0036
1948.00,-0.0035
1947.00,-0.0035
1946.00,-0.0035
1945.00,-0.0035
1944.00,-0.0035
1943.00,-0.0036
1942.00,-0.0036
1941.00,-0.0036
1940.00,-0.0036
1939.00,-0.0036
1938.00,-0.0036
1937.00,-0.0036
1936.00,-0.0036
1935.00,-0.0035
1934.00,-0.0034
1933.00,-0.0034
1932.00,-0.0035
1931.00,-0.0035
1930.00,-0.0036
1929.00,-0.0036
1928.00,-0.0036
1927.00,-0.0036
1926.00,-0.0035
1925.00,-0.0035
1924.00,-0.0035
1923.00,-0.0034
1922.00,-0.0034
1921.00,-0.0035
1920.00,-0.0036
1919.00,-0.0037
1918.00,-0.0036
1917.00,-0.0036
1916.00,-0.0036
1915.00,-0.0035
1914.00,-0.0034
1913.00,-0.0034
1912.00,-0.0034
1911.00,-0.0033
1910.00,-0.0033
1909.00,-0.0034
1908.00,-0.0035
1907.00,-0.0035
1906.00,-0.0035
1905.00,-0.0035
1904.00,-0.0036
1903.00,-0.0035
1902.00,-0.0035
1901.00,-0.0036
1900.00,-0.0036
1899.00,-0.0036
1898.00,-0.0035
1897.00,-0.0035
1896.00,-0.0036
1895.00,-0.0035
1894.00,-0.0035
1893.00,-0.0036
1892.00,-0.0037
1891.00,-0.0038
1890.00,-0.0037
1889.00,-0.0038
1888.00,-0.0038
1887.00,-0.0037
1886.00,-0.0035
1885.00,-0.0035
1884.00,-0.0036
1883.00,-0.0036
1882.00,-0.0036
1881.00,-0.0036
1880.00,-0.0037
1879.00,-0.0036
1878.00,-0.0036
1877.00,-0.0036
1876.00,-0.0036
1875.00,-0.0036
1874.00,-0.0036
1873.00,-0.0036
1872.00,-0.0038
1871.00,-0.0039
1870.00,-0.0038
1869.00,-0.0037
1868.00,-0.0036
1867.00,-0.0035
1866.00,-0.0034
1865.00,-0.0035
1864.00,-0.0037
1863.00,-0.0037
1862.00,-0.0036
1861.00,-0.0036
1860.00,-0.0037
1859.00,-0.0037
1858.00,-0.0036
1857.00,-0.0036
1856.00,-0.0037
1855.00,-0.0037
1854.00,-0.0036
1853.00,-0.0036
1852.00,-0.0036
1851.00,-0.0036
1850.00,-0.0035
1849.00,-0.0035
1848.00,-0.0035
1847.00,-0.0034
1846.00,-0.0034
1845.00,-0.0035
1844.00,-0.0035
1843.00,-0.0035
1842.00,-0.0035
1841.00,-0.0036
1840.00,-0.0036
1839.00,-0.0035
1838.00,-0.0035
1837.00,-0.0035
1836.00,-0.0036
1835.00,-0.0036
1834.00,-0.0037
1833.00,-0.0038
1832.00,-0.0039
1831.00,-0.0039
1830.00,-0.0039
1829.00,-0.0039
1828.00,-0.0038
1827.00,-0.0038
1826.00,-0.0037
1825.00,-0.0037
1824.00,-0.0038
1823.00,-0.0038
1822.00,-0.0037
1821.00,-0.0037
1820.00,-0.0038
1819.00,-0.0038
1818.00,-0.0038
1817.00,-0.0038
1816.00,-0.0038
1815.00,-0.0038
1814.00,-0.0036
1813.00,-0.0034
1812.00,-0.0034
1811.00,-0.0034
1810.00,-0.0034
1809.00,-0.0034
1808.00,-0.0036
1807.00,-0.0037
1806.00,-0.0036
1805.00,-0.0037
1804.00,-0.0038
1803.00,-0.0039
1802.00,-0.0037
1801.00,-0.0035
1800.00,-0.0035
1799.00,-0.0035
1798.00,-0.0033
1797.00,-0.0033
1796.00,-0.0034
1795.00,-0.0034
1794.00,-0.0034
1793.00,-0.0035
1792.00,-0.0038
1791.00,-0.0038
1790.00,-0.0037
1789.00,-0.0036
1788.00,-0.0037
1787.00,-0.0036
1786.00,-0.0036
1785.00,-0.0036
1784.00,-0.0036
1783.00,-0.0036
1782.00,-0.0033
1781.00,-0.0032
1780.00,-0.0033
1779.00,-0.0034
1778.00,-0.0035
1777.00,-0.0035
1776.00,-0.0035
1775.00,-0.0036
1774.00,-0.0036
1773.00,-0.0036
1772.00,-0.0036
1771.00,-0.0037
1770.00,-0.0038
1769.00,-0.0038
1768.00,-0.0038
1767.00,-0.0038
1766.00,-0.0038
1765.00,-0.0037
1764.00,-0.0038
1763.00,-0.0041
1762.00,-0.0042
1761.00,-0.0040
1760.00,-0.0039
1759.00,-0.0039
1758.00,-0.0040
1757.00,-0.0039
1756.00,-0.0038
1755.00,-0.0037
1754.00,-0.0033
1753.00,-0.0028
1752.00,-0.0025
1751.00,-0.0025
1750.00,-0.0025
1749.00,-0.0025
1748.00,-0.0025
1747.00,-0.0028
1746.00,-0.0030
1745.00,-0.0029
1744.00,-0.0030
1743.00,-0.0033
1742.00,-0.0034
1741.00,-0.0034
1740.00,-0.0034
1739.00,-0.0035
1738.00,-0.0034
1737.00,-0.0029
1736.00,-0.0024
1735.00,-0.0024
1734.00,-0.0025
1733.00,-0.0024
1732.00,-0.0026
1731.00,-0.0029
1730.00,-0.0032
1729.00,-0.0035
1728.00,-0.0036
1727.00,-0.0037
1726.00,-0.0036
1725.00,-0.0036
1724.00,-0.0036
1723.00,-0.0036
1722.00,-0.0035
1721.00,-0.0036
1720.00,-0.0038
1719.00,-0.0041
1718.00,-0.0040
1717.00,-0.0040
1716.00,-0.0040
1715.00,-0.0037
1714.00,-0.0034
1713.00,-0.0034
1712.00,-0.0036
1711.00,-0.0035
1710.00,-0.0033
1709.00,-0.0033
1708.00,-0.0034
1707.00,-0.0034
1706.00,-0.0035
1705.00,-0.0038
1704.00,-0.0039
1703.00,-0.0032
1702.00,-0.0023
1701.00,-0.0024
1700.00,-0.0028
1699.00,-0.0031
1698.00,-0.0031
1697.00,-0.0034
1696.00,-0.0036
1695.00,-0.0036
1694.00,-0.0034
1693.00,-0.0034
1692.00,-0.0035
1691.00,-0.0035
1690.00,-0.0034
1689.00,-0.0034
1688.00,-0.0035
1687.00,-0.0038
1686.00,-0.0043
1685.00,-0.0048
1684.00,-0.0046
1683.00,-0.0041
1682.00,-0.0038
1681.00,-0.0036
1680.00,-0.0035
1679.00,-0.0035
1678.00,-0.0036
1677.00,-0.0036
1676.00,-0.0034
1675.00,-0.0035
1674.00,-0.0037
1673.00,-0.0037
1672.00,-0.0034
1671.00,-0.0031
1670.00,-0.0031
1669.00,-0.0033
1668.00,-0.0035
1667.00,-0.0037
1666.00,-0.0039
1665.00,-0.0039
1664.00,-0.0037
1663.00,-0.0036
1662.00,-0.0037
1661.00,-0.0038
1660.00,-0.0037
1659.00,-0.0038
1658.00,-0.0040
1657.00,-0.0040
1656.00,-0.0037
1655.00,-0.0038
1654.00,-0.0045
1653.00,-0.0044
1652.00,-0.0035
1651.00,-0.0032
1650.00,-0.0035
1649.00,-0.0034
1648.00,-0.0032
1647.00,-0.0034
1646.00,-0.0035
1645.00,-0.0035
1644.00,-0.0035
1643.00,-0.0035
1642.00,-0.0035
1641.00,-0.0035
1640.00,-0.0034
1639.00,-0.0033
1638.00,-0.0030
1637.00,-0.0028
1636.00,-0.0029
1635.00,-0.0032
1634.00,-0.0034
1633.00,-0.0037
1632.00,-0.0038
1631.00,-0.0036
1630.00,-0.0034
1629.00,-0.0034
1628.00,-0.0034
1627.00,-0.0035
1626.00,-0.0036
1625.00,-0.0035
1624.00,-0.0033
1623.00,-0.0032
1622.00,-0.0035
1621.00,-0.0038
1620.00,-0.0037
1619.00,-0.0033
1618.00,-0.0031
1617.00,-0.0030
1616.00,-0.0030
1615.00,-0.0032
1614.00,-0.0036
1613.00,-0.0039
1612.00,-0.0036
1611.00,-0.0033
1610.00,-0.0033
1609.00,-0.0034
1608.00,-0.0034
1607.00,-0.0034
1606.00,-0.0036
1605.00,-0.0037
1604.00,-0.0035
1603.00,-0.0034
1602.00,-0.0036
1601.00,-0.0037
1600.00,-0.0037
1599.00,-0.0037
1598.00,-0.0038
1597.00,-0.0038
1596.00,-0.0036
1595.00,-0.0035
1594.00,-0.0037
1593.00,-0.0038
1592.00,-0.0037
1591.00,-0.0036
1590.00,-0.0037
1589.00,-0.0038
1588.00,-0.0038
1587.00,-0.0037
1586.00,-0.0038
1585.00,-0.0040
1584.00,-0.0038
1583.00,-0.0037
1582.00,-0.0039
1581.00,-0.0041
1580.00,-0.0040
1579.00,-0.0037
1578.00,-0.0035
1577.00,-0.0034
1576.00,-0.0031
1575.00,-0.0032
1574.00,-0.0037
1573.00,-0.0040
1572.00,-0.0038
1571.00,-0.0035
1570.00,-0.0036
1569.00,-0.0036
1568.00,-0.0033
1567.00,-0.0032
1566.00,-0.0034
1565.00,-0.0035
1564.00,-0.0035
1563.00,-0.0036
1562.00,-0.0038
1561.00,-0.0044
1560.00,-0.0049
1559.00,-0.0047
1558.00,-0.0042
1557.00,-0.0038
1556.00,-0.0037
1555.00,-0.0038
1554.00,-0.0038
1553.00,-0.0036
1552.00,-0.0034
1551.00,-0.0033
1550.00,-0.0035
1549.00,-0.0036
1548.00,-0.0036
1547.00,-0.0036
1546.00,-0.0037
1545.00,-0.0037
1544.00,-0.0034
1543.00,-0.0032
1542.00,-0.0033
1541.00,-0.0036
1540.00,-0.0038
1539.00,-0.0034
1538.00,-0.0031
1537.00,-0.0033
1536.00,-0.0036
1535.00,-0.0036
1534.00,-0.0036
1533.00,-0.0036
1532.00,-0.0037
1531.00,-0.0037
1530.00,-0.0035
1529.00,-0.0035
1528.00,-0.0037
1527.00,-0.0038
1526.00,-0.0038
1525.00,-0.0038
1524.00,-0.0037
1523.00,-0.0038
1522.00,-0.0040
1521.00,-0.0042
1520.00,-0.0041
1519.00,-0.0039
1518.00,-0.0035
1517.00,-0.0034
1516.00,-0.0036
1515.00,-0.0038
1514.00,-0.0037
1513.00,-0.0037
1512.00,-0.0038
1511.00,-0.0038
1510.00,-0.0034
1509.00,-0.0029
1508.00,-0.0029
1507.00,-0.0034
1506.00,-0.0035
1505.00,-0.0030
1504.00,-0.0031
1503.00,-0.0034
1502.00,-0.0034
1501.00,-0.0034
1500.00,-0.0035
1499.00,-0.0038
1498.00,-0.0037
1497.00,-0.0035
1496.00,-0.0034
1495.00,-0.0033
1494.00,-0.0031
1493.00,-0.0030
1492.00,-0.0031
1491.00,-0.0031
1490.00,-0.0030
1489.00,-0.0030
1488.00,-0.0032
1487.00,-0.0033
1486.00,-0.0032
1485.00,-0.0033
1484.00,-0.0033
1483.00,-0.0032
1482.00,-0.0031
1481.00,-0.0031
1480.00,-0.0032
1479.00,-0.0032
1478.00,-0.0031
1477.00,-0.0032
1476.00,-0.0034
1475.00,-0.0034
1474.00,-0.0033
1473.00,-0.0032
1472.00,-0.0032
1471.00,-0.0031
1470.00,-0.0031
1469.00,-0.0032
1468.00,-0.0033
1467.00,-0.0032
1466.00,-0.0031
1465.00,-0.0030
1464.00,-0.0030
1463.00,-0.0031
1462.00,-0.0031
1461.00,-0.0030
1460.00,-0.0028
1459.00,-0.0025
1458.00,-0.0023
1457.00,-0.0020
1456.00,-0.0019
1455.00,-0.0022
1454.00,-0.0027
1453.00,-0.0030
1452.00,-0.0031
1451.00,-0.0032
1450.00,-0.0033
1449.00,-0.0032
1448.00,-0.0033
1447.00,-0.0035
1446.00,-0.0035
1445.00,-0.0034
1444.00,-0.0033
1443.00,-0.0035
1442.00,-0.0035
1441.00,-0.0034
1440.00,-0.0032
1439.00,-0.0031
1438.00,-0.0030
1437.00,-0.0028
1436.00,-0.0027
1435.00,-0.0030
1434.00,-0.0032
1433.00,-0.0032
1432.00,-0.0031
1431.00,-0.0033
1430.00,-0.0034
1429.00,-0.0033
1428.00,-0.0033
1427.00,-0.0033
1426.00,-0.0033
1425.00,-0.0029
1424.00,-0.0027
1423.00,-0.0029
1422.00,-0.0031
1421.00,-0.0029
1420.00,-0.0027
1419.00,-0.0029
1418.00,-0.0031
1417.00,-0.0031
1416.00,-0.0031
1415.00,-0.0033
1414.00,-0.0034
1413.00,-0.0033
1412.00,-0.0032
1411.00,-0.0034
1410.00,-0.0036
1409.00,-0.0035
1408.00,-0.0034
1407.00,-0.0035
1406.00,-0.0035
1405.00,-0.0034
1404.00,-0.0034
1403.00,-0.0035
1402.00,-0.0036
1401.00,-0.0035
1400.00,-0.0033
1399.00,-0.0034
1398.00,-0.0035
1397.00,-0.0035
1396.00,-0.0036
1395.00,-0.0039
1394.00,-0.0041
1393.00,-0.0038
1392.00,-0.0035
1391.00,-0.0035
1390.00,-0.0037
1389.00,-0.0038
1388.00,-0.0038
1387.00,-0.0037
1386.00,-0.0037
1385.00,-0.0036
1384.00,-0.0035
1383.00,-0.0035
1382.00,-0.0035
1381.00,-0.0035
1380.00,-0.0035
1379.00,-0.0035
1378.00,-0.0035
1377.00,-0.0034
1376.00,-0.0032
1375.00,-0.0033
1374.00,-0.0035
1373.00,-0.0036
1372.00,-0.0036
1371.00,-0.0036
1370.00,-0.0036
1369.00,-0.0036
1368.00,-0.0035
1367.00,-0.0036
1366.00,-0.0037
1365.00,-0.0037
1364.00,-0.0038
1363.00,-0.0039
1362.00,-0.0040
1361.00,-0.0040
1360.00,-0.0038
1359.00,-0.0037
1358.00,-0.0036
1357.00,-0.0036
1356.00,-0.0036
1355.00,-0.0036
1354.00,-0.0036
1353.00,-0.0036
1352.00,-0.0036
1351.00,-0.0035
1350.00,-0.0034
1349.00,-0.0034
1348.00,-0.0034
1347.00,-0.0035
1346.00,-0.0036
1345.00,-0.0037
1344.00,-0.0037
1343.00,-0.0036
1342.00,-0.0035
1341.00,-0.0033
1340.00,-0.0032
1339.00,-0.0033
1338.00,-0.0035
1337.00,-0.0036
1336.00,-0.0036
1335.00,-0.0036
1334.00,-0.0036
1333.00,-0.0035
1332.00,-0.0035
1331.00,-0.0035
1330.00,-0.0035
1329.00,-0.0035
1328.00,-0.0035
1327.00,-0.0035
1326.00,-0.0036
1325.00,-0.0036
1324.00,-0.0035
1323.00,-0.0035
1322.00,-0.0035
1321.00,-0.0034
1320.00,-0.0033
1319.00,-0.0033
1318.00,-0.0034
1317.00,-0.0035
1316.00,-0.0035
1315.00,-0.0035
1314.00,-0.0035
1313.00,-0.0034
1312.00,-0.0034
1311.00,-0.0034
1310.00,-0.0035
1309.00,-0.0035
1308.00,-0.0034
1307.00,-0.0034
1306.00,-0.0035
1305.00,-0.0034
1304.00,-0.0034
1303.00,-0.0034
1302.00,-0.0034
1301.00,-0.0035
1300.00,-0.0035
1299.00,-0.0035
1298.00,-0.0035
1297.00,-0.0035
1296.00,-0.0034
1295.00,-0.0034
1294.00,-0.0034
1293.00,-0.0034
1292.00,-0.0034
1291.00,-0.0034
1290.00,-0.0034
1289.00,-0.0034
1288.00,-0.0033
1287.00,-0.0034
1286.00,-0.0034
1285.00,-0.0034
1284.00,-0.0033
1283.00,-0.0033
1282.00,-0.0034
1281.00,-0.0034
1280.00,-0.0034
1279.00,-0.0034
1278.00,-0.0035
1277.00,-0.0034
1276.00,-0.0034
1275.00,-0.0033
1274.00,-0.0033
1273.00,-0.0033
1272.00,-0.0032
1271.00,-0.0032
1270.00,-0.0033
1269.00,-0.0033
1268.00,-0.0033
1267.00,-0.0033
1266.00,-0.0034
1265.00,-0.0034
1264.00,-0.0034
1263.00,-0.0034
1262.00,-0.0034
1261.00,-0.0034
1260.00,-0.0033
1259.00,-0.0033
1258.00,-0.0033
1257.00,-0.0033
1256.00,-0.0033
1255.00,-0.0033
1254.00,-0.0034
1253.00,-0.0034
1252.00,-0.0033
1251.00,-0.0033
1250.00,-0.0033
1249.00,-0.0032
1248.00,-0.0032
1247.00,-0.0032
1246.00,-0.0032
1245.00,-0.0032
1244.00,-0.0031
1243.00,-0.0031
1242.00,-0.0031
1241.00,-0.0031
1240.00,-0.0031
1239.00,-0.0032
1238.00,-0.0032
1237.00,-0.0032
1236.00,-0.0031
1235.00,-0.0031
1234.00,-0.0031
1233.00,-0.0031
1232.00,-0.0031
1231.00,-0.0031
1230.00,-0.0032
1229.00,-0.0031
1228.00,-0.0030
1227.00,-0.0030
1226.00,-0.0030
1225.00,-0.0030
1224.00,-0.0030
1223.00,-0.0030
1222.00,-0.0030
1221.00,-0.0030
1220.00,-0.0029
1219.00,-0.0029
1218.00,-0.0029
1217.00,-0.0029
1216.00,-0.0029
1215.00,-0.0029
1214.00,-0.0029
1213.00,-0.0028
1212.00,-0.0027
1211.00,-0.0026
1210.00,-0.0027
1209.00,-0.0027
1208.00,-0.0027
1207.00,-0.0027
1206.00,-0.0027
1205.00,-0.0027
1204.00,-0.0027
1203.00,-0.0027
1202.00,-0.0026
1201.00,-0.0026
1200.00,-0.0025
1199.00,-0.0025
1198.00,-0.0025
1197.00,-0.0025
1196.00,-0.0024
1195.00,-0.0025
1194.00,-0.0026
1193.00,-0.0026
1192.00,-0.0026
1191.00,-0.0026
1190.00,-0.0026
1189.00,-0.0025
1188.00,-0.0024
1187.00,-0.0025
1186.00,-0.0026
1185.00,-0.0026
1184.00,-0.0025
1183.00,-0.0025
1182.00,-0.0024
1181.00,-0.0024
1180.00,-0.0023
1179.00,-0.0023
1178.00,-0.0024
1177.00,-0.0023
1176.00,-0.0023
1175.00,-0.0023
1174.00,-0.0024
1173.00,-0.0024
1172.00,-0.0023
1171.00,-0.0023
1170.00,-0.0023
1169.00,-0.0023
1168.00,-0.0022
1167.00,-0.0022
1166.00,-0.0022
1165.00,-0.0022
1164.00,-0.0022
1163.00,-0.0022
1162.00,-0.0022
1161.00,-0.0022
1160.00,-0.0022
1159.00,-0.0022
1158.00,-0.0022
1157.00,-0.0021
1156.00,-0.0021
1155.00,-0.0021
1154.00,-0.0022
1153.00,-0.0022
1152.00,-0.0022
1151.00,-0.0022
1150.00,-0.0022
1149.00,-0.0021
1148.00,-0.0020
1147.00,-0.0020
1146.00,-0.0020
1145.00,-0.0019
1144.00,-0.0018
1143.00,-0.0018
1142.00,-0.0019
1141.00,-0.0020
1140.00,-0.0019
1139.00,-0.0019
1138.00,-0.0019
1137.00,-0.0018
1136.00,-0.0017
1135.00,-0.0017
1134.00,-0.0017
1133.00,-0.0017
1132.00,-0.0016
1131.00,-0.0016
1130.00,-0.0017
1129.00,-0.0016
1128.00,-0.0016
1127.00,-0.0017
1126.00,-0.0018
1125.00,-0.0019
1124.00,-0.0018
1123.00,-0.0018
1122.00,-0.0018
1121.00,-0.0017
1120.00,-0.0016
1119.00,-0.0016
1118.00,-0.0016
1117.00,-0.0015
1116.00,-0.0014
1115.00,-0.0014
1114.00,-0.0014
1113.00,-0.0014
1112.00,-0.0013
1111.00,-0.0013
1110.00,-0.0013
1109.00,-0.0011
1108.00,-0.0010
1107.00,-0.0010
1106.00,-0.0011
1105.00,-0.0011
1104.00,-0.0011
1103.00,-0.0011
1102.00,-0.0012
1101.00,-0.0011
1100.00,-0.0010
1099.00,-0.0009
1098.00,-0.0009
1097.00,-0.0008
1096.00,-0.0007
1095.00,-0.0007
1094.00,-0.0008
1093.00,-0.0008
1092.00,-0.0007
1091.00,-0.0007
1090.00,-0.0007
1089.00,-0.0006
1088.00,-0.0005
1087.00,-0.0006
1086.00,-0.0007
1085.00,-0.0006
1084.00,-0.0004
1083.00,-0.0002
1082.00,-0.0001
1081.00,-0.0000
1080.00,0.0001
1079.00,0.0000
1078.00,-0.0001
1077.00,-0.0002
1076.00,-0.0003
1075.00,-0.0003
1074.00,-0.0002
1073.00,0.0000
1072.00,0.0002
1071.00,0.0003
1070.00,0.0002
1069.00,0.0002
1068.00,0.0003
1067.00,0.0003
1066.00,0.0002
1065.00,0.0003
1064.00,0.0004
1063.00,0.0004
1062.00,0.0004
1061.00,0.0005
1060.00,0.0006
1059.00,0.0006
1058.00,0.0005
1057.00,0.0006
1056.00,0.0008
1055.00,0.0007
1054.00,0.0006
1053.00,0.0006
1052.00,0.0008
1051.00,0.0009
1050.00,0.0010
1049.00,0.0010
1048.00,0.0011
1047.00,0.0010
1046.00,0.0010
1045.00,0.0010
1044.00,0.0012
1043.00,0.0012
1042.00,0.0011
1041.00,0.0011
1040.00,0.0012
1039.00,0.0013
1038.00,0.0012
1037.00,0.0013
1036.00,0.0014
1035.00,0.0014
1034.00,0.0014
1033.00,0.0016
1032.00,0.0017
1031.00,0.0017
1030.00,0.0016
1029.00,0.0018
1028.00,0.0020
1027.00,0.0021
1026.00,0.0020
1025.00,0.0021
1024.00,0.0023
1023.00,0.0024
1022.00,0.0024
1021.00,0.0026
1020.00,0.0029
1019.00,0.0030
1018.00,0.0029
1017.00,0.0027
1016.00,0.0026
1015.00,0.0024
1014.00,0.0022
1013.00,0.0024
1012.00,0.0027
1011.00,0.0028
1010.00,0.0028
1009.00,0.0031
1008.00,0.0034
1007.00,0.0034
1006.00,0.0033
1005.00,0.0033
1004.00,0.0033
1003.00,0.0032
1002.00,0.0031
1001.00,0.0035
1000.00,0.0040
999.00,0.0042
998.00,0.0043
997.00,0.0045
996.00,0.0046
995.00,0.0045
994.00,0.0042
993.00,0.0043
992.00,0.0045
991.00,0.0045
990.00,0.0044
989.00,0.0046
988.00,0.0048
987.00,0.0047
986.00,0.0045
985.00,0.0048
984.00,0.0055
983.00,0.0059
982.00,0.0060
981.00,0.0061
980.00,0.0062
979.00,0.0060
978.00,0.0056
977.00,0.0056
976.00,0.0058
975.00,0.0057
974.00,0.0057
973.00,0.0061
972.00,0.0066
971.00,0.0064
970.00,0.0058
969.00,0.0057
968.00,0.0060
967.00,0.0063
966.00,0.0065
965.00,0.0070
964.00,0.0075
963.00,0.0075
962.00,0.0075
961.00,0.0082
960.00,0.0091
959.00,0.0092
958.00,0.0086
957.00,0.0084
956.00,0.0085
955.00,0.0080
954.00,0.0071
953.00,0.0070
952.00,0.0079
951.00,0.0086
950.00,0.0087
949.00,0.0089
948.00,0.0089
947.00,0.0081
946.00,0.0071
945.00,0.0072
944.00,0.0083
943.00,0.0096
942.00,0.0109
941.00,0.0127
940.00,0.0140
939.00,0.0131
938.00,0.0113
937.00,0.0108
936.00,0.0119
935.00,0.0130
934.00,0.0143
933.00,0.0167
932.00,0.0186
931.00,0.0176
930.00,0.0150
929.00,0.0140
928.00,0.0144
927.00,0.0137
926.00,0.0122
925.00,0.0127
924.00,0.0145
923.00,0.0150
922.00,0.0143
921.00,0.0158
920.00,0.0188
919.00,0.0194
918.00,0.0174
917.00,0.0173
916.00,0.0197
915.00,0.0207
914.00,0.0178
913.00,0.0128
912.00,0.0072
911.00,0.0031
910.00,0.0053
909.00,0.0171
908.00,0.0300
907.00,0.0314
906.00,0.0236
905.00,0.0198
904.00,0.0252
903.00,0.0334
902.00,0.0378
901.00,0.0393
900.00,0.0349
899.00,0.0227
898.00,0.0110
897.00,0.0090
896.00,0.0119
895.00,0.0063
894.00,-0.0067
893.00,-0.0151
892.00,-0.0152
891.00,-0.0152
890.00,-0.0208
889.00,-0.0231
888.00,-0.0135
887.00,0.0139
886.00,0.0433
885.00,0.0678
884.00,0.0844
883.00,0.0713
882.00,0.0310
881.00,-0.0138
880.00,-0.0553
879.00,-0.0730
878.00,-0.0773
877.00,-0.1126
876.00,-0.1330
875.00,-0.0621
874.00,0.0128
873.00,0.0524
872.00,0.0161
871.00,-0.0872
870.00,-0.1997
869.00,-0.3619
868.00,-0.4687
867.00,-0.4136
866.00,-0.2947
865.00,-0.2988
864.00,-0.3342
863.00,-0.3061
862.00,-0.2324
861.00,-0.2714
860.00,-0.3991
859.00,-0.3885
858.00,-0.1872
857.00,-0.2097
856.00,-0.1985
855.00,-0.1495
854.00,-0.1693
853.00,-0.2589
852.00,-0.3217
851.00,-0.3856
850.00,-0.4428
849.00,-0.4384
848.00,-0.3760
847.00,-0.3437
846.00,-0.2733
845.00,-0.1980
844.00,-0.1843
843.00,-0.2575
842.00,-0.4303
841.00,-0.4066
840.00,-0.3556
839.00,-0.3152
838.00,-0.2269
837.00,-0.3597
836.00,-0.3934
835.00,-0.3762
834.00,-0.3171
833.00,-0.2689
832.00,-0.3257
831.00,-0.6578
830.00,-1.1216
829.00,-1.1032
828.00,-0.4916
827.00,-0.3736
826.00,-0.4331
825.00,-0.3658
824.00,-0.3744
823.00,-0.4542
822.00,-0.4695
821.00,-0.2783
820.00,-0.1985
819.00,-0.1837
818.00,-0.1924
817.00,-0.1910
816.00,-0.2188
815.00,-0.2492
814.00,-0.1830
813.00,-0.1745
812.00,-0.1889
811.00,-0.2399
810.00,-0.3484
809.00,-0.3254
808.00,-0.2755
807.00,-0.3012
806.00,-0.4002
805.00,-0.4077
804.00,-0.3426
803.00,-0.3922
802.00,-0.4312
801.00,-0.3202
800.00,-0.2302
799.00,-0.2529
798.00,-0.3180
797.00,-0.4147
796.00,-0.4970
795.00,-0.7084
794.00,-0.8725
793.00,-0.5569
792.00,-0.3326
791.00,-0.3097
790.00,-0.2589
789.00,-0.2061
788.00,-0.2045
787.00,-0.2364
786.00,-0.3061
785.00,-0.4109
784.00,-0.6187
783.00,-0.8484
782.00,-0.6132
781.00,-0.3088
780.00,-0.1294
779.00,-0.1996
778.00,-0.2260
777.00,-0.5118
776.00,-0.5075
775.00,-0.9395
774.00,-1.4136
773.00,-0.9122
772.00,-0.5410
771.00,-0.8590
770.00,-1.0768
769.00,-0.7570
768.00,-0.3808
767.00,-0.4214
766.00,-0.3253
765.00,-0.2900
764.00,-0.2375
763.00,-0.3444
762.00,-0.5442
761.00,-0.5648
760.00,-0.4817
759.00,-0.5070
758.00,-0.5288
757.00,-0.4410
756.00,-0.3939
755.00,-0.4712
754.00,-0.5971
753.00,-0.5285
752.00,-0.4578
751.00,-0.5102
750.00,-0.5285
749.00,-0.3958
748.00,-0.3161
747.00,-0.2184
746.00,-0.0739
745.00,-0.0450
744.00,-0.1868
743.00,-0.0035
742.00,-0.4391
741.00,-0.5789
740.00,-0.7847
739.00,-1.2854
738.00,-0.9769
737.00,-1.1817
736.00,-0.6505
735.00,-0.3491
734.00,-0.4714
733.00,-0.2681
732.00,-0.3178
731.00,-0.3880
730.00,-0.7029
729.00,-0.6475
728.00,-0.4784
727.00,-0.5629
726.00,-0.6969
725.00,-0.5799
724.00,-0.4677
723.00,-0.6562
722.00,-1.1033
721.00,-1.0100
720.00,-0.7640
719.00,-0.7853
718.00,-0.8062
717.00,-0.7228
716.00,-0.4899
715.00,-0.5474
714.00,-0.5781
713.00,-0.3627
712.00,-0.1872
711.00,-0.0666
710.00,0.0466
709.00,-0.0251
708.00,-0.1723
707.00,-0.2835
706.00,-0.3171
705.00,-0.3022
704.00,-0.2854
703.00,-0.3383
702.00,-0.4265
701.00,-0.3879
700.00,-0.3239
699.00,-0.3900
698.00,-0.6951
697.00,-0.8626
696.00,-0.8374
695.00,-0.7416
694.00,-0.4693
693.00,-0.4204
692.00,-0.4249
691.00,-0.5174
690.00,-0.7062
689.00,-0.6506
688.00,-0.5803
687.00,-0.6064
686.00,-0.6108
685.00,-0.5020
684.00,-0.4642
683.00,-0.4993
682.00,-0.4206
681.00,-0.4097
680.00,-0.3609
679.00,-0.2736
678.00,-0.2237
677.00,-0.1992
676.00,-0.2286
675.00,-0.2890
674.00,-0.3963
673.00,-0.4606
672.00,-0.4704
671.00,-0.5022
670.00,-0.5844
669.00,-0.7087
668.00,-0.7262
667.00,-0.6324
666.00,-0.6135
665.00,-0.5469
664.00,-0.5068
663.00,-0.6015
662.00,-0.6229
661.00,-0.3529
660.00,-0.1923
659.00,-0.1966
658.00,-0.2412
657.00,-0.3608
656.00,-0.3644
655.00,-0.5751
654.00,-1.0493
653.00,-0.9128
652.00,-0.7287
651.00,-0.7417
650.00,-0.6969
649.00,-0.4251
648.00,-0.2912
647.00,-0.2894
646.00,-0.2800
645.00,-0.2406
644.00,-0.1993
643.00,-0.1490
642.00,-0.0671
641.00,-0.0658
640.00,-0.0898
639.00,-0.1652
638.00,-0.4756
637.00,-0.5648
636.00,-0.4602
635.00,-0.3822
634.00,-0.2528
633.00,-0.1987
632.00,-0.1913
631.00,-0.4030
630.00,-0.9191
629.00,-0.8533
628.00,-0.6511
627.00,-0.7124
626.00,-0.6949
625.00,-0.4432
624.00,-0.2639
623.00,-0.1925
622.00,-0.1627
621.00,-0.1473
620.00,-0.1647
619.00,-0.1971
618.00,-0.2369
617.00,-0.2576
616.00,-0.2416
615.00,-0.2679
614.00,-0.3135
613.00,-0.3219
612.00,-0.2809
611.00,-0.4094
610.00,-0.7676
609.00,-0.4999
608.00,-0.2728
607.00,-0.1995
606.00,-0.0925
605.00,-0.1061
604.00,-0.1562
603.00,-0.2593
602.00,-0.3722
601.00,-0.3063
600.00,-0.2428
599.00,-0.2713
598.00,-0.3227
597.00,-0.2975
596.00,-0.2676
595.00,-0.2496
594.00,-0.2121
593.00,-0.2574
592.00,-0.3434
591.00,-0.5249
590.00,-0.7276
589.00,-0.6140
588.00,-0.3079
587.00,-0.1930
586.00,-0.1529
585.00,-0.2059
584.00,-0.2495
583.00,-0.3170
582.00,-0.3871
581.00,-0.3439
580.00,-0.3629
579.00,-0.5172
578.00,-0.6161
577.00,-0.5924
576.00,-0.4993
575.00,-0.5843
574.00,-0.6534
573.00,-0.3862
572.00,-0.2217
571.00,-0.1713
570.00,-0.0794
569.00,-0.0801
568.00,-0.1285
567.00,-0.1414
566.00,-0.0757
565.00,-0.1124
564.00,-0.1442
563.00,-0.2016
562.00,-0.4943
561.00,-0.5480
560.00,-0.4644
559.00,-0.4607
558.00,-0.3194
557.00,-0.2920
556.00,-0.2805
555.00,-0.2897
554.00,-0.3376
553.00,-0.3298
552.00,-0.3393
551.00,-0.3772
550.00,-0.3703
549.00,-0.3050
548.00,-0.2464
547.00,-0.2135
546.00,-0.2884
545.00,-0.5103
544.00,-0.6027
543.00,-0.8188
542.00,-0.9049
541.00,-0.7114
540.00,-0.5915
539.00,-1.0035
538.00,-1.2623
537.00,-0.8860
536.00,-0.4799
535.00,-0.4206
534.00,-0.2935
533.00,-0.1682
532.00,-0.1412
531.00,-0.2357
530.00,-0.4578
529.00,-0.5009
528.00,-0.5295
527.00,-0.6780
526.00,-0.4588
525.00,-0.6692
524.00,-0.7458
523.00,-0.7018
522.00,-0.6031
521.00,-0.3513
520.00,-0.2469
519.00,-0.1773
518.00,-0.1359
517.00,-0.2567
516.00,-0.3658
515.00,-0.4329
514.00,-0.2812
513.00,-0.1311
512.00,-0.0912
511.00,-0.1433
510.00,-0.3413
509.00,-0.3901
508.00,-0.3950
507.00,-0.4436
506.00,-0.4319
505.00,-0.3380
504.00,-0.3093
503.00,-0.4978
502.00,-0.8755
501.00,-0.6569
500.00,-0.4393
499.00,-0.3789
498.00,-0.3393
497.00,-0.2922
496.00,-0.2825
495.00,-0.3866
494.00,-0.5688
493.00,-0.5122
492.00,-0.4332
491.00,-0.5405
490.00,-0.6852
489.00,-0.6931
488.00,-0.6067
487.00,-0.7320
486.00,-0.9687
485.00,-0.8233
484.00,-0.6462
483.00,-0.6559
482.00,-0.4014
481.00,-0.4240
480.00,-0.5660
479.00,-0.6694
478.00,-0.5850
477.00,-0.3279
476.00,-0.2550
475.00,-0.2288
474.00,-0.3537
473.00,-0.4455
472.00,-0.7010
471.00,-1.2649
470.00,-0.5089
469.00,-0.7164
468.00,-1.3217
467.00,-0.8674
466.00,-0.4862
465.00,-0.3203
464.00,-0.2595
463.00,-0.3161
462.00,-0.3318
461.00,-0.2987
460.00,-0.2581
459.00,-0.2561
458.00,-0.2153
457.00,-0.1659
456.00,-0.1419
455.00,-0.1622
454.00,-0.3800
453.00,-0.3573
452.00,-0.3064
451.00,-0.3408
450.00,-0.3744
