Data from mildly cloudy_Subt2__4__14-19-35-371.txt Node

Date: Mon Oct 13 14:19:35 EDT 2025
User: brett
Spectrometer: USB4F03499
Trigger mode: 4
Integration Time (sec): 4.400000E-4
Scans to average: 1
Electric dark correction enabled: true
Nonlinearity correction enabled: true
Boxcar width: 0
XAxis mode: Wavelengths
Number of Pixels in Spectrum: 3648
>>>>>Begin Spectral Data<<<<<
345.386	61.98466
345.605	61.98466
345.824	61.98466
346.044	92.50832
346.263	11.19971
346.482	-41.82693
346.701	19.08133
346.92	-15.89251
347.139	-38.50363
347.358	-13.63347
347.577	-24.91153
347.796	5.55032
348.015	54.08477
348.234	-6.86322
348.453	-20.4032
348.672	32.61686
348.891	50.67993
349.11	-14.76834
349.329	8.9302
349.548	41.689
349.767	15.70261
349.986	-19.285
350.205	-33.92431
350.424	17.97391
350.643	87.91262
350.862	61.98226
351.08	-13.63928
351.299	-9.11504
351.518	-13.63664
351.737	28.12897
351.956	4.41878
352.174	17.94817
352.393	15.71418
352.612	11.18539
352.831	26.97653
353.049	11.19188
353.268	16.83844
353.487	21.34385
353.705	7.80233
353.924	-10.2409
354.143	-3.48044
354.361	39.40292
354.58	-17.0246
354.798	57.5011
355.017	4.41419
355.236	64.24457
355.454	34.87413
355.673	50.67797
355.891	-1.22215
356.11	-7.98848
356.328	54.03043
356.547	-6.86481
356.765	24.73117
356.984	11.18842
357.202	57.47653
357.42	49.55641
357.639	43.90836
357.857	26.96925
358.076	39.37551
358.294	-18.14662
358.512	-32.81627
358.731	-21.51694
358.949	16.81439
359.167	13.44127
359.386	26.97237
359.604	28.08877
359.822	37.13732
360.04	43.88632
360.259	3.289
360.477	37.15026
360.695	-11.37426
360.913	-1.22158
361.131	-4.60504
361.35	-1.22267
361.568	36.01537
361.786	39.36489
362.004	-24.91153
362.222	65.34421
362.44	15.68807
362.658	49.56986
362.876	3.28811
363.094	14.57061
363.312	40.51807
363.53	49.54491
363.749	-32.80359
363.967	-20.40241
364.184	51.78522
364.402	21.34468
364.62	-11.38617
364.838	13.42473
365.056	12.32358
365.274	7.80082
365.492	22.46565
365.71	56.3204
365.928	-0.09397
366.146	56.34222
366.364	14.55323
366.581	11.18798
366.799	15.69714
367.017	-37.33258
367.235	-6.86004
367.453	-17.02064
367.67	17.96066
367.888	4.42101
368.106	32.62948
368.323	28.08769
368.541	66.4455
368.759	12.31642
368.977	34.88087
369.194	-55.35556
369.412	56.33349
369.629	93.56316
369.847	12.30882
370.065	11.19405
370.282	15.70504
370.5	11.19015
370.717	38.23087
370.935	4.41947
371.152	37.15603
371.37	-7.99343
371.588	-28.30067
371.805	31.51513
372.022	31.47372
372.24	60.84534
372.457	-2.34951
372.675	26.97862
372.892	58.59514
373.11	56.31387
373.327	24.73022
373.544	51.81526
373.762	-3.47694
373.979	-24.90096
374.196	-5.74069
374.414	33.78343
374.631	14.5723
374.848	67.60855
375.066	28.08553
375.283	28.10502
375.5	-9.11891
375.717	13.44023
375.935	45.04622
376.152	41.62289
376.369	30.38328
376.586	-9.12103
376.803	-0.09394
377.02	36.01676
377.238	15.69775
377.455	19.10427
377.672	49.49528
377.889	32.66117
378.106	10.06154
378.323	56.34441
378.54	49.53343
378.757	-10.24603
378.974	-1.22295
379.191	-4.60593
379.408	-2.35033
379.625	61.96306
379.842	17.96275
380.059	23.60504
380.276	77.75044
380.493	2.1628
380.71	23.59956
380.927	76.61781
381.143	3.29116
381.36	38.28259
381.577	-22.65977
381.794	28.10068
382.011	5.54859
382.228	-2.3496
382.444	-50.82872
382.661	37.14738
382.878	32.62569
383.095	34.87413
383.311	55.206
383.528	4.41964
383.745	30.36798
383.962	13.44438
384.178	-9.11399
384.395	14.57625
384.612	69.88968
384.828	-9.10978
385.045	13.44438
385.261	11.18409
385.478	8.94373
385.695	28.10068
385.911	28.08877
386.128	-0.09399
386.344	102.63816
386.561	39.43199
386.777	31.4713
386.994	-54.24348
387.21	-6.8603
387.427	33.73636
387.643	38.29151
387.86	6.67364
388.076	29.22677
388.292	-0.09403
388.509	56.30734
388.725	65.35685
388.942	60.83592
389.158	66.49434
389.374	14.57061
389.591	-13.63084
389.807	21.3356
390.023	7.79512
390.239	-18.13052
390.456	36.00144
390.672	26.97029
390.888	19.08945
391.104	14.5723
391.321	-17.01932
391.537	75.48824
391.753	31.47615
391.969	37.12154
392.185	40.53062
392.401	1.0336
392.618	17.94333
392.834	20.21906
393.05	15.70443
393.266	55.16546
393.482	22.46131
393.698	38.28259
393.914	7.80595
394.13	52.88959
394.346	-13.62558
394.562	25.83514
394.778	24.73213
394.994	45.04099
395.21	-13.62243
395.426	4.41947
395.642	42.76934
395.858	59.69489
396.073	36.03913
396.289	14.55938
396.505	17.95302
396.721	11.18972
396.937	1.0338
397.153	61.93672
397.369	2.1628
397.584	101.48757
397.8	26.96198
398.016	43.8914
398.232	2.16305
398.447	13.42833
398.663	4.41725
398.879	13.43867
399.094	45.01662
399.31	-24.91057
399.526	25.83514
399.741	40.51494
399.957	-36.22451
400.173	75.53795
400.388	4.41947
400.604	7.80625
400.82	34.86202
401.035	43.91686
401.251	35.98478
401.466	23.6023
401.682	68.71434
401.897	-19.2656
402.113	-11.36244
402.328	51.83536
402.544	-36.18385
402.759	48.40459
402.974	23.60413
403.19	23.57862
403.405	39.37096
403.621	54.06801
403.836	32.62821
404.051	35.99033
404.267	48.42143
404.482	65.29128
404.697	95.7165
404.913	47.29408
405.128	48.4102
405.343	12.31499
405.559	34.88492
405.774	42.76604
405.989	-15.87473
406.204	41.65505
406.42	64.18001
406.635	43.92878
406.85	16.81115
407.065	8.92848
407.28	74.34721
407.495	56.28344
407.71	32.61057
407.926	41.64216
408.141	65.34674
408.356	59.67185
408.571	82.24094
408.786	56.30734
409.001	20.20188
409.216	32.59675
409.431	73.22638
409.646	34.8674
409.861	94.62027
410.076	23.575
410.291	68.6614
410.506	70.95666
410.721	12.31452
410.936	29.24032
411.15	21.31672
411.365	51.7573
411.58	60.78896
411.795	22.44747
412.01	81.09272
412.225	7.79932
412.439	29.22452
412.654	41.61008
412.869	51.75133
413.084	58.53403
413.299	81.09898
413.513	80.013
413.728	25.84909
413.943	35.98201
414.157	69.80599
414.372	11.18065
414.587	5.54666
414.801	68.60611
415.016	132.88068
415.231	77.75646
415.445	117.15342
415.66	29.23016
415.874	32.57797
416.089	32.62064
416.304	86.83985
416.518	52.88552
416.733	49.48768
416.947	32.61308
417.162	77.65466
417.376	64.14298
417.59	57.39442
417.805	88.94311
418.019	85.58993
418.234	66.41222
418.448	37.10153
418.663	97.98596
418.877	12.29747
419.091	73.15028
419.306	64.16024
419.52	60.75624
419.734	72.06639
419.949	48.31918
420.163	83.31584
420.377	94.50771
420.591	40.47905
420.806	85.52419
421.02	113.78659
421.234	65.27872
421.448	37.08018
421.663	121.71458
421.877	29.18081
422.091	84.43164
422.305	61.90094
422.519	59.69258
422.733	127.28279
422.947	62.96652
423.161	74.24438
423.376	82.20607
423.59	77.59521
423.804	55.16334
424.018	55.14846
424.232	70.85045
424.446	55.11244
424.66	78.7588
424.874	109.18407
425.088	104.75014
425.302	50.56516
425.515	90.05806
425.729	68.59562
425.943	134.03593
426.157	102.44028
426.371	26.9599
426.585	65.22118
426.799	66.33843
427.013	88.92262
427.226	69.7497
427.44	73.05525
427.654	119.26628
427.868	32.57922
428.081	112.50139
428.295	64.15284
428.509	100.24454
428.723	75.40396
428.936	38.1564
429.15	74.31569
429.364	111.4159
429.577	100.23683
429.791	32.56177
430.005	93.39043
430.218	111.44152
430.432	145.09628
430.645	72.00825
430.859	58.54306
431.073	100.12156
431.286	103.62078
431.5	90.02352
431.713	51.72353
431.927	55.12937
432.14	120.42227
432.354	109.15063
432.567	90.08922
432.781	103.573
432.994	120.51472
433.207	84.32507
433.421	88.81051
433.634	132.90621
433.848	96.73056
434.061	147.47123
434.274	91.13429
434.488	147.36418
434.701	74.24154
434.914	119.33022
435.127	163.18561
435.341	139.6154
435.554	127.17539
435.767	89.05298
435.98	92.26234
436.194	89.95473
436.407	143.01471
436.62	164.27718
436.833	145.17384
437.046	131.72091
437.259	135.062
437.473	154.10046
437.686	167.69637
437.899	138.4277
438.112	107.96046
438.325	117.02313
438.538	145.09628
438.751	138.38539
438.964	8.89886
439.177	133.81051
439.39	164.15209
439.603	247.52532
439.816	168.72266
440.029	179.96362
440.242	163.024
440.455	194.40536
440.668	210.28116
440.881	200.4042
441.094	205.84366
441.306	198.068
441.519	237.16511
441.732	197.86449
441.945	290.9764
442.158	187.85205
442.37	219.3148
442.583	166.52252
442.796	250.61162
443.009	256.12173
443.222	247.28089
443.434	194.56773
443.647	247.09404
443.86	231.45943
444.072	276.27733
444.285	268.53936
444.498	276.27733
444.71	263.00371
444.923	269.76034
445.136	237.03956
445.348	191.16657
445.561	198.84992
445.773	276.75922
445.986	197.97737
446.198	250.34708
446.411	260.6563
446.623	318.5053
446.836	275.05545
447.048	280.75026
447.261	284.2009
447.473	288.30575
447.686	278.16921
447.898	278.2629
448.11	334.55019
448.323	291.06075
448.535	305.14513
448.748	290.45253
448.96	296.32241
449.172	342.54686
449.385	274.90066
449.597	423.7786
449.809	356.71715
450.021	385.70598
450.234	371.40929
450.446	305.06529
450.658	273.95809
450.87	349.81453
451.083	349.94507
451.295	368.68281
451.507	336.3931
451.719	364.68814
451.931	359.0958
452.143	375.66043
452.356	357.76577
452.568	434.83182
452.78	308.35641
452.992	350.68179
453.204	418.96574
453.416	503.2295
453.628	421.70853
453.84	369.65981
454.052	345.57331
454.264	437.95952
454.476	372.01129
454.688	454.60719
454.9	475.03292
455.112	424.29419
455.324	423.74705
455.536	465.0756
455.747	413.40099
455.959	426.32976
456.171	416.21732
456.383	411.58799
456.595	401.4537
456.807	382.13492
457.018	392.28969
457.23	441.29648
457.442	424.56094
457.654	511.3666
457.865	401.24449
458.077	446.70873
458.289	388.7024
458.501	429.01156
458.712	511.47952
458.924	579.19339
459.136	364.97504
459.347	501.76405
459.559	407.86552
459.77	564.43556
459.982	489.35822
460.194	542.21212
460.405	434.14133
460.617	502.09841
460.828	541.10363
461.04	570.85302
461.251	456.34324
461.463	520.61183
461.674	591.37875
461.886	588.34954
462.097	485.73772
462.309	558.20532
462.52	485.73772
462.731	684.05757
462.943	489.50304
463.154	513.62423
463.366	444.01128
463.577	571.04013
463.788	562.63189
464	598.52052
464.211	645.36913
464.422	712.8535
464.634	692.31078
464.845	651.6234
465.056	719.25305
465.267	683.17274
465.478	562.48713
465.69	755.52773
465.901	665.16283
466.112	688.77221
466.323	740.82327
466.534	846.56315
466.745	657.6113
466.957	813.50534
467.168	714.72564
467.379	772.40355
467.59	688.39902
467.801	674.39798
468.012	721.72057
468.223	819.84386
468.434	726.03767
468.645	885.14788
468.856	846.10175
469.067	790.86655
469.278	739.97219
469.489	901.04445
469.7	668.06663
469.911	794.13922
470.122	862.86664
470.333	988.98492
470.543	816.11541
470.754	842.24641
470.965	870.34039
471.176	1008.26167
471.387	919.91881
471.598	930.99927
471.808	968.90078
472.019	975.09426
472.23	902.47528
472.441	939.86014
472.651	995.69209
472.862	1010.23806
473.073	940.75778
473.283	1065.95474
473.494	864.0538
473.705	1019.97964
473.915	932.5199
474.126	1100.45327
474.337	1019.93341
474.547	1155.2002
474.758	1078.79113
474.968	1059.43408
475.179	1086.54
475.389	1062.56029
475.6	1028.27434
475.81	1205.00434
476.021	1177.05034
476.231	1343.66916
476.442	1170.44029
476.652	1152.64662
476.863	1124.19869
477.073	1225.19624
477.284	1176.65436
477.494	1232.79851
477.704	1304.48818
477.915	1582.62105
478.125	1251.82626
478.335	1422.26728
478.546	1441.43508
478.756	1449.23803
478.966	1361.89098
479.177	1442.25166
479.387	1453.81932
479.597	1555.38079
479.807	1528.39644
480.018	1541.72146
480.228	1572.40871
480.438	1601.58341
480.648	1635.19862
480.858	1587.76416
481.068	1532.28476
481.279	1608.64328
481.489	1595.62654
481.699	1788.86727
481.909	1655.15268
482.119	1936.56372
482.329	1793.6483
482.539	1879.62542
482.749	1726.24181
482.959	1946.09883
483.169	1834.04276
483.379	2002.40049
483.589	1986.72565
483.799	2023.08417
484.009	1925.5503
484.219	1994.00008
484.429	2004.21971
484.639	1976.48925
484.849	2032.05031
485.059	2126.48939
485.268	2075.44781
485.478	2231.70328
485.688	2006.66255
485.898	2124.82472
486.108	2143.75659
486.317	2221.32203
486.527	2172.22347
486.737	2255.99564
486.947	2196.96785
487.156	2316.40568
487.366	2158.96236
487.576	2251.14183
487.785	2114.44249
487.995	2206.02577
488.205	2300.02789
488.414	2422.20393
488.624	2212.3188
488.834	2364.09707
489.043	2226.69363
489.253	2237.40993
489.462	2218.5202
489.672	2432.58044
489.882	2377.9686
490.091	2439.2405
490.301	2404.81852
490.51	2518.34991
490.72	2372.46799
490.929	2357.22691
491.138	2472.71662
491.348	2389.81138
491.557	2411.74409
491.767	2509.32552
491.976	2391.47131
492.185	2432.94146
492.395	2290.38732
492.604	2528.68218
492.813	2456.30377
493.023	2527.61488
493.232	2379.22255
493.441	2578.37585
493.651	2493.80985
493.86	2536.27115
494.069	2470.38566
494.278	2605.3206
494.488	2580.80601
494.697	2585.82606
494.906	2473.13365
495.115	2649.57618
495.324	2634.82239
495.533	2679.1175
495.743	2569.50673
495.952	2706.89635
496.161	2628.07961
496.37	2718.68336
496.579	2749.20108
496.788	2697.75991
496.997	2835.02248
497.206	2772.03934
497.415	2712.4627
497.624	2661.56731
497.833	2724.01191
498.042	2748.96157
498.251	2712.54157
498.46	2841.12927
498.669	2705.63651
498.878	2771.02149
499.087	2696.47329
499.296	2820.41471
499.504	2660.95335
499.713	2740.68093
499.922	2690.56427
500.131	2685.25666
500.34	2709.36372
500.549	2768.34164
500.757	2614.12403
500.966	2833.82806
501.175	2651.05911
501.384	2729.71865
501.592	2538.17966
501.801	2673.43947
502.01	2609.45273
502.218	2635.82847
502.427	2655.73672
502.636	2657.13847
502.844	2538.07573
503.053	2613.66139
503.262	2646.81798
503.47	2621.07556
503.679	2616.76982
503.887	2691.35238
504.096	2586.05432
504.304	2751.13053
504.513	2728.705
504.721	2783.65487
504.93	2751.00943
505.138	2877.99708
505.347	2820.01591
505.555	2890.33112
505.764	2963.69426
505.972	3029.19287
506.18	2826.85226
506.389	3168.91974
506.597	2972.67275
506.806	3167.80818
507.014	3142.08662
507.222	3095.28846
507.431	3198.55634
507.639	3341.91399
507.847	3256.23128
508.055	3338.60648
508.264	3396.62882
508.472	3447.43823
508.68	3434.80167
508.888	3578.10754
509.096	3577.55613
509.305	3726.87609
509.513	3663.1709
509.721	3775.5782
509.929	3659.6403
510.137	3798.97843
510.345	3851.10897
510.553	3935.37403
510.762	4001.93829
510.97	3953.17625
511.178	3968.1415
511.386	4101.03233
511.594	4105.64742
511.802	4165.32038
512.01	4175.2705
512.218	4276.91095
512.426	4279.08018
512.634	4283.79089
512.842	4221.71328
513.049	4204.32394
513.257	4281.10883
513.465	4242.63253
513.673	4278.45183
513.881	4325.8865
514.089	4199.45734
514.297	4354.77716
514.504	4329.50548
514.712	4361.53311
514.92	4264.67259
515.128	4302.21556
515.336	4281.04811
515.543	4199.43243
515.751	4226.6531
515.959	4258.59187
516.166	4200.48978
516.374	4296.39698
516.582	4191.85984
516.789	4221.84532
516.997	4226.95107
517.205	4229.93204
517.412	4221.29403
517.62	4284.46399
517.827	4178.2745
518.035	4138.25116
518.243	4106.87645
518.45	4161.01366
518.658	4019.43333
518.865	4090.88462
519.073	4187.95647
519.28	4076.20442
519.488	4115.19607
519.695	4077.12213
519.902	4029.29601
520.11	4077.33268
520.317	3979.13536
520.525	4072.29801
520.732	4067.3728
520.939	3978.86723
521.147	3941.44265
521.354	4029.80366
521.561	4099.18348
521.769	4015.30389
521.976	3900.33945
522.183	3928.90417
522.391	3923.5517
522.598	4012.11232
522.805	3956.92378
523.012	4041.09001
523.219	3952.65034
523.427	4010.62688
523.634	3865.06367
523.841	3953.94014
524.048	3874.98167
524.255	3958.17192
524.462	3860.89157
524.669	3926.24785
524.877	3901.25234
525.084	3943.07325
525.291	3703.96187
525.498	3929.15633
525.705	3838.3179
525.912	3922.23481
526.119	3703.28154
526.326	3953.27659
526.533	3800.40241
526.74	3939.7878
526.947	3721.84943
527.153	3903.16281
527.36	3808.44787
527.567	4041.51424
527.774	3813.21848
527.981	3837.74591
528.188	3747.69312
528.395	3841.44773
528.602	3814.18253
528.808	3829.38783
529.015	3732.27064
529.222	3973.30644
529.429	3695.28195
529.635	3947.18583
529.842	3813.15263
530.049	3713.21133
530.256	3679.67219
530.462	3910.93994
530.669	3769.63047
530.876	3806.97892
531.082	3780.24907
531.289	3810.55516
531.495	3681.02993
531.702	3733.68598
531.909	3771.44734
532.115	3858.61247
532.322	3705.15142
532.528	3755.70649
532.735	3737.77133
532.941	3738.69105
533.148	3689.9323
533.354	3784.41503
533.561	3713.42709
533.767	3677.71528
533.974	3612.01821
534.18	3645.56745
534.387	3717.56954
534.593	3648.47372
534.799	3600.09506
535.006	3602.17515
535.212	3588.05833
535.418	3604.51356
535.625	3670.15565
535.831	3599.28143
536.037	3517.56721
536.244	3603.74369
536.45	3560.5333
536.656	3577.09232
536.862	3566.65597
537.068	3606.61326
537.275	3580.17478
537.481	3596.9854
537.687	3505.89832
537.893	3770.39061
538.099	3456.59314
538.305	3517.9411
538.512	3460.20172
538.718	3561.9446
538.924	3463.26913
539.13	3490.13995
539.336	3436.67261
539.542	3556.86885
539.748	3537.87682
539.954	3494.60705
540.16	3471.07463
540.366	3508.90936
540.572	3384.30367
540.778	3478.32283
540.984	3379.95002
541.19	3503.54155
541.396	3458.46174
541.602	3501.01273
541.807	3402.4202
542.013	3436.93839
542.219	3257.6302
542.425	3378.47867
542.631	3253.63937
542.837	3349.07232
543.042	3252.42228
543.248	3240.17172
543.454	3265.48375
543.66	3244.07816
543.865	3116.30911
544.071	3353.14879
544.277	3159.00835
544.483	3265.87278
544.688	3146.76978
544.894	3326.15966
545.1	3234.54147
545.305	3213.05517
545.511	3278.4304
545.716	3162.83345
545.922	3053.45606
546.128	3050.88669
546.333	3167.71978
546.539	3175.3264
546.744	3084.25817
546.95	3050.39193
547.155	3066.78059
547.361	3100.24457
547.566	2943.67393
547.772	3050.88669
547.977	2989.7083
548.182	2996.89846
548.388	2937.40495
548.593	3076.59839
548.799	2921.26346
549.004	2981.56913
549.209	3023.52001
549.415	3017.64334
549.62	2893.03503
549.825	2920.79842
550.031	2829.27369
550.236	2951.19973
550.441	2799.54209
550.646	2907.5208
550.852	2853.12308
551.057	2881.21837
551.262	2846.52924
551.467	2790.76785
551.672	2836.69516
551.878	2817.45139
552.083	2788.01015
552.288	2743.31697
552.493	2759.30368
552.698	2747.64719
552.903	2654.42087
553.108	2802.2017
553.313	2684.17018
553.518	2834.36846
553.723	2707.94641
553.928	2641.7175
554.133	2588.38746
554.338	2737.92992
554.543	2627.15394
554.748	2646.86501
554.953	2615.66342
555.158	2727.08183
555.363	2625.66741
555.568	2672.0343
555.773	2643.07795
555.978	2604.59346
556.182	2535.82196
556.387	2642.64636
556.592	2435.56633
556.797	2579.23466
557.002	2519.44124
557.206	2515.8084
557.411	2453.6247
557.616	2416.86206
557.821	2487.63111
558.025	2470.11722
558.23	2362.73872
558.435	2523.62464
558.64	2428.21129
558.844	2412.7674
559.049	2440.80875
559.253	2537.40064
559.458	2320.78357
559.663	2387.9858
559.867	2320.07656
560.072	2367.89754
560.276	2321.91175
560.481	2286.48217
560.685	2183.4923
560.89	2278.03008
561.094	2240.54794
561.299	2204.21182
561.503	2100.54133
561.708	2256.30092
561.912	2175.11163
562.117	2244.51307
562.321	2155.64041
562.525	2189.48926
562.73	2154.91382
562.934	2196.35505
563.139	2181.13122
563.343	2159.02495
563.547	2051.41254
563.752	2066.35183
563.956	2085.01961
564.16	2117.18552
564.364	2053.82899
564.569	2000.33193
564.773	1968.49094
564.977	2081.47742
565.181	1986.53862
565.385	2099.71513
565.59	1952.14597
565.794	1996.69737
565.998	1914.31604
566.202	1968.15147
566.406	1866.4449
566.61	1956.10605
566.814	1963.14167
567.018	1877.5532
567.222	1884.49747
567.426	1911.30929
567.63	1844.3948
567.834	1949.48311
568.038	1884.74921
568.242	1932.90012
568.446	1813.5513
568.65	1804.81399
568.854	1722.26369
569.058	1797.83764
569.262	1776.3552
569.466	1830.94031
569.67	1689.34147
569.874	1773.52905
570.078	1722.61937
570.281	1777.31254
570.485	1712.10619
570.689	1764.78849
570.893	1738.04289
571.097	1756.8937
571.3	1695.05843
571.504	1683.29984
571.708	1696.40748
571.912	1752.9481
572.115	1664.12362
572.319	1651.65632
572.523	1590.21221
572.726	1658.2618
572.93	1685.28385
573.133	1606.83336
573.337	1561.17833
573.541	1609.77172
573.744	1554.35052
573.948	1594.25771
574.151	1501.44453
574.355	1637.72858
574.558	1530.48214
574.762	1576.09629
574.965	1459.99148
575.169	1469.9759
575.372	1422.63765
575.576	1512.34748
575.779	1468.24118
575.983	1453.17302
576.186	1414.5569
576.389	1510.13961
576.593	1449.43094
576.796	1493.60571
577	1385.27774
577.203	1428.37291
577.406	1446.38215
577.609	1480.75176
577.813	1370.96034
578.016	1453.62692
578.219	1377.52609
578.423	1452.72056
578.626	1385.76943
578.829	1480.8009
579.032	1315.19313
579.235	1432.2829
579.438	1280.64303
579.642	1397.76731
579.845	1324.3369
580.048	1404.58887
580.251	1277.99208
580.454	1367.47243
580.657	1251.18684
580.86	1422.83764
581.063	1226.2647
581.266	1341.00482
581.469	1279.72067
581.672	1390.20436
581.875	1337.88999
582.078	1427.81547
582.281	1237.89762
582.484	1328.65345
582.687	1272.21475
582.89	1336.08263
583.093	1302.40795
583.296	1349.90752
583.499	1338.79292
583.702	1293.87433
583.904	1185.18849
584.107	1342.04555
584.31	1229.4573
584.513	1214.88448
584.716	1253.23138
584.918	1244.88105
585.121	1263.49073
585.324	1304.90157
585.527	1306.62903
585.729	1283.23684
585.932	1305.19155
586.135	1286.32009
586.337	1204.08133
586.54	1329.9902
586.743	1200.45121
586.945	1301.53387
587.148	1207.59012
587.35	1367.66514
587.553	1200.57383
587.755	1268.46858
587.958	1263.91855
588.161	1295.8596
588.363	1260.66168
588.566	1337.16829
588.768	1284.76155
588.971	1313.29821
589.173	1211.05881
589.375	1279.20008
589.578	1212.65463
589.78	1298.55301
589.983	1178.18134
590.185	1224.48398
590.387	1250.95315
590.59	1256.7455
590.792	1191.91599
590.994	1264.38177
591.197	1147.18449
591.399	1180.27447
591.601	1136.80296
591.803	1178.30455
592.006	1113.87856
592.208	1240.239
592.41	1161.35466
592.612	1188.29685
592.815	1132.09664
593.017	1183.30223
593.219	1135.48498
593.421	1276.12134
593.623	1063.55034
593.825	1115.54199
594.027	1040.99248
594.229	1255.02183
594.432	1048.19408
594.634	1166.40648
594.836	1074.71519
595.038	1076.42316
595.24	1017.53519
595.442	1096.35665
595.644	1044.51939
595.846	1135.40141
596.048	1062.45074
596.249	1176.89087
596.451	1066.54698
596.653	1053.36484
596.855	1015.03236
597.057	1119.44445
597.259	1051.61444
597.461	1115.17729
597.663	1091.99403
597.864	1017.4645
598.066	1024.66151
598.268	1073.48407
598.47	983.9166
598.671	1105.9801
598.873	1044.5507
599.075	1062.3118
599.277	993.69307
599.478	1024.24798
599.68	1000.75663
599.882	1059.52888
600.083	1018.76959
600.285	1018.6977
600.487	1079.61341
600.688	1000.11561
600.89	1030.89693
601.091	1106.36137
601.293	1014.46829
601.494	1076.48763
601.696	1097.26752
601.898	1061.3305
602.099	1011.19424
602.301	1028.14074
602.502	1054.96331
602.703	1066.8986
602.905	1052.6699
603.106	1047.61331
603.308	998.3465
603.509	1050.88719
603.711	991.90868
603.912	1054.16404
604.113	961.58997
604.315	982.78749
604.516	941.31842
604.717	1008.58137
604.919	984.59853
605.12	973.52421
605.321	1006.31931
605.522	952.64045
605.724	954.73094
605.925	977.31702
606.126	972.80353
606.327	1101.51822
606.528	951.93892
606.729	985.18286
606.931	1036.97302
607.132	1033.91029
607.333	930.19746
607.534	1018.42199
607.735	998.24192
607.936	1016.83143
608.137	1013.69301
608.338	975.06019
608.539	927.55044
608.74	956.44582
608.941	926.66285
609.142	914.24375
609.343	914.40188
609.544	979.3379
609.745	926.87749
609.946	970.88646
610.147	982.00299
610.348	1005.6833
610.549	878.37974
610.75	1013.48576
610.95	912.91811
611.151	905.57324
611.352	927.13818
611.553	961.40426
611.754	857.71074
611.954	969.92768
612.155	905.89126
612.356	877.43731
612.557	895.43148
612.757	928.97124
612.958	898.58744
613.159	919.6247
613.359	967.83978
613.56	940.88946
613.761	931.76859
613.961	978.55277
614.162	972.53198
614.362	1002.61681
614.563	994.8215
614.764	936.41031
614.964	882.26233
615.165	982.5138
615.365	965.88713
615.566	973.82981
615.766	898.31108
615.967	904.63598
616.167	928.39766
616.368	916.82041
616.568	850.40196
616.768	883.92695
616.969	920.43137
617.169	942.38089
617.37	950.84401
617.57	891.76193
617.77	889.94529
617.971	918.40062
618.171	902.365
618.371	909.63827
618.571	950.0811
618.772	998.48607
618.972	861.06534
619.172	887.46793
619.372	868.53525
619.573	966.23709
619.773	895.36281
619.973	983.53908
620.173	934.17468
620.373	955.72566
620.573	916.30461
620.774	906.82825
620.974	859.48182
621.174	937.63675
621.374	902.60217
621.574	986.00152
621.774	950.21535
621.974	929.98596
622.174	944.10724
622.374	1009.91916
622.574	889.25492
622.774	948.6209
622.974	870.30095
623.174	982.71948
623.374	946.29847
623.574	1016.93775
623.774	873.83723
623.973	1015.17322
624.173	952.70748
624.373	962.29686
624.573	915.30487
624.773	1046.11766
624.973	942.75004
625.172	1037.73465
625.372	906.27403
625.572	1004.8391
625.772	874.01411
625.971	937.06756
626.171	930.13215
626.371	993.11975
626.57	917.36884
626.77	981.76257
626.97	869.08811
627.169	1021.10948
627.369	991.8172
627.569	1023.92561
627.768	897.30922
627.968	1005.58226
628.167	1013.83453
628.367	1014.01165
628.566	974.58001
628.766	980.46282
628.965	981.83121
629.165	1054.75132
629.364	960.73051
629.564	1019.15983
629.763	945.56775
629.963	962.66877
630.162	942.88177
630.362	1015.06991
630.561	1021.5398
630.76	1039.38451
630.96	944.70452
631.159	1079.34818
631.358	976.22397
631.558	1070.15096
631.757	934.57083
631.956	960.86497
632.155	1004.3071
632.355	991.0005
632.554	930.80373
632.753	928.41845
632.952	986.08185
633.152	1073.02497
633.351	1003.17774
633.55	1012.21384
633.749	954.63034
633.948	1059.6771
634.147	934.12184
634.346	986.76086
634.545	976.90783
634.744	1020.43104
634.944	959.53521
635.143	984.90754
635.342	931.86631
635.541	985.45215
635.74	974.2114
635.939	1005.54727
636.138	997.07851
636.336	974.92399
636.535	985.18286
636.734	998.53602
636.933	934.58019
637.132	1039.15904
637.331	989.48205
637.53	1046.69967
637.729	967.83978
637.928	1104.715
638.126	993.88798
638.325	1124.38626
638.524	1088.53387
638.723	1061.46965
638.921	1048.70246
639.12	1116.52086
639.319	1059.47767
639.518	1127.89139
639.716	993.34694
639.915	1064.05373
640.114	1124.65862
640.312	1142.21062
640.511	1118.98229
640.71	1135.47936
640.908	1065.23257
641.107	1170.13186
641.305	1061.22036
641.504	1242.96218
641.702	1145.01933
641.901	1119.1514
642.099	1102.67161
642.298	1181.89831
642.496	1064.41249
642.695	1114.85348
642.893	1141.12134
643.092	1188.58211
643.29	1108.31293
643.489	1181.80501
643.687	1151.99805
643.885	1280.89402
644.084	1189.41408
644.282	1248.12499
644.48	1127.62112
644.679	1290.56875
644.877	1296.55136
645.075	1342.72134
645.274	1244.91026
645.472	1405.67687
645.67	1317.86946
645.868	1312.71784
646.067	1330.77426
646.265	1448.03717
646.463	1394.90272
646.661	1389.92639
646.859	1396.40453
647.057	1483.40311
647.256	1453.15633
647.454	1562.05428
647.652	1430.16849
647.85	1560.97053
648.048	1559.0724
648.246	1624.23281
648.444	1519.02151
648.642	1584.04667
648.84	1527.5699
649.038	1656.87929
649.236	1706.70797
649.434	1654.87814
649.632	1593.60002
649.83	1760.05847
650.028	1574.09417
650.226	1758.41611
650.423	1672.06819
650.621	1633.71119
650.819	1780.98444
651.017	1796.5363
651.215	1753.45363
651.413	1785.46938
651.61	1779.98889
651.808	1754.69331
652.006	1726.16462
652.204	1878.86194
652.401	1844.51279
652.599	1787.32039
652.797	1751.36458
652.995	1845.0055
653.192	1735.39337
653.39	1832.69731
653.588	1652.40663
653.785	1832.93115
653.983	1764.28318
654.18	1833.55429
654.378	1730.0328
654.576	1748.05275
654.773	1761.6348
654.971	1765.63364
655.168	1674.96465
655.366	1761.08453
655.563	1642.62339
655.761	1803.3378
655.958	1658.15449
656.156	1651.12138
656.353	1618.87254
656.55	1695.41825
656.748	1577.0696
656.945	1624.65822
657.143	1597.95997
657.34	1651.65419
657.537	1466.33746
657.735	1592.08566
657.932	1481.58569
658.129	1537.0676
658.326	1456.77989
658.524	1542.10065
658.721	1429.31099
658.918	1485.5098
659.115	1477.51472
659.313	1570.82311
659.51	1364.42042
659.707	1543.26661
659.904	1398.70881
660.101	1411.36516
660.298	1405.53061
660.496	1484.48331
660.693	1375.68232
660.89	1394.47415
661.087	1428.67519
661.284	1526.20241
661.481	1458.23432
661.678	1460.74909
661.875	1479.67412
662.072	1642.89177
662.269	1546.30771
662.466	1648.85953
662.663	1619.3311
662.86	1695.94389
663.057	1770.42872
663.254	1817.51837
663.45	1836.3041
663.647	1903.71509
663.844	1762.53655
664.041	1974.60765
664.238	1864.384
664.435	1928.12265
664.631	2016.57541
664.828	2136.31829
665.025	2145.09297
665.222	2101.03938
665.419	2227.00275
665.615	2266.93295
665.812	2189.99801
666.009	2411.08995
666.205	2393.343
666.402	2428.86773
666.599	2402.70975
666.795	2488.85142
666.992	2540.10898
667.188	2596.88172
667.385	2509.39115
667.582	2735.94477
667.778	2667.59921
667.975	2794.06119
668.171	2820.5286
668.368	2821.2192
668.564	2811.54912
668.761	2885.32124
668.957	2850.45785
669.154	2871.02272
669.35	2920.63249
669.547	2942.87451
669.743	2968.16198
669.939	3019.88453
670.136	2955.16601
670.332	2791.64699
670.528	2829.11163
670.725	2877.5045
670.921	2935.72343
671.117	2838.31368
671.314	2837.11804
671.51	2788.17152
671.706	2807.20404
671.902	2811.79137
672.099	2706.37206
672.295	2658.57537
672.491	2746.14613
672.687	2668.88295
672.883	2645.76703
673.08	2693.47962
673.276	2548.76021
673.472	2562.51764
673.668	2424.64166
673.864	2520.84333
674.06	2406.2845
674.256	2472.91867
674.452	2302.01509
674.648	2357.3808
674.844	2161.67884
675.04	2229.97989
675.236	2195.79004
675.432	2082.18355
675.628	2101.47444
675.824	2068.18848
676.02	2071.51049
676.216	2000.08172
676.412	1936.31833
676.608	1795.77275
676.804	1779.55741
676.999	1908.70932
677.195	1757.96537
677.391	1768.46548
677.587	1661.26878
677.783	1669.32443
677.978	1643.10921
678.174	1681.47962
678.37	1460.94185
678.566	1563.48299
678.761	1501.05982
678.957	1494.87471
679.153	1403.64898
679.348	1566.86857
679.544	1414.60228
679.74	1501.44453
679.935	1416.53043
680.131	1452.62387
680.327	1466.95463
680.522	1417.98981
680.718	1435.16443
680.913	1530.68442
681.109	1444.58971
681.304	1480.07083
681.5	1348.76924
681.695	1508.74462
681.891	1487.22588
682.086	1521.98704
682.282	1486.39239
682.477	1351.59073
682.672	1596.98823
682.868	1591.07991
683.063	1604.73463
683.259	1600.95458
683.454	1637.7974
683.649	1754.18633
683.845	1684.13845
684.04	1784.65846
684.235	1822.98828
684.43	1857.94742
684.626	1843.14034
684.821	1954.03365
685.016	1973.60974
685.211	1981.15343
685.407	2078.02343
685.602	2127.98672
685.797	2124.45686
685.992	2309.70419
686.187	2292.90542
686.382	2386.01582
686.577	2267.53755
686.773	2537.17891
686.968	2460.59718
687.163	2612.43607
687.358	2501.13042
687.553	2633.79527
687.748	2633.38512
687.943	2652.89092
688.138	2699.30914
688.333	2774.63148
688.528	2751.23195
688.723	2902.21626
688.918	2721.69563
689.112	2963.51524
689.307	2771.45292
689.502	2948.64389
689.697	2943.20958
689.892	3146.17191
690.087	2922.97245
690.282	3001.64443
690.476	2972.30627
690.671	2959.76061
690.866	3071.05875
691.061	3025.12255
691.255	2926.82195
691.45	3026.40234
691.645	3088.24779
691.84	3012.70058
692.034	3048.77419
692.229	3040.38839
692.424	2883.61741
692.618	2979.05408
692.813	3020.73563
693.007	2897.76675
693.202	2830.01465
693.397	2947.84987
693.591	2789.62328
693.786	2812.35861
693.98	2696.73726
694.175	2803.42498
694.369	2652.96138
694.564	2723.77395
694.758	2592.88644
694.953	2635.07626
695.147	2532.06488
695.342	2516.63872
695.536	2520.83548
695.73	2455.64513
695.925	2419.14037
696.119	2300.77945
696.313	2215.72116
696.508	2121.89897
696.702	2103.68929
696.896	2033.29094
697.091	2141.03573
697.285	2123.90354
697.479	2013.49139
697.673	1926.28071
697.868	1933.73608
698.062	1890.27694
698.256	1738.39782
698.45	1814.50575
698.644	1727.3615
698.839	1770.33803
699.033	1578.75805
699.227	1637.72783
699.421	1586.60131
699.615	1494.62847
699.809	1454.01193
700.003	1559.37933
700.197	1411.40732
700.391	1461.46008
700.585	1396.02467
700.779	1344.12148
700.973	1327.24316
701.167	1364.60324
701.361	1336.44372
701.555	1324.79497
701.749	1260.83275
701.943	1267.99307
702.137	1195.219
702.331	1320.3701
702.525	1097.74429
702.718	1218.41647
702.912	1194.68049
703.106	1173.18397
703.3	1141.09362
703.494	1282.85205
703.687	1129.40922
703.881	1202.19391
704.075	1132.60074
704.269	1266.46865
704.462	1211.84694
704.656	1141.98647
704.85	1228.62133
705.043	1253.65766
705.237	1135.17128
705.431	1187.69761
705.624	1122.55986
705.818	1252.01778
706.012	1204.94594
706.205	1335.76733
706.399	1205.12751
706.592	1323.38684
706.786	1194.97471
706.979	1349.58801
707.173	1176.16674
707.366	1259.57599
707.56	1309.15261
707.753	1414.6041
707.947	1421.66099
708.14	1430.99695
708.333	1437.8797
708.527	1492.52073
708.72	1481.5366
708.914	1600.58872
709.107	1609.04409
709.3	1617.65676
709.494	1603.50189
709.687	1683.29984
709.88	1717.15726
710.073	1776.50837
710.267	1823.92519
710.46	1828.04832
710.653	1870.48277
710.846	1946.80947
711.04	1943.91471
711.233	2085.73407
711.426	2081.64997
711.619	2189.60008
711.812	2178.40353
712.005	2194.6221
712.198	2178.21487
712.391	2320.71341
712.585	2282.05763
712.778	2465.72485
712.971	2416.62958
713.164	2518.37375
713.357	2562.03108
713.55	2594.62462
713.743	2607.32559
713.936	2681.37503
714.129	2713.27543
714.322	2705.76739
714.514	2771.5581
714.707	2939.90559
714.9	2840.55829
715.093	2865.74912
715.286	2812.27649
715.479	2987.13185
715.672	2884.02823
715.864	2932.29789
716.057	2904.73379
716.25	2953.03255
716.443	2933.22523
716.636	3069.13405
716.828	3087.03126
717.021	3052.92384
717.214	3015.40738
717.406	3176.95471
717.599	2948.74714
717.792	3002.15
717.984	2976.43469
718.177	3074.71403
718.37	3082.34554
718.562	3061.56439
718.755	3060.43494
718.947	3008.35953
719.14	2998.31158
719.333	2777.78624
719.525	2934.05563
719.718	2871.98721
719.91	2769.57676
720.103	2814.52976
720.295	2646.53124
720.487	2759.69291
720.68	2632.64238
720.872	2666.47406
721.065	2585.58157
721.257	2531.91569
721.449	2453.94499
721.642	2432.36104
721.834	2390.36406
722.026	2291.97475
722.219	2193.46495
722.411	2223.92149
722.603	2172.62226
722.796	2150.46392
722.988	2093.29491
723.18	2048.41021
723.372	1901.55301
723.565	1935.80287
723.757	1815.0858
723.949	1880.75095
724.141	1707.49954
724.333	1848.31474
724.525	1667.23908
724.717	1775.45487
724.91	1631.49583
725.102	1587.17237
725.294	1546.9799
725.486	1514.17969
725.678	1537.97856
725.87	1513.00701
726.062	1403.27143
726.254	1463.77737
726.446	1252.76383
726.638	1362.52941
726.83	1259.23466
727.022	1225.03023
727.213	1234.47773
727.405	1255.95858
727.597	1103.49606
727.789	1151.6843
727.981	1061.58784
728.173	1165.67811
728.365	1022.75039
728.556	1119.05921
728.748	990.72305
728.94	1087.06862
729.132	1107.66556
729.324	1044.73619
729.515	1019.82702
729.707	1013.62372
729.899	981.83121
730.09	1022.71494
730.282	947.85801
730.474	1045.50266
730.665	921.52752
730.857	1060.82733
731.049	854.82103
731.24	1052.67591
731.432	952.53999
731.623	970.85248
731.815	923.33058
732.006	949.11989
732.198	972.56589
732.389	971.40406
732.581	905.40092
732.772	1025.7189
732.964	902.4289
733.155	1057.58756
733.347	982.38172
733.538	982.95987
733.729	935.9659
733.921	1059.00075
734.112	960.03924
734.304	1162.04265
734.495	967.60236
734.686	1114.99603
734.877	1033.72981
735.069	1076.75789
735.26	1031.14795
735.451	1077.93678
735.643	1006.60545
735.834	1181.00298
736.025	1195.64579
736.216	1201.62008
736.407	1073.28065
736.599	1188.08693
736.79	1175.23627
736.981	1370.73111
737.172	1139.32867
737.363	1255.25696
737.554	1328.09127
737.745	1358.59868
737.936	1361.55461
738.127	1475.94372
738.318	1377.32554
738.509	1545.56972
738.7	1437.32726
738.891	1581.37535
739.082	1471.9265
739.273	1567.0746
739.464	1577.17286
739.655	1710.31019
739.846	1639.01902
740.037	1690.74194
740.228	1650.3112
740.419	1808.69477
740.609	1821.13908
740.8	1900.15187
740.991	1799.51847
741.182	1938.20837
741.373	1879.92034
741.563	2115.38758
741.754	1965.82032
741.945	2082.37408
742.136	1999.77072
742.326	2225.01771
742.517	2115.78231
742.708	2138.17899
742.898	2110.62694
743.089	2179.00773
743.28	2123.98286
743.47	2285.60068
743.661	2249.53969
743.851	2315.34487
744.042	2178.39426
744.233	2410.91489
744.423	2246.87099
744.614	2466.34564
744.804	2291.23787
744.995	2482.84272
745.185	2255.41699
745.376	2456.34978
745.566	2347.50889
745.756	2456.81719
745.947	2426.86614
746.137	2557.2696
746.328	2394.15878
746.518	2537.02225
746.708	2391.39959
746.899	2520.6939
747.089	2462.88208
747.279	2507.30495
747.47	2456.96407
747.66	2539.50619
747.85	2484.04386
748.04	2503.44774
748.231	2472.93807
748.421	2547.48462
748.611	2395.93584
748.801	2506.98354
748.991	2436.32638
749.182	2461.28536
749.372	2440.0038
749.562	2513.09409
749.752	2459.73693
749.942	2510.09485
750.132	2370.37128
750.322	2479.34142
750.512	2229.43526
750.702	2460.93982
750.892	2339.62042
751.082	2354.29071
751.272	2283.58312
751.462	2406.42921
751.652	2240.54825
751.842	2351.39142
752.032	2215.61014
752.222	2324.87224
752.412	2142.03194
752.602	2200.40319
752.792	2099.58485
752.981	2138.25129
753.171	2076.70335
753.361	2219.06433
753.551	2110.79333
753.741	2127.74992
753.93	2068.99485
754.12	2055.68872
754.31	1980.8892
754.5	2086.51598
754.689	1950.3403
754.879	2031.78271
755.069	1911.61101
755.258	1875.70799
755.448	1961.87383
755.638	1930.52393
755.827	1683.86671
756.017	1950.3403
756.206	1810.45575
756.396	1903.79125
756.586	1703.42699
756.775	1817.60055
756.965	1782.07562
757.154	1784.18296
757.344	1743.91305
757.533	1721.43421
757.723	1736.00969
757.912	1675.72582
758.101	1704.34808
758.291	1793.2587
758.48	1629.44263
758.67	1647.51607
758.859	1571.79697
759.048	1661.43326
759.238	1530.80342
759.427	1593.52633
759.616	1499.83211
759.806	1564.71428
759.995	1534.25822
760.184	1655.58638
760.373	1460.2341
760.563	1555.0697
760.752	1397.15938
760.941	1527.26852
761.13	1371.41973
761.319	1404.21229
761.509	1345.29777
761.698	1462.2
761.887	1347.19268
762.076	1311.05593
762.265	1236.64311
762.454	1346.80572
762.643	1198.41761
762.832	1180.84078
763.021	1072.70644
763.21	1142.5642
763.399	1008.08465
763.588	1043.21147
763.777	972.42417
763.966	992.4858
764.155	926.94261
764.344	923.84972
764.533	792.2781
764.722	920.57068
764.911	767.25444
765.1	845.51138
765.288	715.64856
765.477	725.51683
765.666	658.79745
765.855	758.83174
766.044	603.12019
766.232	680.99144
766.421	578.83397
766.61	631.38701
766.799	542.76665
766.987	558.38752
767.176	466.38749
767.365	553.33527
767.553	490.10791
767.742	536.57123
767.931	491.52601
768.119	474.31497
768.308	449.16442
768.497	523.38185
768.685	473.46575
768.874	513.51097
769.062	493.74787
769.251	518.13999
769.439	514.8668
769.628	620.27532
769.816	551.42155
770.005	527.35581
770.193	585.86195
770.382	664.97507
770.57	596.20133
770.758	766.34546
770.947	722.91148
771.135	810.81198
771.323	739.99868
771.512	849.01612
771.7	798.68225
771.888	832.95776
772.077	920.3095
772.265	937.23244
772.453	900.63119
772.642	987.02659
772.83	984.22632
773.018	1113.55747
773.206	968.56149
773.394	1157.41743
773.583	1104.10419
773.771	1245.29005
773.959	1205.99256
774.147	1275.60898
774.335	1245.92514
774.523	1363.7493
774.711	1304.3715
774.899	1469.51
775.087	1479.47803
775.275	1425.69006
775.463	1481.78218
775.651	1551.27078
775.839	1445.06069
776.027	1597.3613
776.215	1483.84279
776.403	1645.52717
776.591	1596.1292
776.779	1768.0666
776.967	1564.45737
777.155	1697.26099
777.343	1646.92436
777.531	1714.6595
777.718	1625.32366
777.906	1760.44931
778.094	1680.97249
778.282	1699.84987
778.47	1675.34487
778.657	1747.42759
778.845	1665.94763
779.033	1803.48137
779.22	1705.32576
779.408	1794.24502
779.596	1734.99299
779.783	1834.04543
779.971	1755.82175
780.159	1833.76716
780.346	1751.81576
780.534	1802.81561
780.722	1744.36581
780.909	1774.94169
781.097	1753.17045
781.284	1862.47129
781.472	1794.27273
781.659	1793.32345
781.847	1671.10254
782.034	1871.25686
782.222	1633.99133
782.409	1773.42566
782.597	1678.51257
782.784	1705.85006
782.971	1598.83576
783.159	1768.07866
783.346	1569.43076
783.533	1638.39426
783.721	1642.7307
783.908	1687.9252
784.095	1545.11696
784.283	1704.83179
784.47	1605.23333
784.657	1683.46398
784.844	1606.22917
785.032	1616.43756
785.219	1574.67859
785.406	1621.86916
785.593	1501.44453
785.78	1519.82385
785.968	1546.18543
786.155	1614.14822
786.342	1399.36945
786.529	1569.02274
786.716	1434.42776
786.903	1476.04767
787.09	1467.65865
787.277	1558.15464
787.464	1396.60015
787.651	1432.02969
787.838	1465.92283
788.025	1508.71111
788.212	1351.74643
788.399	1468.47862
788.586	1364.72762
788.773	1412.25296
788.96	1328.14828
789.147	1384.68704
789.334	1302.75893
789.521	1363.07862
789.707	1303.52875
789.894	1319.01954
790.081	1247.11769
790.268	1385.01251
790.455	1238.36126
790.641	1294.55759
790.828	1279.85108
791.015	1309.66151
791.202	1346.92891
791.388	1291.52871
791.575	1174.48032
791.762	1224.60882
791.948	1200.51155
792.135	1200.45121
792.322	1097.29293
792.508	1192.39113
792.695	1209.03972
792.881	1203.89923
793.068	1191.61934
793.254	1259.21756
793.441	1108.96355
793.627	1154.9232
793.814	1092.74561
794	1120.07194
794.187	1070.8203
794.373	1127.11286
794.56	1018.02785
794.746	1103.8378
794.933	1117.10066
795.119	1113.63461
795.305	1006.21376
795.492	1101.36558
795.678	1091.91866
795.864	1070.28404
796.051	963.2752
796.237	1063.57778
796.423	1012.24677
796.61	1032.54486
796.796	974.34082
796.982	1071.89579
797.168	953.36769
797.355	1067.52781
797.541	1016.9023
797.727	1046.77256
797.913	862.28872
798.099	1025.3537
798.285	925.30454
798.471	1041.67702
798.658	896.71004
798.844	959.82683
799.03	929.00384
799.216	941.71574
799.402	894.5177
799.588	1036.13311
799.774	878.59657
799.96	974.38069
800.146	884.58832
800.332	1034.65731
800.518	879.44582
800.704	934.64581
800.89	886.8723
801.075	927.61539
801.261	882.98253
801.447	951.84641
801.633	875.05751
801.819	995.09944
802.005	885.93373
802.19	1091.40207
802.376	984.81346
802.562	929.93643
802.748	885.05508
802.934	1028.40718
803.119	905.30502
803.305	975.77771
803.491	988.95023
803.676	980.70922
803.862	868.17471
804.048	959.26725
804.233	904.63598
804.419	980.57108
804.605	861.76763
804.79	1041.05225
804.976	882.73669
805.161	980.80551
805.347	933.5401
805.532	1006.00291
805.718	942.81172
805.903	940.5866
806.089	967.97566
806.274	996.33279
806.46	968.00965
806.645	1030.76586
806.831	945.89979
807.016	1002.01334
807.201	949.94868
807.387	1008.61302
807.572	944.9394
807.757	990.77617
807.943	963.2906
808.128	1002.18887
808.313	878.62758
808.499	1000.61777
808.684	989.12379
808.869	921.10691
809.054	880.68155
809.24	1073.55836
809.425	902.31686
809.61	1033.18986
809.795	980.05284
809.98	1065.41771
810.165	955.61782
810.35	1016.76862
810.536	952.90049
810.721	1006.67549
810.906	945.66727
811.091	981.48837
811.276	956.18448
811.461	1017.8183
811.646	957.61399
811.831	983.88223
812.016	978.00203
812.201	1083.67952
812.386	1046.12437
812.571	1056.13895
812.756	938.76489
812.941	1002.05835
813.125	942.54641
813.31	995.81107
813.495	946.29847
813.68	986.10479
813.865	971.09055
814.05	1120.14057
814.234	1036.02456
814.419	999.21336
814.604	959.01142
814.789	1079.80099
814.973	935.20507
815.158	1043.34896
815.343	964.37587
815.528	971.26869
815.712	918.23896
815.897	988.02896
816.081	867.38451
816.266	881.48466
816.451	900.4254
816.635	962.38231
816.82	912.82162
817.004	907.98007
817.189	846.75937
817.374	866.55451
817.558	810.46579
817.743	814.77665
817.927	783.73312
818.111	889.44618
818.296	724.75255
818.48	770.36719
818.665	683.66323
818.849	839.12957
819.034	681.82474
819.218	753.45973
819.402	650.75395
819.587	697.88003
819.771	724.59652
819.955	738.24518
820.14	571.33866
820.324	671.54696
820.508	636.20261
820.692	647.93246
820.877	595.69992
821.061	678.65944
821.245	600.61134
821.429	511.91362
821.613	521.08712
821.798	530.93144
821.982	544.26997
822.166	540.31171
822.35	549.20386
822.534	540.45066
822.718	442.08221
822.902	492.74616
823.086	471.43506
823.27	492.27426
823.454	439.02314
823.638	507.3192
823.822	449.19769
824.006	502.41173
824.19	444.96296
824.374	493.87556
824.558	406.69183
824.742	460.48886
824.926	359.62139
825.11	486.43908
825.294	392.10042
825.477	473.29153
825.661	411.68022
825.845	430.31552
826.029	394.64959
826.213	434.8803
826.396	392.53821
826.58	394.31253
826.764	438.34992
826.948	414.60628
827.131	392.2751
827.315	385.56244
827.499	382.43382
827.682	427.29437
827.866	401.22958
828.05	397.7554
828.233	402.76346
828.417	401.09555
828.6	312.83159
828.784	419.12117
828.967	355.20446
829.151	408.73655
829.335	359.91561
829.518	333.02177
829.701	327.70118
829.885	382.27704
830.068	364.42928
830.252	438.36624
830.435	360.13071
830.619	321.91309
830.802	372.60855
830.985	422.27284
831.169	334.36201
831.352	360.97672
831.535	342.31517
831.719	315.26331
831.902	353.51611
832.085	315.15724
832.269	324.08458
832.452	421.61415
832.635	331.4619
832.818	318.51719
833.002	355.86827
833.185	336.23031
833.368	333.10878
833.551	396.95185
833.734	356.67716
833.917	364.48366
834.1	318.69598
834.284	414.14146
834.467	288.58716
834.65	341.45552
834.833	347.84413
835.016	315.34598
835.199	358.03363
835.382	324.36359
835.565	332.14205
835.748	298.59054
835.931	283.18945
836.114	265.02222
836.297	314.06461
836.479	334.237
836.662	301.94236
836.845	299.73037
837.028	269.51593
837.211	306.59525
837.394	326.64591
837.577	299.70785
837.759	290.8886
837.942	301.88572
838.125	293.06948
838.308	248.0636
838.49	324.84073
838.673	158.98303
838.856	305.54664
839.039	317.62699
839.221	308.87712
839.404	263.90377
839.587	248.16624
839.769	335.49072
839.952	242.59954
840.134	334.6005
840.317	287.42597
840.499	278.43004
840.682	213.20104
840.865	360.33323
841.047	265.24247
841.23	283.20016
841.412	237.03956
841.595	264.79338
841.777	269.56672
841.959	341.27569
842.142	259.32216
842.324	192.87811
842.507	299.68535
842.689	365.96847
842.871	330.19462
843.054	328.91641
843.236	242.46262
843.418	259.34166
843.601	259.52743
843.783	304.01717
843.965	266.20082
844.147	333.44593
844.33	224.62163
844.512	221.28834
844.694	277.26001
844.876	318.91149
845.059	233.637
845.241	242.4444
845.423	307.64345
845.605	232.45628
845.787	210.97159
845.969	290.76821
846.151	261.62732
846.333	290.03349
846.515	318.89949
846.697	256.663
846.879	271.78327
847.061	301.16537
847.243	245.71634
847.425	253.84539
847.607	324.55872
847.789	266.13062
847.971	248.57044
848.153	265.15221
848.335	253.85497
848.517	269.46522
848.699	247.29026
848.881	308.71443
849.062	263.88389
849.244	291.90775
849.426	224.79147
849.608	337.03737
849.789	260.75491
849.971	216.71142
850.153	204.32737
850.335	287.48006
850.516	206.69845
850.698	302.2039
850.88	307.72452
851.061	272.81948
851.243	253.84539
851.425	315.58307
851.606	224.74042
851.788	231.42445
851.969	212.41837
852.151	313.38335
852.333	153.81462
852.514	274.19587
852.696	204.51248
852.877	228.09149
853.059	283.2645
853.24	171.87393
853.422	183.97816
853.603	236.00934
853.784	175.2691
853.966	239.1341
854.147	211.07467
854.329	212.33
854.51	203.30755
854.691	230.20067
854.873	246.23577
855.054	222.63542
855.235	169.63877
855.416	198.94778
855.598	202.20284
855.779	233.71644
855.96	227.29949
856.141	212.48281
856.323	150.65221
856.504	171.97155
856.685	218.03644
856.866	176.37658
857.047	224.91947
857.228	178.73291
857.409	165.34942
857.591	204.53571
857.772	195.62233
857.953	124.77049
858.134	213.70096
858.315	179.7385
858.496	147.22974
858.677	214.64286
858.858	164.17705
859.039	201.41894
859.22	192.27339
859.401	229.40246
859.582	235.1394
859.762	191.06502
859.943	166.4084
860.124	202.4714
860.305	206.81578
860.486	176.44333
860.667	187.70222
860.848	173.20474
861.028	192.27339
861.209	140.62101
861.39	219.38998
861.571	145.0797
861.751	174.20761
861.932	133.6887
862.113	154.18873
862.293	168.69054
862.474	140.47136
862.655	200.24349
862.835	163.01781
863.016	218.31851
863.197	209.35953
863.377	112.46704
863.558	182.24911
863.738	229.48101
863.919	139.48729
864.099	159.71287
864.28	194.74599
864.46	136.01966
864.641	192.36119
864.821	97.97842
865.002	159.6764
865.182	137.24643
865.363	154.14161
865.543	159.77378
865.723	178.97824
865.904	124.95631
866.084	112.41567
866.264	89.94102
866.445	97.81353
866.625	128.25999
866.805	81.07711
866.986	183.32931
867.166	133.8564
867.346	73.03302
867.526	140.53535
867.707	156.44705
867.887	140.72321
868.067	147.43737
868.247	119.22985
868.427	98.99743
868.607	107.98105
868.788	139.5459
868.968	120.312
869.148	148.5721
869.328	152.93126
869.508	151.90736
869.688	100.17139
869.868	84.36693
870.048	94.52218
870.228	85.55701
870.408	88.93628
870.588	139.55124
870.768	119.30736
870.948	117.03656
871.128	77.63976
871.307	153.01286
871.487	123.7374
871.667	112.44562
871.847	108.03886
872.027	113.66864
872.207	93.36543
872.387	115.97474
872.566	121.59286
872.746	91.19372
872.926	81.06151
873.106	91.17272
873.285	87.88204
873.465	124.89415
873.645	86.59607
873.824	111.50575
874.004	94.58022
874.184	84.39924
874.363	83.29983
874.543	131.69063
874.723	122.7408
874.902	65.2737
875.082	110.34665
875.261	51.75332
875.441	8.91614
875.62	90.03733
875.8	58.47562
875.979	102.48358
876.159	58.50028
876.338	70.86672
876.518	115.97919
876.697	110.31277
876.876	83.23601
877.056	95.58463
877.235	41.56545
877.415	111.4629
877.594	122.6374
877.773	86.76922
877.953	82.07076
878.132	117.03208
878.311	105.8104
878.49	124.95631
878.67	77.64274
878.849	82.13979
879.028	64.1553
879.207	71.99446
879.387	45.00968
879.566	106.91861
879.745	91.19723
879.924	65.21619
880.103	75.40396
880.282	125.09578
880.461	164.52942
880.64	111.48431
880.819	72.06639
880.998	124.99947
881.178	55.09766
881.357	90.02352
881.536	87.83801
881.715	111.51004
881.893	86.70901
882.072	88.83082
882.251	61.87716
882.43	33.73246
882.609	66.38162
882.788	32.598
882.967	48.38593
883.146	105.79013
883.325	72.03589
883.503	101.3661
883.682	108.12599
883.861	100.2137
884.04	81.09272
884.219	51.74536
884.397	90.09269
884.576	49.46302
884.755	43.88293
884.933	65.24615
885.112	111.55732
885.291	97.95205
885.469	114.85446
885.648	121.63022
885.827	93.40831
886.005	83.34471
886.184	68.68254
886.363	120.53327
886.541	87.90922
886.72	76.58824
886.898	-46.19877
887.077	156.54302
887.255	92.30124
887.434	118.42029
887.612	122.74551
887.791	85.60312
887.969	96.77866
888.147	42.74955
888.326	70.90478
888.504	13.42833
888.682	78.79204
888.861	75.47074
889.039	64.111
889.218	15.69957
889.396	30.32009
889.574	16.80986
889.752	66.41222
889.931	35.97232
890.109	39.38007
890.287	98.01995
890.465	7.79721
890.643	111.55301
890.822	61.96066
891	47.23759
891.178	40.47128
891.356	68.65348
891.534	72.09419
891.712	70.8153
891.89	47.24667
892.068	21.3389
892.247	103.5333
892.425	100.29094
892.603	40.46507
892.781	114.88096
892.959	47.24485
893.137	79.96975
893.314	83.33187
893.492	87.91602
893.67	37.0944
893.848	57.37677
894.026	60.71668
894.204	44.99062
894.382	49.50861
894.56	51.73146
894.738	108.09274
894.915	44.96473
895.093	84.4804
895.271	69.78183
895.449	69.73368
895.626	32.58172
895.804	68.64821
895.982	73.2066
896.16	39.38159
896.337	52.92427
896.515	122.90183
896.693	90.04769
896.87	32.61183
897.048	39.33466
897.225	38.24855
897.403	-9.11609
897.581	70.94845
897.758	34.8419
897.936	20.19256
898.113	58.5634
898.291	55.13361
898.468	14.55156
898.646	85.59652
898.823	35.94199
899.001	57.38339
899.178	81.11776
899.356	99.15727
899.533	73.1784
899.71	58.4801
899.888	86.76587
900.065	-11.35852
900.242	81.08023
900.42	67.58764
900.597	96.91277
900.774	58.54532
900.952	136.43226
901.129	55.19318
901.306	57.40989
901.483	47.27763
901.661	59.6374
901.838	50.65057
902.015	16.81827
902.192	49.52578
902.369	45.02705
902.546	38.2397
902.723	51.73742
902.901	43.8897
903.078	58.58152
903.255	83.40266
903.432	64.17012
903.609	47.25758
903.786	43.88293
903.963	39.37096
904.14	34.88627
904.317	73.17277
904.494	74.31855
904.671	104.65768
904.848	22.48567
905.024	118.3424
905.201	30.38799
905.378	-27.17293
905.555	44.98371
905.732	31.49316
905.909	66.38926
906.086	-13.61562
906.262	59.73652
906.439	55.15483
906.616	14.56949
906.793	29.21327
906.969	39.39986
907.146	1.03372
907.323	30.33056
907.5	66.45319
907.676	117.11287
907.853	86.76252
908.03	55.15271
908.206	12.31024
908.383	34.87952
908.559	11.18669
908.736	39.38007
908.912	33.70912
909.089	64.22466
909.266	30.33056
909.442	75.45619
909.619	43.89479
909.795	78.82841
909.972	42.76934
910.148	31.46162
910.324	57.47653
910.501	33.74808
910.677	77.73842
910.854	76.64153
911.03	51.76327
911.206	88.96364
911.383	-14.74611
911.559	79.979
911.735	15.68385
911.912	31.47615
912.088	85.56688
912.264	15.68807
912.44	30.3504
912.617	50.65448
912.793	37.11439
912.969	51.82329
913.145	72.08863
913.321	33.77293
913.498	17.94403
913.674	5.54688
913.85	78.86491
914.026	4.41674
914.202	28.09418
914.378	17.94887
914.554	61.96546
914.73	6.66721
914.906	35.99033
915.082	50.63886
915.258	31.51513
915.434	12.30929
915.61	57.44092
915.786	60.83828
915.962	72.11928
916.138	34.87144
916.314	2.1618
916.49	22.45871
916.665	15.69533
916.841	49.54874
917.017	55.15696
917.193	45.00448
917.369	63.1146
917.545	-27.17293
917.72	69.86261
917.896	28.09634
918.072	39.43045
918.247	31.51023
918.423	86.79944
918.599	28.11371
918.775	47.23215
918.95	7.79962
919.126	2.1603
919.301	61.96306
919.477	16.82476
919.653	45.06369
919.828	7.80263
920.004	38.2648
920.179	20.20033
920.355	-71.04357
920.53	56.25746
920.706	30.37151
920.881	8.93504
921.057	-3.47573
921.232	51.77923
921.408	22.45611
921.583	51.77125
921.759	58.53855
921.934	16.83387
922.109	63.07064
922.285	60.8477
922.46	22.45525
922.635	38.23529
922.811	36.00283
922.986	20.21828
923.161	10.05415
923.336	25.8471
923.512	57.40989
923.687	25.85209
923.862	40.49931
924.037	8.92401
924.212	30.34923
924.388	87.88883
924.563	61.96546
924.738	-13.63084
924.913	72.15563
925.088	-10.24406
925.263	56.27477
925.438	32.58548
925.613	5.54538
925.788	54.04919
925.963	47.26122
926.138	69.83561
926.313	59.68566
926.488	107.08748
926.663	42.76274
926.838	26.95887
927.013	64.18001
927.188	61.94629
927.363	41.61969
927.538	3.28912
927.713	30.37503
927.888	10.05803
928.062	31.48222
928.237	56.27911
928.412	11.19015
928.587	51.75929
928.761	38.2294
928.936	16.82736
929.111	12.31452
929.286	-11.36943
929.46	60.78428
929.635	70.94845
929.81	-5.73468
929.984	25.87716
930.159	17.94956
930.334	-18.13402
930.508	-0.09409
930.683	56.30951
930.857	45.02531
931.032	13.43608
931.206	28.13115
931.381	65.34168
931.556	25.8461
931.73	99.1956
931.904	48.39712
932.079	43.87786
932.253	-39.56346
932.428	20.21124
932.602	-3.476
932.777	3.28963
932.951	25.84311
933.125	4.41742
933.3	72.10534
933.474	63.04875
933.648	45.06719
933.823	70.91568
933.997	42.7892
934.171	36.01397
934.345	-19.25818
934.52	25.83713
934.694	26.98592
934.868	70.98683
935.042	-2.35233
935.217	16.82411
935.391	66.42245
935.565	23.6087
935.739	26.99533
935.913	-10.24327
936.087	-39.57874
936.261	82.25365
936.435	12.30929
936.609	-5.73579
936.783	40.51651
936.957	33.76114
937.131	-41.80598
937.305	8.93227
937.479	37.15603
937.653	-6.86242
937.827	38.23087
938.001	-17.02196
938.175	13.44023
938.349	-2.35005
938.523	24.72543
938.697	-14.7552
938.87	25.84411
939.044	-32.83154
939.218	24.74653
939.392	-7.99064
939.566	33.79
939.739	10.05998
939.913	68.74359
940.087	-26.04011
940.261	8.93124
940.434	23.59864
940.608	-29.40453
940.782	74.4019
940.955	58.59514
941.129	-23.78392
941.302	14.56611
941.476	85.68922
941.65	52.9468
941.823	31.47979
941.997	46.15419
942.17	37.11439
942.344	-52.01745
942.517	-35.04726
942.691	15.70808
942.864	52.93655
943.038	17.9551
943.211	-9.12173
943.385	11.19666
943.558	13.43712
943.731	-28.26361
943.905	1.0338
944.078	31.47615
944.251	-7.98818
944.425	39.4075
944.598	34.85262
944.771	47.33998
944.945	48.44959
945.118	55.22314
945.291	50.68385
945.464	50.67601
945.638	3.29128
945.811	49.56986
945.984	-11.37734
946.157	2.16188
946.33	77.78356
946.503	45.02357
946.677	128.49172
946.85	21.34716
947.023	-14.75293
947.196	25.8461
947.369	60.81711
947.542	65.34674
947.715	2.16146
947.888	-4.60468
948.061	32.63074
948.234	1.03376
948.407	48.38593
948.58	66.43525
948.753	1.03333
948.926	48.40459
949.099	33.74678
949.271	36.01397
949.444	40.52121
949.617	60.85242
949.79	50.65253
949.963	58.62244
950.136	7.79691
950.308	10.05842
950.481	56.31822
950.654	33.72986
950.827	8.93504
950.999	54.08477
951.172	5.54431
951.345	21.34964
951.517	31.51513
951.69	8.93921
951.863	-17.02394
952.035	50.6623
952.208	14.56555
952.381	49.59296
952.553	61.92478
952.726	46.18815
952.898	-20.39059
953.071	-7.98848
953.243	41.65344
953.416	20.20344
953.588	3.28722
953.761	74.3846
953.933	25.83117
954.106	34.90115
954.278	10.04951
954.45	-5.73358
954.623	46.17741
954.795	30.37856
954.967	8.93366
955.14	73.25471
955.312	37.16324
955.484	28.10502
955.657	73.2377
955.829	50.68385
956.001	-17.0134
956.173	-4.60486
956.346	72.08585
956.518	43.8711
956.69	68.70638
956.862	16.83192
957.034	-2.34888
957.207	28.13225
957.379	5.54367
957.551	50.72913
957.723	-22.65102
957.895	67.5772
958.067	-15.89497
958.239	-41.80759
958.411	-6.86348
958.583	2.16146
958.755	50.68385
958.927	3.28988
959.099	26.98488
959.271	-44.08788
959.443	61.98226
959.615	3.29077
959.787	2.16121
959.959	42.77596
960.13	16.81762
960.302	-9.11715
960.474	36.0084
960.646	-0.09397
960.818	82.25047
960.99	30.37151
961.161	42.76604
961.333	2.16055
961.505	3.28773
961.677	-15.89251
961.848	67.54335
962.02	-7.99591
962.192	45.05146
962.363	15.70808
962.535	-33.97031
962.707	6.67338
962.878	45.06194
963.05	11.18151
963.221	28.11589
963.393	-39.57415
963.564	11.1828
963.736	-0.09401
963.907	49.53725
964.079	12.32215
964.25	6.67235
964.422	-44.09129
964.593	-15.88575
964.765	41.65183
964.936	1.0338
965.108	22.45784
965.279	-15.8882
965.45	-23.79497
965.622	47.29042
965.793	29.24485
965.964	40.53376
966.136	8.9271
966.307	68.74891
966.478	45.04447
966.65	38.27221
966.821	-14.75919
966.992	2.16339
967.163	-27.17503
967.334	20.2089
967.506	20.22377
967.677	72.13884
967.848	-19.27305
968.019	-2.3516
968.19	-2.35151
968.361	62.00151
968.532	-30.54186
968.703	-5.7296
968.874	-7.98172
969.045	17.94887
969.216	-18.14803
969.387	11.19145
969.558	-33.93085
969.729	23.61236
969.9	-10.24683
970.071	37.14594
970.242	25.85309
970.413	33.73376
970.584	44.99062
970.755	34.8674
970.926	91.30281
971.097	6.67389
971.267	-24.90768
971.438	4.41981
971.609	43.92367
971.78	55.13997
971.951	69.841
972.121	81.11149
972.292	22.45871
972.463	-45.22905
972.633	63.09259
972.804	-14.76147
972.975	-6.85792
973.145	8.93227
973.316	14.5678
973.487	63.08039
973.657	37.14163
973.828	-7.99126
973.998	1.0348
974.169	75.48532
974.339	28.10502
974.51	38.24118
974.68	26.97862
974.851	25.8621
975.021	-6.86375
975.192	59.70181
975.362	-1.22271
975.533	-39.5818
975.703	25.85409
975.874	16.80857
976.044	26.97758
976.214	39.41667
976.385	34.86202
976.555	2.16305
976.725	6.67673
976.896	75.54675
977.066	6.67648
977.236	57.46093
977.406	34.88897
977.577	41.64699
977.747	39.39986
977.917	70.94845
978.087	43.90666
978.257	-37.31094
978.427	31.49803
978.598	65.36952
978.768	15.69775
978.938	22.45611
979.108	25.85609
979.278	48.38034
979.448	-17.02328
979.618	55.15908
979.788	6.67648
979.958	48.40273
980.128	4.4193
980.298	26.98697
980.468	67.61117
980.638	-52.00133
980.808	40.49775
980.978	3.2876
981.148	-12.49433
981.317	52.8957
981.487	33.7533
981.657	25.85009
981.827	-2.35142
981.997	30.39626
982.167	33.77555
982.336	63.1097
982.506	60.85478
982.676	-13.63084
982.846	-30.53245
983.015	-10.24366
983.185	16.81957
983.355	-46.32431
983.524	-29.41019
983.694	-24.91635
983.864	-0.09398
984.033	-13.62768
984.203	50.65057
984.372	22.45352
984.542	-18.14873
984.712	17.95649
984.881	45.01489
985.051	-22.65189
985.22	23.59226
985.39	49.49718
985.559	26.96509
985.728	-3.48044
985.898	45.04447
986.067	36.01537
986.237	-20.38981
986.406	28.10936
986.576	56.31169
986.745	15.71235
986.914	59.72031
987.084	51.80123
987.253	-18.14803
987.422	24.72926
987.591	-0.09401
987.761	48.40273
987.93	8.93124
988.099	33.75069
988.268	16.82346
988.438	23.5868
988.607	-2.35325
988.776	45.01315
988.945	75.50868
989.114	8.93539
989.283	43.9373
989.452	33.75591
989.621	-5.73446
989.791	5.55161
989.96	12.30692
990.129	20.20266
990.298	25.85409
990.467	17.97531
990.636	75.49991
990.805	-27.18135
990.974	56.29864
991.142	29.2279
991.311	-6.85924
991.48	17.9461
991.649	35.98755
991.818	4.41606
991.987	-27.16452
992.156	71.00882
992.325	28.10936
992.493	24.70827
992.662	-212.54142
992.831	33.74547
993	-0.09399
993.168	-13.63875
993.337	21.35958
993.506	72.08585
993.675	65.29379
993.843	-15.88391
994.012	40.53847
994.181	-26.03809
994.349	66.45319
994.518	10.05648
994.686	55.20814
994.855	-4.60646
995.024	5.54324
995.192	37.11868
995.361	-4.60291
995.529	2.16255
995.698	-0.09394
995.866	13.44855
996.035	2.16247
996.203	19.07691
996.371	39.39224
996.54	5.54838
996.708	16.82281
996.877	48.43268
997.045	38.27369
997.213	50.64667
997.382	17.96136
997.55	-14.75406
997.718	23.57319
997.887	13.44438
998.055	-27.17503
998.223	-3.47707
998.391	5.5458
998.56	46.17741
998.728	38.26037
998.896	51.87369
999.064	6.6801
999.232	-12.49818
999.401	-23.76925
999.569	20.22063
999.737	12.32789
999.905	11.18842
1000.073	49.57755
1000.241	24.71303
1000.409	81.17428
1000.577	-27.17293
1000.745	10.06505
1000.913	48.38966
1001.081	-18.13262
1001.249	6.67518
1001.417	-46.33682
1001.585	56.27477
1001.753	23.59864
1001.921	33.74547
1002.089	37.11868
1002.256	39.38615
1002.424	43.91516
1002.592	-15.8962
1002.76	66.41989
1002.928	-14.76376
1003.096	78.88931
1003.263	-1.22276
1003.431	-6.86801
1003.599	-3.47936
1003.767	43.88293
1003.934	39.40139
1004.102	47.25576
1004.27	17.95164
1004.437	20.20188
1004.605	93.49812
1004.773	13.44751
1004.94	25.8451
1005.108	3.28735
1005.275	45.0375
1005.443	37.13014
1005.61	61.88667
1005.778	26.97653
1005.945	-10.24722
1006.113	45.02357
1006.28	41.6245
1006.448	26.97862
1006.615	30.35157
1006.783	89.05643
1006.95	20.20812
1007.118	4.42152
1007.285	69.83291
1007.452	6.67622
1007.62	59.6995
1007.787	-26.04817
1007.954	55.19532
1008.122	8.92951
1008.289	55.17185
1008.456	76.63263
1008.623	30.38446
1008.791	-12.51659
1008.958	-5.7398
1009.125	10.05803
1009.292	46.17383
1009.459	14.58247
1009.627	17.9385
1009.794	-21.5319
1009.961	16.81568
1010.128	104.82696
1010.295	26.97653
1010.462	50.74692
1010.629	33.78211
1010.796	34.88357
1010.963	31.50657
1011.13	-0.09395
1011.297	38.25593
1011.464	-14.75122
1011.631	-0.094
1011.798	33.72596
1011.965	54.06382
1012.132	28.11153
1012.299	17.95927
1012.466	-14.75862
1012.633	-33.95317
1012.799	8.93262
1012.966	-7.99343
1013.133	6.6801
1013.3	17.95719
1013.467	-36.156
1013.633	54.09316
1013.8	-2.35096
1013.967	35.99449
1014.134	57.39663
1014.3	40.52434
1014.467	-26.04111
1014.634	1.034
1014.8	34.89033
1014.967	15.69836
1015.134	5.54988
1015.3	29.21889
1015.467	-55.36411
1015.633	7.80263
1015.8	31.48586
1015.966	45.02357
1016.133	16.82086
1016.3	39.33617
1016.466	15.70382
1016.632	-29.40679
1016.799	10.06387
1016.965	47.21947
1017.132	40.50399
1017.298	33.7533
1017.465	75.49115
1017.631	19.07765
1017.797	50.7311
1017.964	69.87885
1018.13	-36.16851
1018.296	58.56566
1018.463	32.63327
1018.629	20.21906
1018.795	30.34339
1018.961	44.99755
1019.128	-24.90865
1019.294	-35.07298
1019.46	65.31897
1019.626	57.4276
1019.792	-17.02328
1019.959	-0.094
1020.125	36.05878
1020.291	-45.22905
1020.457	34.85262
1020.623	-32.78715
1020.789	26.99743
1020.955	23.57228
1021.121	91.23233
1021.287	20.20188
1021.453	22.47173
1021.619	59.70181
1021.785	-15.89682
1021.951	42.76439
1022.117	11.19188
1022.283	11.18798
1022.449	72.11091
1022.615	70.98957
1022.781	-22.63097
1022.946	36.02234
1023.112	28.14319
1023.278	-3.47493
1023.444	83.46091
1023.61	17.95164
1023.775	33.75722
1023.941	49.54874
1024.107	30.35859
1024.273	43.88293
1024.438	-13.62348
1024.604	-5.72938
1024.77	-55.28962
1024.935	-3.47922
1025.101	46.19174
1025.267	17.95233
1025.432	12.32071
1025.598	23.62062
1025.763	4.41827
1025.929	40.50399
1026.095	17.96136
1026.26	67.59286
1026.426	16.82801
1026.591	6.67209
1026.757	51.78922
1026.922	16.82022
1027.087	-12.50253
1027.253	47.26304
1027.418	39.38768
1027.584	11.17677
1027.749	25.8621
1027.914	-0.09399
1028.08	50.67993
1028.245	43.87448
1028.41	21.33972
1028.576	45.00794
1028.741	-13.63084
1028.906	-24.89616
1029.072	16.82541
1029.237	6.67648
1029.402	28.09851
1029.567	33.70912
1029.732	66.48146
1029.898	40.49307
1030.063	52.9694
1030.228	58.59059
1030.393	-2.35251
1030.558	67.60332
1030.723	51.84744
1030.888	22.46304
1031.053	48.45523
1031.218	16.82541
1031.383	7.79932
1031.548	49.53343
1031.713	19.07838
1031.878	17.94817
1032.043	29.24259
1032.208	34.86875
1032.373	-10.24683
1032.538	4.41776
1032.703	22.45784
1032.868	-5.73824
1033.033	41.67281
1033.198	61.97506
1033.362	17.95233
1033.527	65.30385
1033.692	-3.47721
1033.857	-1.22238
1034.021	50.71729
1034.186	-4.60932
1034.351	-38.45135
1034.516	21.35544
1034.68	13.44959
1034.845	22.47347
1035.01	32.62443
1035.174	47.29957
1035.339	34.87548
1035.504	70.96214
1035.668	-26.02103
1035.833	14.57061
1035.997	24.72257
1036.162	103.67673
1036.326	90.19715
1036.491	50.63497
1036.655	19.07323
1036.82	-54.25397
1036.984	-13.61405
1037.149	-41.79633
1037.313	-3.47627
1037.478	-9.12492
1037.642	-4.60717
1037.807	21.3455
1037.971	39.39986
1038.135	55.16546
1038.3	40.51807
1038.464	20.23005
1038.628	21.35295
1038.792	24.71398
1038.957	10.06348
1039.121	25.86109
1039.285	45.01141
1039.449	28.10068
1039.614	22.47086
1039.778	54.04919
1039.942	17.9461
1040.106	30.39745
1040.27	15.69291
1040.434	-42.9226
1040.599	-1.22252
1040.763	-28.2952
1040.927	-4.60682
1041.091	17.95302
1041.255	-9.12068
1041.419	26.99638
1041.583	-12.50349
1041.747	-14.74271
1041.911	1.03317
1042.075	25.85309
1042.239	28.13225
1042.403	10.04835
1042.567	-18.13052
1042.731	23.58316
1042.894	-18.13402
1043.058	37.15603
1043.222	-23.79866
1043.386	-35.04726
1043.55	25.85409
1043.714	26.97133
1043.877	34.88357
1044.041	21.34798
1044.205	-0.09401
1044.369	42.78423
1044.532	11.18669
1044.696	24.69972
1044.86	23.58771
1045.023	-49.72141
1045.187	-1.22271
1045.351	-26.03206
1045.514	45.03576
1045.678	-17.00749
1045.841	61.95108
