Data from Subt4__1__10-20-14-272.txt Node

Date: Tue Oct 07 10:20:14 EDT 2025
User: brett
Spectrometer: USB4F03499
Trigger mode: 4
Integration Time (sec): 3.000000E-3
Scans to average: 1
Electric dark correction enabled: true
Nonlinearity correction enabled: true
Boxcar width: 0
XAxis mode: Wavelengths
Number of Pixels in Spectrum: 3648
>>>>>Begin Spectral Data<<<<<
345.386	88.45048
345.605	88.45048
345.824	88.45048
346.044	80.2882
346.263	119.64609
346.482	49.43061
346.701	-52.50612
346.92	17.91313
347.139	3.48409
347.358	-24.36478
347.577	-42.50863
347.796	-4.34107
348.015	-34.14938
348.234	34.29166
348.453	-8.98676
348.672	36.25195
348.891	25.48567
349.11	6.41677
349.329	96.26468
349.548	178.98779
349.767	214.27207
349.986	141.93892
350.205	176.60101
350.424	256.20802
350.643	234.10662
350.862	152.16641
351.08	117.87538
351.299	166.24859
351.518	210.71559
351.737	236.98544
351.956	125.47322
352.174	249.2543
352.393	264.57725
352.612	243.50383
352.831	177.64111
353.049	286.22772
353.268	240.25388
353.487	199.94755
353.705	306.46426
353.924	292.70241
354.143	197.17196
354.361	242.56086
354.58	234.63828
354.798	270.74738
355.017	224.09405
355.236	252.19724
355.454	237.6903
355.673	266.86576
355.891	279.74907
356.11	237.28214
356.328	262.14693
356.547	269.85784
356.765	290.27951
356.984	271.19199
357.202	317.35848
357.42	380.52378
357.639	288.22804
357.857	250.29292
358.076	241.87459
358.294	340.43738
358.512	263.86687
358.731	276.35595
358.949	266.80042
359.167	317.15275
359.386	227.0016
359.604	297.58604
359.822	303.85536
360.04	297.77002
360.259	305.69299
360.477	414.48965
360.695	343.89675
360.913	344.94669
361.131	398.86071
361.35	425.66933
361.568	321.78445
361.786	441.1835
362.004	353.8211
362.222	446.5741
362.44	410.63256
362.658	545.12487
362.876	478.6515
363.094	483.86095
363.312	516.55383
363.53	586.21465
363.749	581.52294
363.967	567.67381
364.184	642.58757
364.402	689.61125
364.62	687.5425
364.838	766.11426
365.056	714.73412
365.274	808.15965
365.492	714.00194
365.71	899.39507
365.928	755.04105
366.146	876.85527
366.364	831.11835
366.581	910.25458
366.799	841.27169
367.017	898.23776
367.235	888.00887
367.453	1018.71604
367.67	974.03677
367.888	1075.93874
368.106	990.0067
368.323	950.39118
368.541	1069.50359
368.759	1070.58863
368.977	1108.43703
369.194	1183.04313
369.412	1134.6259
369.629	1212.90334
369.847	944.91808
370.065	1150.15405
370.282	1260.93376
370.5	1257.93426
370.717	1092.25236
370.935	1218.89185
371.152	1092.70624
371.37	1155.13123
371.588	1188.66204
371.805	1218.46564
372.022	1149.20062
372.24	1199.23801
372.457	1132.41808
372.675	1228.18053
372.892	1168.56397
373.11	1190.82532
373.327	1293.17962
373.544	1356.67568
373.762	1178.51256
373.979	1361.90417
374.196	1260.57863
374.414	1226.62948
374.631	1376.2953
374.848	1509.37258
375.066	1271.1777
375.283	1378.05163
375.5	1357.53768
375.717	1368.07167
375.935	1401.55103
376.152	1534.07165
376.369	1448.56866
376.586	1559.00496
376.803	1419.97702
377.02	1505.84394
377.238	1518.19872
377.455	1529.42759
377.672	1428.64188
377.889	1593.87733
378.106	1496.59166
378.323	1553.16729
378.54	1607.09132
378.757	1559.70969
378.974	1546.32192
379.191	1634.0745
379.408	1618.80133
379.625	1669.67745
379.842	1509.17583
380.059	1692.29737
380.276	1619.84259
380.493	1799.74764
380.71	1725.47355
380.927	1614.3203
381.143	1587.64356
381.36	1770.22468
381.577	1595.75422
381.794	1655.14349
382.011	1615.1439
382.228	1660.83926
382.444	1561.71099
382.661	1623.24994
382.878	1677.82694
383.095	1647.13488
383.311	1623.28789
383.528	1510.54066
383.745	1557.8019
383.962	1592.48768
384.178	1678.18028
384.395	1524.25616
384.612	1535.74853
384.828	1541.35157
385.045	1546.52674
385.261	1624.88615
385.478	1656.30843
385.695	1656.05381
385.911	1627.96153
386.128	1627.52213
386.344	1706.36866
386.561	1706.56199
386.777	1740.34665
386.994	1751.05256
387.21	1814.87901
387.427	1961.30521
387.643	2068.10713
387.86	2099.44162
388.076	1885.5154
388.292	2106.84245
388.509	2008.99019
388.725	2285.12735
388.942	2243.53449
389.158	2263.43435
389.374	2282.10054
389.591	2222.43445
389.807	2259.68084
390.023	2346.95779
390.239	2228.92029
390.456	2438.34614
390.672	2274.27165
390.888	2320.09785
391.104	2328.55315
391.321	2340.04043
391.537	2456.68017
391.753	2339.02856
391.969	2521.61946
392.185	2509.27141
392.401	2484.11816
392.618	2483.09682
392.834	2443.1133
393.05	2571.98706
393.266	2533.19949
393.482	2469.13421
393.698	2460.29934
393.914	2544.29192
394.13	2536.29787
394.346	2476.29278
394.562	2544.12421
394.778	2530.91674
394.994	2572.14325
395.21	2678.17525
395.426	2837.96573
395.642	2786.11663
395.858	3002.02194
396.073	2797.49299
396.289	3001.12906
396.505	2930.23099
396.721	3016.77465
396.937	3119.38615
397.153	2937.0459
397.369	3132.805
397.584	3442.83623
397.8	3376.33862
398.016	3482.50507
398.232	3565.28261
398.447	3675.75067
398.663	3853.43613
398.879	3853.12092
399.094	4100.84743
399.31	4036.86349
399.526	3943.57491
399.741	4358.34352
399.957	4433.11986
400.173	4341.71991
400.388	4410.9603
400.604	4329.55337
400.82	4646.76769
401.035	4839.69448
401.251	4863.93371
401.466	4775.03735
401.682	5213.08721
401.897	5240.1261
402.113	5189.27546
402.328	5269.23214
402.544	5406.91053
402.759	5259.00966
402.974	5460.96272
403.19	5279.94156
403.405	5775.08668
403.621	5757.24548
403.836	5700.53453
404.051	5980.81733
404.267	5950.65736
404.482	5675.10257
404.697	5586.09932
404.913	5602.93697
405.128	6042.85112
405.343	5833.52792
405.559	5774.71094
405.774	5949.10597
405.989	6115.91715
406.204	5984.66096
406.42	6017.04314
406.635	5917.82677
406.85	5826.27508
407.065	5819.04208
407.28	6113.50924
407.495	6021.33296
407.71	5903.81826
407.926	5973.42095
408.141	6394.5525
408.356	6400.8506
408.571	6286.00892
408.786	6032.20843
409.001	6291.67
409.216	6541.06781
409.431	6627.63981
409.646	6488.54884
409.861	6291.98626
410.076	6355.26853
410.291	6428.78657
410.506	6835.22665
410.721	6546.61818
410.936	6615.42081
411.15	6702.17883
411.365	6713.65657
411.58	6760.23379
411.795	6698.23453
412.01	7151.96978
412.225	6935.3313
412.439	6730.18294
412.654	7014.45808
412.869	6922.12192
413.084	7047.61349
413.299	7054.1907
413.513	6800.43394
413.728	6814.41606
413.943	7056.51595
414.157	7172.83732
414.372	7033.00413
414.587	7155.18473
414.801	7459.29651
415.016	7236.23811
415.231	7476.47851
415.445	7385.22104
415.66	7403.26203
415.874	7546.02207
416.089	7352.08632
416.304	7785.19367
416.518	7427.35379
416.733	7548.86685
416.947	7322.19396
417.162	7290.74143
417.376	7604.66113
417.59	7850.54025
417.805	7774.09968
418.019	7604.05107
418.234	7718.60871
418.448	7397.64092
418.663	7686.6673
418.877	7645.94326
419.091	7792.44196
419.306	7752.12544
419.52	7663.1077
419.734	7497.72486
419.949	8010.29129
420.163	8147.74918
420.377	7638.72711
420.591	7727.54915
420.806	7855.97953
421.02	7722.72718
421.234	7978.60305
421.448	7863.80624
421.663	7860.65201
421.877	7787.09453
422.091	7684.89651
422.305	7617.69243
422.519	7880.40376
422.733	8284.01743
422.947	7969.94621
423.161	7867.43991
423.376	7980.79654
423.59	8097.54806
423.804	8089.87424
424.018	8028.41857
424.232	8074.73453
424.446	8507.15245
424.66	8277.88745
424.874	8100.34352
425.088	7854.49181
425.302	7907.69883
425.515	8457.04673
425.729	8573.70446
425.943	8550.20648
426.157	8571.83298
426.371	8119.83116
426.585	8283.99972
426.799	8228.46935
427.013	8811.49981
427.226	8657.7841
427.44	8211.70201
427.654	8030.96454
427.868	8116.55743
428.081	8416.8488
428.295	8211.58216
428.509	8211.00991
428.723	8130.57025
428.936	8161.39144
429.15	8043.59651
429.364	8227.71041
429.577	7879.15566
429.791	8047.38932
430.005	8621.33179
430.218	8504.99886
430.432	8049.63195
430.645	8196.88398
430.859	8329.41784
431.073	8409.66063
431.286	8917.90721
431.5	9055.71418
431.713	8450.44516
431.927	8435.78003
432.14	8921.23287
432.354	8733.99269
432.567	8693.74481
432.781	9208.88897
432.994	9278.51614
433.207	9267.86328
433.421	9610.17589
433.634	9446.62498
433.848	9770.06138
434.061	9485.12183
434.274	8885.4924
434.488	9262.41751
434.701	9194.44285
434.914	9271.19344
435.127	9813.85319
435.341	10033.12875
435.554	9930.6524
435.767	10435.54102
435.98	10616.41191
436.194	9904.18671
436.407	10073.46573
436.62	11102.39636
436.833	10829.58955
437.046	10304.7496
437.259	10304.6821
437.473	10844.18012
437.686	10937.61323
437.899	10569.21693
438.112	11236.61095
438.325	10637.98085
438.538	10768.91025
438.751	11510.99699
438.964	10944.9059
439.177	11111.33716
439.39	11092.2046
439.603	11880.17595
439.816	11389.9809
440.029	12166.0798
440.242	12196.35806
440.455	12640.80309
440.668	12151.77411
440.881	11592.91017
441.094	11566.5936
441.306	12067.53794
441.519	12718.86939
441.732	12502.31155
441.945	12708.30014
442.158	11879.08182
442.37	11888.48444
442.583	12590.77419
442.796	13074.15355
443.009	12855.8408
443.222	12401.9436
443.434	11835.89876
443.647	12910.57811
443.86	13325.61204
444.072	13768.05341
444.285	13051.35776
444.498	13655.02422
444.71	13138.78608
444.923	13305.45319
445.136	13056.44924
445.348	12946.14866
445.561	12991.21948
445.773	13383.53783
445.986	12397.44267
446.198	13904.07833
446.411	13976.50004
446.623	14228.9085
446.836	13908.86377
447.048	14188.16604
447.261	14578.31376
447.473	14649.08082
447.686	14065.61767
447.898	14086.9762
448.11	15103.79554
448.323	15362.73322
448.535	15070.45739
448.748	13894.91271
448.96	14016.79988
449.172	14320.46651
449.385	13594.08881
449.597	14626.18346
449.809	14585.38682
450.021	14872.7392
450.234	15066.79574
450.446	14133.05252
450.658	14220.77438
450.87	14394.57608
451.083	14740.46272
451.295	14886.97205
451.507	14670.79507
451.719	14628.86281
451.931	15158.3999
452.143	15009.77974
452.356	14815.19708
452.568	15011.24656
452.78	14886.45011
452.992	15354.33172
453.204	15769.78924
453.416	15306.44579
453.628	14705.37402
453.84	15114.37808
454.052	15020.38664
454.264	15969.53297
454.476	15672.65206
454.688	16513.75092
454.9	16584.85422
455.112	15502.15202
455.324	15182.14156
455.536	15839.746
455.747	16172.57732
455.959	16045.63153
456.171	16482.43075
456.383	15787.68044
456.595	15228.71167
456.807	15246.6103
457.018	15341.72273
457.23	16077.14276
457.442	15342.07902
457.654	16108.19481
457.865	16031.36709
458.077	15460.19834
458.289	15573.92932
458.501	15869.82305
458.712	16870.52106
458.924	17551.49971
459.136	16521.53253
459.347	16167.1009
459.559	16441.08852
459.77	17334.25113
459.982	17654.38698
460.194	17484.85159
460.405	16294.10514
460.617	16764.21532
460.828	17735.7112
461.04	17810.63961
461.251	17153.58492
461.463	18797.05355
461.674	18227.8403
461.886	18265.16064
462.097	17600.58273
462.309	18084.31123
462.52	17318.19095
462.731	18982.0039
462.943	17481.00947
463.154	17310.40383
463.366	17467.15215
463.577	18246.21263
463.788	18667.51931
464	18865.72711
464.211	18897.7205
464.422	19939.11025
464.634	19787.24063
464.845	19536.14949
465.056	19673.28013
465.267	19749.88518
465.478	18776.14007
465.69	19781.0447
465.901	19412.24404
466.112	19853.58232
466.323	19940.33333
466.534	20608.23147
466.745	20648.47232
466.957	20449.32673
467.168	20329.24442
467.379	20340.61625
467.59	19912.0502
467.801	19513.84014
468.012	20435.17567
468.223	20550.34342
468.434	20138.0418
468.645	21373.79839
468.856	21813.72926
469.067	21864.45218
469.278	21579.9221
469.489	21845.81793
469.7	21032.22928
469.911	21012.78289
470.122	22508.70798
470.333	23094.02603
470.543	21772.62732
470.754	22628.84697
470.965	22493.60011
471.176	22805.75023
471.387	23509.58405
471.598	23174.02996
471.808	23037.5088
472.019	23399.62365
472.23	23400.02501
472.441	23287.50272
472.651	23943.04447
472.862	24041.7321
473.073	24493.02439
473.283	24270.03317
473.494	24057.31641
473.705	24442.96839
473.915	24611.04106
474.126	25870.94004
474.337	25369.10726
474.547	26340.21262
474.758	26189.26476
474.968	25800.42513
475.179	26283.20847
475.389	26645.07514
475.6	26483.18538
475.81	27114.83613
476.021	27501.21061
476.231	27871.27919
476.442	27647.00721
476.652	27168.8066
476.863	27713.81874
477.073	27503.81602
477.284	28144.28685
477.494	28363.0315
477.704	29424.75735
477.915	30287.69213
478.125	28995.88986
478.335	29753.50622
478.546	30650.14142
478.756	29733.44127
478.966	30317.38646
479.177	30471.89454
479.387	31074.22184
479.597	30924.78378
479.807	30860.8839
480.018	30823.11753
480.228	31670.42364
480.438	31773.57462
480.648	31820.12132
480.858	32024.3076
481.068	31528.85742
481.279	32162.95387
481.489	32894.62657
481.699	32891.70369
481.909	32724.77654
482.119	34050.21059
482.329	33839.87188
482.539	33766.86241
482.749	33261.11897
482.959	33498.36256
483.169	34155.96063
483.379	34040.66374
483.589	34186.35849
483.799	34110.73574
484.009	33640.57066
484.219	33918.59262
484.429	34286.27919
484.639	33760.92964
484.849	34207.55392
485.059	34808.9164
485.268	34773.92794
485.478	35073.82224
485.688	34251.02146
485.898	34418.67604
486.108	34878.39483
486.317	35116.29969
486.527	35348.24115
486.737	35749.86765
486.947	35707.87449
487.156	36044.98203
487.366	35966.8075
487.576	35559.94553
487.785	35798.05217
487.995	35744.98004
488.205	36121.06966
488.414	36575.71859
488.624	36314.05622
488.834	36308.32144
489.043	36068.82368
489.253	36121.43981
489.462	36305.06509
489.672	36881.13098
489.882	36984.39288
490.091	37171.14267
490.301	36896.11426
490.51	37108.04803
490.72	37260.05751
490.929	37435.15832
491.138	37471.40477
491.348	37366.99575
491.557	37391.52587
491.767	37716.21919
491.976	37804.93778
492.185	37764.61737
492.395	37845.26729
492.604	37990.12546
492.813	38051.01319
493.023	38288.75467
493.232	38161.79339
493.441	38344.90386
493.651	38448.40957
493.86	38286.96023
494.069	38525.50167
494.278	38507.51319
494.488	38539.52471
494.697	38669.44441
494.906	38544.9911
495.115	38698.49713
495.324	38597.48537
495.533	38778.52507
495.743	38641.55948
495.952	38829.63402
496.161	38698.85472
496.37	38855.68825
496.579	38780.38262
496.788	38867.0675
496.997	38850.54819
497.206	38821.29588
497.415	38929.53231
497.624	38901.63137
497.833	38960.01952
498.042	38847.69618
498.251	38930.04167
498.46	38959.64945
498.669	38946.52548
498.878	38928.46956
499.087	39003.39702
499.296	38992.72386
499.504	38965.93697
499.713	38990.96849
499.922	38965.21572
500.131	39006.05308
500.34	38940.31273
500.549	39064.77806
500.757	39023.98016
500.966	39054.14521
501.175	39030.95201
501.384	39043.20804
501.592	38985.80911
501.801	39048.7219
502.01	38887.94528
502.218	39060.46232
502.427	38971.86073
502.636	39052.71835
502.844	38992.42462
503.053	39067.39656
503.262	39031.73571
503.47	39078.01706
503.679	39050.8371
503.887	39120.25659
504.096	39020.20328
504.304	39095.66854
504.513	39115.16272
504.721	39125.77599
504.93	39079.97809
505.138	39134.61845
505.347	39070.21367
505.555	39133.62908
505.764	39110.09048
505.972	39149.39467
506.18	39157.82116
506.389	39188.70523
506.597	39125.26432
506.806	39192.78876
507.014	39141.00192
507.222	39188.79599
507.431	39228.37084
507.639	39191.41364
507.847	39224.01503
508.055	39225.20018
508.264	39252.66516
508.472	39251.59422
508.68	39214.29521
508.888	39291.28822
509.096	39255.0767
509.305	39307.88705
509.513	39330.64384
509.721	39351.25671
509.929	39332.53888
510.137	39419.93891
510.345	39361.90333
510.553	39410.08192
510.762	39402.34607
510.97	39426.67361
511.178	39448.2704
511.386	39461.95205
511.594	39448.67575
511.802	39468.59966
512.01	39447.98032
512.218	39469.76286
512.426	39473.67621
512.634	39481.16316
512.842	39499.8
513.049	39489.63109
513.257	39490.31128
513.465	39531.50243
513.673	39505.73777
513.881	39554.63555
514.089	39548.74128
514.297	39556.11471
514.504	39552.80306
514.712	39549.94958
514.92	39560.53029
515.128	39523.92356
515.336	39563.842
515.543	39612.7402
515.751	39558.35943
515.959	39549.6206
516.166	39553.21684
516.374	39541.20595
516.582	39497.5128
516.789	39527.21609
516.997	39557.66165
517.205	39589.57556
517.412	39563.45619
517.62	39475.1201
517.827	39535.11147
518.035	39493.27389
518.243	39472.66526
518.45	39514.86203
518.658	39424.45299
518.865	39394.41907
519.073	39359.46612
519.28	39382.22705
519.488	39395.72495
519.695	39352.1033
519.902	39380.28687
520.11	39362.65487
520.317	39345.40278
520.525	39344.29933
520.732	39365.6284
520.939	39347.23259
521.147	39392.42536
521.354	39417.0058
521.561	39338.8792
521.769	39422.88907
521.976	39396.44393
522.183	39392.07319
522.391	39409.35401
522.598	39421.82502
522.805	39442.05409
523.012	39463.74337
523.219	39393.64186
523.427	39403.57439
523.634	39470.70801
523.841	39515.19684
524.048	39428.88087
524.255	39500.17424
524.462	39483.98323
524.669	39461.36485
524.877	39475.20888
525.084	39506.14189
525.291	39469.35404
525.498	39514.95832
525.705	39463.50285
525.912	39517.60661
526.119	39502.46736
526.326	39549.89168
526.533	39516.09138
526.74	39510.35587
526.947	39457.19822
527.153	39559.57442
527.36	39555.43887
527.567	39563.59281
527.774	39516.21593
527.981	39628.2054
528.188	39596.60858
528.395	39621.63765
528.602	39564.73264
528.808	39611.04988
529.015	39600.70258
529.222	39644.48855
529.429	39603.35642
529.635	39666.17976
529.842	39631.63266
530.049	39681.6531
530.256	39643.41567
530.462	39659.65087
530.669	39665.07557
530.876	39670.27909
531.082	39671.68705
531.289	39698.95815
531.495	39610.55957
531.702	39698.21692
531.909	39663.72464
532.115	39715.52267
532.322	39680.25165
532.528	39740.51546
532.735	39713.99859
532.941	39751.89685
533.148	39757.73153
533.354	39710.43026
533.561	39693.88346
533.767	39727.73815
533.974	39776.50526
534.18	39767.7764
534.387	39678.20856
534.593	39797.51839
534.799	39726.25356
535.006	39819.57742
535.212	39696.93713
535.418	39768.5333
535.625	39753.04108
535.831	39751.01109
536.037	39725.26904
536.244	39746.61484
536.45	39745.40885
536.656	39745.48863
536.862	39810.02142
537.068	39815.59039
537.275	39733.744
537.481	39796.12967
537.687	39774.07195
537.893	39773.80289
538.099	39766.35764
538.305	39799.51102
538.512	39740.37089
538.718	39812.04208
538.924	39750.3823
539.13	39763.30258
539.336	39801.63706
539.542	39828.52464
539.748	39814.4993
539.954	39871.50041
540.16	39794.74965
540.366	39838.46606
540.572	39798.73373
540.778	39843.58152
540.984	39825.54472
541.19	39830.0594
541.396	39845.38811
541.602	39811.76267
541.807	39838.42221
542.013	39880.76189
542.219	39800.61558
542.425	39843.33389
542.631	39820.48002
542.837	39843.35329
543.042	39791.49683
543.248	39839.25872
543.454	39850.17065
543.66	39834.15423
543.865	39830.00799
544.071	39850.32391
544.277	39832.26867
544.483	39901.72492
544.688	39812.40399
544.894	39869.06736
545.1	39833.03004
545.305	39856.24818
545.511	39804.81974
545.716	39849.25836
545.922	39850.65001
546.128	39813.09403
546.333	39868.988
546.539	39926.74552
546.744	39880.41261
546.95	39915.72244
547.155	39860.21251
547.361	39867.25653
547.566	39867.20329
547.772	39931.15332
547.977	39878.21824
548.182	39905.05198
548.388	39856.60975
548.593	39908.77245
548.799	39855.48552
549.004	39884.51621
549.209	39870.13818
549.415	39910.58936
549.62	39845.20107
549.825	39906.13159
550.031	39868.65459
550.236	39878.94461
550.441	39809.26238
550.646	39914.16471
550.852	39815.07663
551.057	39838.13637
551.262	39863.8283
551.467	39814.19752
551.672	39800.27252
551.878	39836.94057
552.083	39804.24004
552.288	39818.56832
552.493	39785.13404
552.698	39780.81219
552.903	39775.90177
553.108	39783.28739
553.313	39708.10183
553.518	39780.37174
553.723	39767.42885
553.928	39754.68566
554.133	39756.74738
554.338	39791.7612
554.543	39753.48396
554.748	39766.77453
554.953	39749.80841
555.158	39770.81171
555.363	39765.23621
555.568	39756.17264
555.773	39753.07122
555.978	39785.84217
556.182	39750.93108
556.387	39856.35443
556.592	39745.04692
556.797	39791.36471
557.002	39753.12174
557.206	39817.05876
557.411	39761.92285
557.616	39776.71515
557.821	39742.13395
558.025	39825.15437
558.23	39760.0933
558.435	39879.17266
558.64	39772.20955
558.844	39784.4469
559.049	39770.0167
559.253	39791.83718
559.458	39746.87529
559.663	39794.38792
559.867	39744.38415
560.072	39787.78033
560.276	39774.83117
560.481	39805.41451
560.685	39759.46482
560.89	39801.01539
561.094	39771.95522
561.299	39807.22494
561.503	39734.55894
561.708	39813.5086
561.912	39736.38344
562.117	39825.58961
562.321	39745.53275
562.525	39821.20466
562.73	39833.25016
562.934	39828.17785
563.139	39756.96154
563.343	39821.58462
563.547	39778.60307
563.752	39814.93956
563.956	39784.4469
564.16	39787.80082
564.364	39836.55161
564.569	39794.40777
564.773	39753.28756
564.977	39811.98837
565.181	39777.15892
565.385	39785.57121
565.59	39791.36471
565.794	39762.14792
565.998	39765.30831
566.202	39837.24037
566.406	39739.2664
566.61	39768.91224
566.814	39754.88657
567.018	39705.75029
567.222	39681.75484
567.426	39650.49308
567.63	39679.41643
567.834	39709.86176
568.038	39605.5294
568.242	39651.73776
568.446	39566.08698
568.65	39521.39535
568.854	39531.19896
569.058	39583.66421
569.262	39478.28361
569.466	39503.92011
569.67	39423.98378
569.874	39463.41968
570.078	39424.54378
570.281	39408.61437
570.485	39498.63967
570.689	39354.191
570.893	39321.32292
571.097	39226.02984
571.3	39298.72632
571.504	39233.21582
571.708	39227.76909
571.912	39212.92796
572.115	39196.38996
572.319	39171.78554
572.523	39117.43436
572.726	39090.28169
572.93	39082.51862
573.133	39048.80112
573.337	39023.29823
573.541	39059.69865
573.744	38979.61516
573.948	39037.25872
574.151	38976.60557
574.355	39015.96527
574.558	38933.6711
574.762	39054.82945
574.965	38926.61378
575.169	38950.22191
575.372	38904.55976
575.576	38957.125
575.779	38836.2473
575.983	38900.57427
576.186	38741.63883
576.389	38884.76652
576.593	38862.65245
576.796	38800.76223
577	38698.62486
577.203	38902.33627
577.406	38741.44663
577.609	38849.44071
577.813	38720.57331
578.016	38763.89658
578.219	38733.74483
578.423	38761.66001
578.626	38730.08901
578.829	38745.11813
579.032	38734.47519
579.235	38687.91208
579.438	38652.3002
579.642	38709.87383
579.845	38735.55168
580.048	38670.63284
580.251	38694.41558
580.454	38713.17961
580.657	38603.76603
580.86	38768.9776
581.063	38557.23907
581.266	38762.73737
581.469	38608.50203
581.672	38707.33916
581.875	38623.60696
582.078	38692.26681
582.281	38668.36177
582.484	38661.36254
582.687	38633.9873
582.89	38615.12423
583.093	38748.40534
583.296	38627.57916
583.499	38711.7059
583.702	38580.96084
583.904	38574.53694
584.107	38636.76116
584.31	38581.02354
584.513	38619.87964
584.716	38565.55629
584.918	38561.16518
585.121	38524.80539
585.324	38506.45985
585.527	38480.73974
585.729	38517.42499
585.932	38420.88101
586.135	38443.63883
586.337	38311.51675
586.54	38244.74433
586.743	38199.95019
586.945	38106.39647
587.148	37972.89126
587.35	38004.45532
587.553	37774.55937
587.755	37726.11538
587.958	37564.47598
588.161	37541.39685
588.363	37490.45179
588.566	37264.46017
588.768	37463.46624
588.971	37115.83799
589.173	37083.93047
589.375	36891.75176
589.578	36959.76987
589.78	36822.15287
589.983	36677.57844
590.185	36697.70056
590.387	36385.38075
590.59	36683.24782
590.792	36225.92064
590.994	36254.95043
591.197	36222.06711
591.399	35958.33075
591.601	36120.35765
591.803	35909.91577
592.006	36015.89386
592.208	35811.1724
592.41	35606.34935
592.612	35662.8293
592.815	35502.04834
593.017	35644.05644
593.219	35372.93672
593.421	35370.91225
593.623	35244.58596
593.825	35454.02348
594.027	35122.16326
594.229	35178.54391
594.432	35094.1107
594.634	35397.15097
594.836	35286.54478
595.038	35763.29224
595.24	35216.17348
595.442	35769.89712
595.644	35380.55264
595.846	35324.87151
596.048	35684.28853
596.249	35441.87735
596.451	35686.24385
596.653	35594.45451
596.855	35595.27152
597.057	35731.2766
597.259	35615.57189
597.461	35855.70931
597.663	35695.25565
597.864	35877.1134
598.066	35917.80965
598.268	35941.21147
598.47	35893.74631
598.671	35862.32992
598.873	35737.07107
599.075	35755.73683
599.277	36100.70374
599.478	35901.82023
599.68	36024.5831
599.882	36068.48434
600.083	35930.07594
600.285	36032.1479
600.487	35942.36252
600.688	36103.69952
600.89	36014.91849
601.091	36106.41897
601.293	36100.72244
601.494	36275.47038
601.696	36148.93133
601.898	36208.38242
602.099	36198.17607
602.301	36340.02393
602.502	36431.05214
602.703	36530.6966
602.905	36194.12516
603.106	36479.69723
603.308	36549.66026
603.509	36797.68178
603.711	36341.22727
603.912	36380.23406
604.113	36635.20902
604.315	36534.93036
604.516	36429.56727
604.717	36429.28661
604.919	36564.21537
605.12	36400.12386
605.321	36539.36532
605.522	36359.01295
605.724	36663.50941
605.925	36277.25662
606.126	36488.94161
606.327	36496.57164
606.528	36582.97946
606.729	36431.03203
606.931	36600.18161
607.132	36725.95987
607.333	36324.41947
607.534	36494.73561
607.735	36432.63205
607.936	36490.7274
608.137	36600.87891
608.338	36461.8556
608.539	36217.92896
608.74	36385.35994
608.941	36369.79796
609.142	36343.9936
609.343	36327.58839
609.544	36373.78004
609.745	36220.79635
609.946	36277.48018
610.147	36105.62953
610.348	36251.30617
610.549	36073.56496
610.75	36271.36926
610.95	36209.22735
611.151	36229.74376
611.352	36136.51581
611.553	36132.14803
611.754	35964.03655
611.954	36160.53282
612.155	35858.26067
612.356	35950.0842
612.557	35869.69644
612.757	35881.36515
612.958	35722.30278
613.159	35787.75879
613.359	35669.6516
613.56	35604.70852
613.761	35368.52132
613.961	35694.31798
614.162	35314.52217
614.362	35347.89128
614.563	35499.62278
614.764	35552.55991
614.964	35311.00818
615.165	35312.82573
615.365	35170.58281
615.566	35254.93489
615.766	35179.1139
615.967	35460.63437
616.167	35057.45486
616.368	34968.53845
616.568	35235.50167
616.768	35126.66844
616.969	35160.58427
617.169	35275.74393
617.37	35073.15338
617.57	34955.18672
617.77	35018.82583
617.971	34954.50283
618.171	35024.67815
618.371	35035.68024
618.571	34894.35041
618.772	35068.58159
618.972	34969.78801
619.172	34966.50453
619.372	34673.73736
619.573	34876.34073
619.773	34979.44602
619.973	34991.58609
620.173	34812.43001
620.373	34698.59083
620.573	34666.20741
620.774	34765.63179
620.974	34725.6475
621.174	34634.13228
621.374	34647.3356
621.574	34827.14545
621.774	34640.85982
621.974	34725.16165
622.174	34339.21778
622.374	34628.90095
622.574	34407.3873
622.774	34422.47096
622.974	34380.85592
623.174	34688.45103
623.374	34432.06301
623.574	34345.05892
623.774	34533.74929
623.973	34353.98464
624.173	34207.97949
624.373	34302.84273
624.573	34122.81456
624.773	34201.41952
624.973	34080.38264
625.172	33917.15344
625.372	33841.58147
625.572	33956.70619
625.772	33858.13787
625.971	33603.60747
626.171	33609.72909
626.371	33678.47704
626.57	33243.57928
626.77	33740.0973
626.97	33215.23457
627.169	33191.95044
627.369	33569.44359
627.569	33518.46234
627.768	32676.68511
627.968	33070.72219
628.167	32907.62051
628.367	33206.70379
628.566	32612.75369
628.766	32789.32982
628.965	32834.7635
629.165	32821.66567
629.364	32659.37692
629.564	32677.92809
629.763	32654.59631
629.963	32458.40028
630.162	32553.23697
630.362	32543.59524
630.561	32396.49891
630.76	32400.01048
630.96	32198.75174
631.159	32243.45742
631.358	32396.20827
631.558	32420.764
631.757	32609.7437
631.956	32294.25829
632.155	32317.16662
632.355	32070.13037
632.554	32199.36581
632.753	32131.35833
632.952	32099.15541
633.152	32144.07135
633.351	31840.83749
633.55	32204.94756
633.749	32047.11314
633.948	32194.92088
634.147	31977.78778
634.346	32073.27233
634.545	32060.10054
634.744	32028.27336
634.944	32002.89299
635.143	32349.02174
635.342	31995.34053
635.541	31934.64407
635.74	31881.66001
635.939	31800.23553
636.138	32005.90966
636.336	32062.57636
636.535	31806.72692
636.734	32091.37933
636.933	32374.27178
637.132	31932.23303
637.331	31889.22045
637.53	32118.04049
637.729	32006.08627
637.928	32229.70672
638.126	32186.61328
638.325	31562.37738
638.524	31733.98055
638.723	31723.9729
638.921	31696.94782
639.12	31717.28694
639.319	31929.94227
639.518	31867.97793
639.716	31466.11143
639.915	31802.76098
640.114	31701.02767
640.312	31748.75919
640.511	31515.50567
640.71	31952.85386
640.908	31404.97888
641.107	31410.45088
641.305	31459.91139
641.504	31466.24888
641.702	31333.28251
641.901	31507.08121
642.099	31239.56273
642.298	31407.85412
642.496	31272.29538
642.695	31123.05716
642.893	31211.49088
643.092	31016.26147
643.29	30824.65228
643.489	30952.69193
643.687	30680.06941
643.885	30742.22661
644.084	30872.40724
644.282	30714.07264
644.48	30652.43192
644.679	30603.43106
644.877	30059.08206
645.075	30330.07864
645.274	30227.9424
645.472	30137.04968
645.67	30136.24851
645.868	29935.16402
646.067	29390.40776
646.265	29764.54104
646.463	29431.81219
646.661	29321.3452
646.859	29227.26675
647.057	29227.71546
647.256	29082.60735
647.454	29101.46684
647.652	29079.51951
647.85	28980.73951
648.048	29090.49253
648.246	28779.99454
648.444	28594.18407
648.642	28784.3972
648.84	28740.40048
649.038	28524.08306
649.236	28333.02751
649.434	28447.07715
649.632	28176.80447
649.83	28351.79247
650.028	27918.86235
650.226	27771.52089
650.423	27737.84822
650.621	28069.52292
650.819	27750.135
651.017	27985.59567
651.215	27984.47468
651.413	27794.71638
651.61	27744.15857
651.808	27812.01201
652.006	27910.58249
652.204	27591.76959
652.401	27398.30517
652.599	27465.5957
652.797	27561.71371
652.995	27249.97422
653.192	26952.45026
653.39	27097.06542
653.588	27274.39241
653.785	26973.79265
653.983	26779.67108
654.18	26751.26087
654.378	26743.68678
654.576	26722.76505
654.773	26699.67151
654.971	26840.39546
655.168	26517.84622
655.366	26750.32442
655.563	26216.78464
655.761	26573.12569
655.958	26463.42949
656.156	26470.40905
656.353	26119.88955
656.55	26384.44079
656.748	26239.04537
656.945	26258.3288
657.143	26191.56198
657.34	26331.95309
657.537	26159.42576
657.735	26311.57355
657.932	25963.57803
658.129	26336.2767
658.326	26119.93672
658.524	26685.98085
658.721	26303.26072
658.918	26393.34891
659.115	25848.66965
659.313	26236.41876
659.51	26133.35739
659.707	26399.8864
659.904	26087.82555
660.101	26248.0691
660.298	26542.112
660.496	26410.25553
660.693	26363.8834
660.89	26111.13375
661.087	26053.43327
661.284	26108.26481
661.481	26421.65959
661.678	26578.92687
661.875	26379.46459
662.072	26475.43558
662.269	26316.02917
662.466	26685.1613
662.663	26723.75884
662.86	26659.91282
663.057	26575.8126
663.254	26561.42065
663.45	26537.33301
663.647	26509.82979
663.844	26478.44311
664.041	26406.17579
664.238	26792.94259
664.435	26551.31326
664.631	26458.77848
664.828	26761.95237
665.025	26544.04546
665.222	26500.93838
665.419	26532.62422
665.615	26841.29805
665.812	26352.34441
666.009	26757.16484
666.205	26765.81918
666.402	26580.98352
666.599	26564.23076
666.795	26415.9566
666.992	26444.10109
667.188	26633.30706
667.385	26410.8517
667.582	26493.23146
667.778	26476.96691
667.975	26327.87908
668.171	26182.14618
668.368	26498.70234
668.564	26131.24061
668.761	26418.0288
668.957	25970.82249
669.154	26257.08572
669.35	26086.05371
669.547	25973.94923
669.743	26155.85248
669.939	26047.9513
670.136	26030.45241
670.332	25881.86026
670.528	25664.44788
670.725	26077.61428
670.921	25841.94913
671.117	25816.1042
671.314	25668.69082
671.51	25834.49239
671.706	25655.32927
671.902	25381.11403
672.099	25811.90057
672.295	25381.61298
672.491	25448.3065
672.687	25242.55796
672.883	25374.10232
673.08	25602.57583
673.276	25494.6995
673.472	25608.58699
673.668	25419.73007
673.864	25320.71716
674.06	25416.09871
674.256	25506.72391
674.452	24938.40211
674.648	25030.02479
674.844	25020.90249
675.04	25348.68038
675.236	25019.09334
675.432	25120.87941
675.628	24694.6701
675.824	24730.11735
676.02	24932.26017
676.216	24961.16049
676.412	24774.28028
676.608	24683.74012
676.804	24535.25817
676.999	24892.0646
677.195	24527.15167
677.391	24707.24044
677.587	24549.56168
677.783	24742.1742
677.978	24611.19161
678.174	24551.07683
678.37	24258.73307
678.566	24587.57451
678.761	24409.03193
678.957	24442.09199
679.153	23966.61255
679.348	24486.50814
679.544	24313.90347
679.74	24405.06665
679.935	24009.18396
680.131	24320.16828
680.327	24118.91458
680.522	23905.8691
680.718	24009.59991
680.913	24074.92855
681.109	23970.20929
681.304	24263.72337
681.5	23979.92361
681.695	24035.09649
681.891	23670.21319
682.086	23920.57336
682.282	23862.18944
682.477	23517.16189
682.672	23978.55632
682.868	23573.83049
683.063	23952.88593
683.259	23512.5894
683.454	23504.73354
683.649	23777.79337
683.845	23383.30938
684.04	23432.05809
684.235	23221.17802
684.43	23043.48186
684.626	22688.78604
684.821	22849.52204
685.016	22484.45176
685.211	22558.11496
685.407	22090.20816
685.602	22262.56914
685.797	21754.15173
685.992	21759.41448
686.187	21914.94417
686.382	21628.41796
686.577	21354.44405
686.773	21450.10557
686.968	21055.71697
687.163	21071.14266
687.358	20652.95228
687.553	20890.69528
687.748	20994.85404
687.943	20691.2683
688.138	20515.85348
688.333	20543.95926
688.528	20329.3941
688.723	20328.23251
688.918	20213.17348
689.112	19969.14047
689.307	19969.77791
689.502	19634.62025
689.697	19783.15546
689.892	19925.66555
690.087	19749.70402
690.282	19657.30078
690.476	19428.23124
690.671	19727.70179
690.866	19217.75927
691.061	19328.86596
691.255	19269.03807
691.45	19420.52442
691.645	19027.02236
691.84	19035.28139
692.034	18867.93616
692.229	18857.40885
692.424	18907.36336
692.618	18919.89469
692.813	18584.55943
693.007	18918.19757
693.202	18661.17152
693.397	18928.27845
693.591	18594.78141
693.786	18821.20105
693.98	18639.43895
694.175	18960.66149
694.369	18917.99252
694.564	18963.83727
694.758	18900.16771
694.953	18981.56022
695.147	19150.70946
695.342	19146.55327
695.536	19074.87918
695.73	19173.35765
695.925	18857.23195
696.119	19268.79399
696.313	18928.95115
696.508	19084.76006
696.702	19175.47726
696.896	18994.42253
697.091	19117.65059
697.285	19198.64508
697.479	19012.77998
697.673	19182.00233
697.868	18995.62188
698.062	19252.93297
698.256	18723.70074
698.45	19022.826
698.644	18978.46854
698.839	19178.23792
699.033	18725.34888
699.227	19094.92718
699.421	18906.66394
699.615	18885.1133
699.809	19045.74303
700.003	19334.57447
700.197	18983.88233
700.391	19142.97147
700.585	18853.64487
700.779	18920.67235
700.973	19046.79239
701.167	18902.19986
701.361	19069.61999
701.555	19066.40121
701.749	18955.94547
701.943	19200.38514
702.137	19125.59418
702.331	19216.83936
702.525	19014.37595
702.718	18975.43464
702.912	19032.03306
703.106	18981.62194
703.3	18784.67158
703.494	19141.80369
703.687	18963.89572
703.881	18880.14388
704.075	18993.85265
704.269	18900.56352
704.462	18984.44177
704.656	19216.6558
704.85	18841.10999
705.043	19095.91864
705.237	18919.3406
705.431	19190.6656
705.624	18946.46174
705.818	19210.96959
706.012	19291.74135
706.205	19086.27565
706.399	19043.89081
706.592	19567.66931
706.786	19189.03551
706.979	19510.96892
707.173	19129.74991
707.366	19451.55132
707.56	19390.73392
707.753	19403.41451
707.947	19397.56887
708.14	19452.74151
708.333	19268.58064
708.527	19557.86744
708.72	19182.6055
708.914	19598.73229
709.107	19673.42846
709.3	19413.3055
709.494	19411.71888
709.687	19435.01429
709.88	19582.6603
710.073	19652.63003
710.267	19328.04589
710.46	19471.90761
710.653	19669.04329
710.846	19691.18361
711.04	19729.7122
711.233	19560.95622
711.426	19428.46039
711.619	19436.42609
711.812	19525.76904
712.005	19964.87674
712.198	19335.76303
712.391	19409.01795
712.585	19483.31984
712.778	19552.46647
712.971	19327.72975
713.164	19296.2457
713.357	19443.10077
713.55	19258.66345
713.743	19121.89376
713.936	19116.6569
714.129	19066.46564
714.322	18875.96516
714.514	18708.86903
714.707	18687.62899
714.9	18332.70764
715.093	18286.72754
715.286	17944.00349
715.479	17930.10994
715.672	17866.95928
715.864	17721.72534
716.057	17266.42176
716.25	17336.56826
716.443	17137.45388
716.636	16973.96257
716.828	16738.87366
717.021	16285.72654
717.214	16332.51552
717.406	16299.1297
717.599	15893.56609
717.792	15408.35117
717.984	15392.55865
718.177	15375.55825
718.37	15047.84766
718.562	15105.56391
718.755	15032.38746
718.947	14879.55124
719.14	14558.63753
719.333	14468.56547
719.525	14370.67674
719.718	14338.66698
719.91	14351.79812
720.103	14336.62484
720.295	14143.41049
720.487	14000.19225
720.68	13989.01441
720.872	14007.23684
721.065	13650.21462
721.257	13767.57253
721.449	13379.8042
721.642	13482.60842
721.834	13399.26741
722.026	13476.25231
722.219	12934.73844
722.411	13103.87284
722.603	12898.43953
722.796	12853.76496
722.988	12823.33769
723.18	12945.65306
723.372	12713.84172
723.565	12755.40765
723.757	12511.01116
723.949	12742.68188
724.141	12693.99699
724.333	12817.47087
724.525	12598.62487
724.717	12738.59483
724.91	12723.38265
725.102	12761.65586
725.294	12666.82505
725.486	12653.20343
725.678	12731.34444
725.87	12880.82693
726.062	12818.77552
726.254	12998.35944
726.446	12608.27423
726.638	12739.55269
726.83	12630.85505
727.022	12940.47405
727.213	12737.31375
727.405	12901.08256
727.597	12665.1055
727.789	12721.4686
727.981	12637.2107
728.173	12765.75289
728.365	12590.28202
728.556	12682.78225
728.748	12345.25442
728.94	12728.89666
729.132	12540.82379
729.324	12623.09742
729.515	12470.84021
729.707	12551.9718
729.899	12622.20232
730.09	12772.60143
730.282	12710.4316
730.474	12890.05086
730.665	12724.60497
730.857	12895.98528
731.049	12748.15843
731.24	13017.09541
731.432	12962.76405
731.623	13027.98971
731.815	13336.55352
732.006	13415.22256
732.198	13403.382
732.389	13570.43515
732.581	13554.61656
732.772	13644.92795
732.964	13496.41759
733.155	13900.06794
733.347	13819.89692
733.538	13999.22182
733.729	13900.17966
733.921	14135.4827
734.112	14099.94223
734.304	14407.89428
734.495	14117.58518
734.686	14511.01901
734.877	14474.01771
735.069	14468.83658
735.26	14593.46678
735.451	14864.72567
735.643	14506.7461
735.834	14946.41771
736.025	14725.89627
736.216	15178.58592
736.407	14945.87674
736.599	15250.44687
736.79	15160.57581
736.981	15357.80763
737.172	15323.95854
737.363	15536.71408
737.554	15426.08429
737.745	15460.7722
737.936	15390.85215
738.127	15640.71739
738.318	15588.02782
738.509	15953.66865
738.7	15869.92934
738.891	15982.406
739.082	15937.83568
739.273	16018.81922
739.464	16121.59459
739.655	15954.30876
739.846	15827.66723
740.037	16010.87587
740.228	16028.22965
740.419	16115.53184
740.609	16201.64926
740.8	16239.50217
740.991	16112.59681
741.182	16322.1353
741.373	16248.99312
741.563	16355.19982
741.754	15922.14795
741.945	16171.4821
742.136	16274.88106
742.326	16582.54768
742.517	16378.12063
742.708	16379.67062
742.898	16424.31376
743.089	16402.57081
743.28	16418.62999
743.47	16255.24673
743.661	16338.72023
743.851	16510.26541
744.042	16282.32221
744.233	16459.79112
744.423	16466.11959
744.614	16711.06316
744.804	16534.16369
744.995	16270.65763
745.185	15937.8448
745.376	16506.3291
745.566	16620.5149
745.756	16603.91133
745.947	16513.56767
746.137	16638.90707
746.328	16468.52946
746.518	16671.59013
746.708	16430.4028
746.899	16769.70164
747.089	16526.38196
747.279	16656.27516
747.47	16585.08913
747.66	16398.38945
747.85	16420.60687
748.04	16484.17153
748.231	16427.86051
748.421	16321.33136
748.611	16378.67418
748.801	16315.26873
748.991	16364.22548
749.182	16556.86979
749.372	16258.12628
749.562	16466.58278
749.752	16309.38023
749.942	16377.34904
750.132	15920.19216
750.322	16296.7465
750.512	16152.12037
750.702	16145.75927
750.892	16007.86058
751.082	16214.12859
751.272	16194.03776
751.462	16026.1544
751.652	15957.07394
751.842	16354.69838
752.032	16006.47587
752.222	16194.85921
752.412	15833.76712
752.602	15953.53253
752.792	15954.05612
752.981	15965.71532
753.171	15800.464
753.361	16073.77612
753.551	15657.40596
753.741	15807.79434
753.93	15634.199
754.12	15381.08714
754.31	15701.71852
754.5	15674.94092
754.689	15624.42757
754.879	15587.72016
755.069	15452.74973
755.258	15413.05939
755.448	15595.50556
755.638	15479.59779
755.827	15358.21623
756.017	15450.77285
756.206	15242.04845
756.396	15446.1012
756.586	15080.20601
756.775	15229.92743
756.965	15037.15993
757.154	14963.00114
757.344	14700.57895
757.533	14598.50298
757.723	14173.13609
757.912	14060.00898
758.101	13534.07264
758.291	13578.48998
758.48	13018.73723
758.67	12898.74894
758.859	12560.31184
759.048	12468.88935
759.238	12050.73295
759.427	12030.42505
759.616	11721.1052
759.806	11616.41303
759.995	11191.47161
760.184	11122.98961
760.373	10770.45048
760.563	10587.67977
760.752	10251.99707
760.941	10240.50938
761.13	9606.10338
761.319	9665.044
761.509	9382.12699
761.698	9310.6838
761.887	8869.48962
762.076	8967.30132
762.265	8379.47455
762.454	8321.51311
762.643	8100.72093
762.832	8144.34467
763.021	7812.6151
763.21	7723.20855
763.399	7471.33755
763.588	7410.99232
763.777	7332.94052
763.966	7239.33723
764.155	7115.5886
764.344	6947.10757
764.533	6941.76094
764.722	7065.24636
764.911	6797.78443
765.1	6899.0928
765.288	6781.34126
765.477	6970.42471
765.666	6852.40919
765.855	7363.58443
766.044	7258.08968
766.232	7536.25662
766.421	7495.15123
766.61	7756.74495
766.799	7672.81919
766.987	8135.74854
767.176	8086.34055
767.365	8313.74008
767.553	8219.93406
767.742	8560.42104
767.931	8724.81374
768.119	8834.39334
768.308	8891.60493
768.497	9111.88422
768.685	9327.68309
768.874	9556.46802
769.062	9636.79272
769.251	9901.21525
769.439	10072.32674
769.628	10304.66143
769.816	10347.6555
770.005	10567.0797
770.193	10661.95104
770.382	10742.07249
770.57	10758.48597
770.758	11198.04427
770.947	11226.90884
771.135	11349.1735
771.323	11410.65411
771.512	11609.42096
771.7	11668.65394
771.888	11775.81785
772.077	11744.17755
772.265	11975.16763
772.453	11916.95669
772.642	12097.83152
772.83	11958.47398
773.018	12159.97262
773.206	12050.45292
773.394	12112.68014
773.583	12145.58509
773.771	12329.71293
773.959	12089.82721
774.147	12382.24254
774.335	12166.52692
774.523	12172.96996
774.711	12249.39006
774.899	12406.92254
775.087	12159.58322
775.275	12066.8546
775.463	12269.12365
775.651	12335.68493
775.839	11996.99363
776.027	12475.73659
776.215	12207.78836
776.403	12362.89273
776.591	12157.72455
776.779	12329.56875
776.967	12127.63187
777.155	12298.05905
777.343	12094.51861
777.531	12342.93934
777.718	12139.8907
777.906	12324.95374
778.094	12212.1701
778.282	12171.69939
778.47	12172.38643
778.657	11999.46439
778.845	11843.46981
779.033	12147.12674
779.22	11865.50374
779.408	12035.69664
779.596	11757.96116
779.783	12041.25997
779.971	11805.13858
780.159	12102.64035
780.346	11748.78781
780.534	11949.60875
780.722	11661.22308
780.909	11989.86106
781.097	11771.98352
781.284	11823.40666
781.472	11729.61164
781.659	11833.47072
781.847	11508.86501
782.034	11775.61748
782.222	11574.28812
782.409	11701.69224
782.597	11453.18189
782.784	11476.61533
782.971	11494.40191
783.159	11546.67847
783.346	11415.76616
783.533	11364.60737
783.721	11342.11531
783.908	11283.45472
784.095	11020.40422
784.283	11433.50249
784.47	11318.80742
784.657	11307.74907
784.844	11113.08457
785.032	11234.965
785.219	11012.6055
785.406	11080.15853
785.593	10960.38147
785.78	11161.67489
785.968	10933.66462
786.155	11051.98225
786.342	10805.66628
786.529	10769.51356
786.716	10649.52965
786.903	10879.38075
787.09	10578.98516
787.277	10681.311
787.464	10602.15774
787.651	10568.17412
787.838	10525.99589
788.025	10631.84424
788.212	10424.90071
788.399	10433.28939
788.586	10280.24179
788.773	10452.91641
788.96	10249.2386
789.147	10394.27505
789.334	10133.4607
789.521	10198.56346
789.707	9911.70166
789.894	10213.72126
790.081	9997.68737
790.268	10305.14465
790.455	9840.43113
790.641	10018.46892
790.828	9855.8305
791.015	9934.76231
791.202	9656.72142
791.388	9778.35683
791.575	9720.71499
791.762	9655.16588
791.948	9581.88857
792.135	9642.74414
792.322	9686.24472
792.508	9632.09588
792.695	9633.71636
792.881	9466.17007
793.068	9453.17392
793.254	9625.58749
793.441	9370.11038
793.627	9507.73913
793.814	9401.37877
794	9548.95894
794.187	9344.88848
794.373	9396.4081
794.56	9233.25418
794.746	9360.13251
794.933	9259.76991
795.119	9354.60289
795.305	9218.88503
795.492	9501.76362
795.678	9135.4902
795.864	9388.57447
796.051	9262.09098
796.237	9298.45511
796.423	9216.25952
796.61	9314.09949
796.796	9150.75907
796.982	9201.10188
797.168	9238.55251
797.355	9527.62027
797.541	9138.32529
797.727	9245.58497
797.913	8886.80296
798.099	9278.42436
798.285	9106.42385
798.471	9230.72344
798.658	8994.39856
798.844	9207.36282
799.03	9251.58571
799.216	9311.69846
799.402	9040.25347
799.588	9124.73595
799.774	9046.32401
799.96	9139.30747
800.146	8821.02663
800.332	9128.54759
800.518	8962.5166
800.704	9130.31204
800.89	9003.89043
801.075	9106.06621
801.261	8981.81707
801.447	9063.32977
801.633	8832.51354
801.819	9012.97108
802.005	8785.68272
802.19	9043.97168
802.376	8938.6483
802.562	8993.62793
802.748	8815.9814
802.934	8805.29785
803.119	8836.9175
803.305	8969.37996
803.491	8735.66946
803.676	8837.50295
803.862	8830.11288
804.048	8945.19528
804.233	8835.64972
804.419	8839.06701
804.605	8725.09519
804.79	8878.98414
804.976	8737.71311
805.161	8787.64207
805.347	8707.29653
805.532	8778.22077
805.718	8667.88349
805.903	8814.80581
806.089	8653.55448
806.274	8840.34026
806.46	8539.64053
806.645	8643.57224
806.831	8491.26759
807.016	8624.19789
807.201	8587.49871
807.387	8498.1186
807.572	8551.95744
807.757	8718.92434
807.943	8489.8988
808.128	8630.07657
808.313	8422.07721
808.499	8562.43981
808.684	8413.5327
808.869	8552.7434
809.054	8303.54324
809.24	8353.21544
809.425	8215.50339
809.61	8390.45338
809.795	8228.98939
809.98	8331.07105
810.165	8376.80182
810.35	8105.73307
810.536	8235.083
810.721	8123.95542
810.906	7921.68193
811.091	8167.37018
811.276	7746.86056
811.461	7807.90869
811.646	7734.51613
811.831	7785.12611
812.016	7506.23104
812.201	7530.52693
812.386	7372.33136
812.571	7435.63353
812.756	7151.84628
812.941	7270.48043
813.125	6939.007
813.31	7101.37134
813.495	6861.21029
813.68	6828.16412
813.865	6823.17773
814.05	6708.81994
814.234	6542.06792
814.419	6502.71915
814.604	6269.42198
814.789	6418.55502
814.973	6149.2326
815.158	6199.89795
815.343	5993.56523
815.528	5999.90633
815.712	5798.08076
815.897	5814.84365
816.081	5709.7603
816.266	5662.39691
816.451	5601.25221
816.635	5718.90233
816.82	5393.11343
817.004	5356.54615
817.189	5287.02281
817.374	5300.60502
817.558	5021.99917
817.743	5080.58981
817.927	5029.29947
818.111	5082.01877
818.296	4942.09169
818.48	4941.70141
818.665	4925.19985
818.849	4991.18492
819.034	4907.24563
819.218	4950.866
819.402	4936.58911
819.587	4929.65147
819.771	4771.7389
819.955	4863.19139
820.14	4715.96333
820.324	4734.58054
820.508	4520.27885
820.692	4748.27525
820.877	4501.63517
821.061	4625.39014
821.245	4548.80742
821.429	4581.18305
821.613	4521.61475
821.798	4610.67167
821.982	4471.52467
822.166	4589.30894
822.35	4583.3259
822.534	4591.83129
822.718	4476.92132
822.902	4656.28909
823.086	4520.16862
823.27	4587.61377
823.454	4558.02762
823.638	4711.43164
823.822	4617.78288
824.006	4819.12555
824.19	4671.47395
824.374	4777.99734
824.558	4694.19344
824.742	4861.00857
824.926	4679.93538
825.11	4719.68461
825.294	4704.85106
825.477	4789.05683
825.661	4701.47695
825.845	4693.40418
826.029	4761.81189
826.213	4846.30017
826.396	4634.32205
826.58	4814.37467
826.764	4732.47826
826.948	4844.10495
827.131	4570.99308
827.315	4555.96913
827.499	4545.01147
827.682	4683.54634
827.866	4513.49524
828.05	4621.06137
828.233	4610.12911
828.417	4653.35317
828.6	4473.80873
828.784	4599.68974
828.967	4524.97167
829.151	4770.24808
829.335	4555.28948
829.518	4727.31004
829.701	4500.63348
829.885	4704.86998
830.068	4451.30659
830.252	4559.26239
830.435	4498.76203
830.619	4666.63213
830.802	4527.44501
830.985	4701.90634
831.169	4460.7109
831.352	4682.74076
831.535	4672.77682
831.719	4553.39881
831.902	4521.65626
832.085	4515.54639
832.269	4541.36115
832.452	4540.31105
832.635	4470.85196
832.818	4500.74822
833.002	4327.21095
833.185	4533.43017
833.368	4338.1541
833.551	4557.97828
833.734	4349.42757
833.917	4534.19422
834.1	4424.50763
834.284	4438.08707
834.467	4480.1998
834.65	4552.9567
834.833	4387.2528
835.016	4563.915
835.199	4476.17732
835.382	4518.25869
835.565	4473.66784
835.748	4520.35009
835.931	4540.24579
836.114	4631.42283
836.297	4549.53276
836.479	4634.5866
836.662	4524.58938
836.845	4562.53707
837.028	4580.79107
837.211	4676.98942
837.394	4485.71158
837.577	4649.63381
837.759	4538.2525
837.942	4741.63445
838.125	4653.01334
838.308	4760.3678
838.49	4558.82351
838.673	4571.42564
838.856	4703.38329
839.039	4758.96158
839.221	4698.63706
839.404	4688.31285
839.587	4678.79319
839.769	4761.51021
839.952	4610.41826
840.134	4854.38475
840.317	4682.45449
840.499	4914.56889
840.682	4673.0814
840.865	4753.36824
841.047	4597.93077
841.23	4635.92611
841.412	4673.20888
841.595	4816.26862
841.777	4665.91741
841.959	4814.34485
842.142	4750.01732
842.324	4758.99445
842.507	4636.57799
842.689	4854.74691
842.871	4623.89657
843.054	4753.01626
843.236	4672.8657
843.418	4754.15987
843.601	4699.30941
843.783	4746.3556
843.965	4638.25324
844.147	4804.06052
844.33	4619.64541
844.512	4783.52606
844.694	4632.00216
844.876	4828.30439
845.059	4728.01338
845.241	4757.10197
845.423	4586.438
845.605	4831.61767
845.787	4573.23933
845.969	4687.643
846.151	4549.83566
846.333	4668.04526
846.515	4581.47143
846.697	4608.62616
846.879	4587.40714
847.061	4481.36942
847.243	4449.67328
847.425	4644.48842
847.607	4550.92234
847.789	4569.40753
847.971	4406.96602
848.153	4511.73117
848.335	4377.94799
848.517	4577.46237
848.699	4415.31388
848.881	4381.95713
849.062	4259.05936
849.244	4474.32676
849.426	4298.12168
849.608	4491.64291
849.789	4308.43783
849.971	4359.754
850.153	4189.26898
850.335	4398.7067
850.516	4188.94563
850.698	4248.36579
850.88	4176.89955
851.061	4403.76331
851.243	4231.11413
851.425	4152.38915
851.606	4160.76936
851.788	4143.02354
851.969	4017.80572
852.151	4111.70541
852.333	3878.94721
852.514	4147.94249
852.696	3916.54143
852.877	3965.54647
853.059	3965.1356
853.24	3849.07942
853.422	3926.4393
853.603	3820.24518
853.784	3745.09793
853.966	3914.3366
854.147	3737.41251
854.329	3792.63278
854.51	3742.8174
854.691	3744.61413
854.873	3649.7632
855.054	3675.40257
855.235	3616.94977
855.416	3656.9298
855.598	3558.07663
855.779	3565.28261
855.96	3642.38252
856.141	3781.15281
856.323	3654.05519
856.504	3685.6592
856.685	3498.38059
856.866	3664.06054
857.047	3408.71383
857.228	3590.96476
857.409	3442.89361
857.591	3713.54073
857.772	3471.39307
857.953	3491.30131
858.134	3514.81771
858.315	3595.86828
858.496	3386.88274
858.677	3556.01572
858.858	3406.81199
859.039	3546.13315
859.22	3375.6799
859.401	3678.8146
859.582	3495.02916
859.762	3479.23802
859.943	3349.7706
860.124	3468.09935
860.305	3515.97459
860.486	3600.96628
860.667	3366.44056
860.848	3524.23637
861.028	3568.13869
861.209	3422.33199
861.39	3417.58513
861.571	3498.98909
861.751	3400.04777
861.932	3462.14379
862.113	3363.52079
862.293	3626.16743
862.474	3273.47442
862.655	3413.82442
862.835	3478.7135
863.016	3468.88249
863.197	3370.28702
863.377	3414.94673
863.558	3341.00085
863.738	3412.30228
863.919	3233.87853
864.099	3387.69506
864.28	3183.34707
864.46	3125.06044
864.641	3179.14708
864.821	3255.45031
865.002	3092.843
865.182	3302.89187
865.363	3216.69188
865.543	3235.08826
865.723	3049.58179
865.904	3116.93476
866.084	3075.58035
866.264	3124.57247
866.445	2922.17624
866.625	3079.53966
866.805	2992.53543
866.986	3106.4003
867.166	2928.57954
867.346	2958.72782
867.526	3020.00436
867.707	2990.85884
867.887	2893.66498
868.067	3007.41595
868.247	2833.1069
868.427	3065.27346
868.607	2852.93345
868.788	2939.23235
868.968	2839.99147
869.148	2960.739
869.328	2759.33016
869.508	2908.6757
869.688	2719.56711
869.868	2909.26968
870.048	2654.96305
870.228	2870.66834
870.408	2759.07052
870.588	2792.77125
870.768	2742.70113
870.948	2739.80999
871.128	2666.51799
871.307	2926.62938
871.487	2637.1158
871.667	2787.18425
871.847	2653.82499
872.027	2717.73303
872.207	2617.92218
872.387	2716.41864
872.566	2653.41151
872.746	2710.6656
872.926	2559.11623
873.106	2777.86672
873.285	2674.77699
873.465	2705.22453
873.645	2585.98769
873.824	2773.28249
874.004	2643.16088
874.184	2657.13166
874.363	2557.64729
874.543	2642.04534
874.723	2537.27616
874.902	2578.83631
875.082	2555.36668
875.261	2567.09914
875.441	2469.69543
875.62	2481.00196
875.8	2534.51118
875.979	2534.18996
876.159	2440.6981
876.338	2611.69883
876.518	2458.45579
876.697	2587.60221
876.876	2487.88271
877.056	2589.13775
877.235	2302.8686
877.415	2448.12884
877.594	2481.97576
877.773	2586.3569
877.953	2362.53914
878.132	2299.88175
878.311	2356.23234
878.49	2305.24169
878.67	2312.86433
878.849	2370.77367
879.028	2271.97675
879.207	2393.30597
879.387	2238.06429
879.566	2356.73422
879.745	2239.77005
879.924	2310.17404
880.103	2252.52983
880.282	2386.95732
880.461	2186.04418
880.64	2347.85246
880.819	2255.97586
880.998	2281.92665
881.178	2198.79648
881.357	2258.39576
881.536	2165.93824
881.715	2269.94209
881.893	2207.47692
882.072	2196.42203
882.251	2161.48489
882.43	2211.87847
882.609	2270.17404
882.788	2192.85216
882.967	2100.47256
883.146	2310.73792
883.325	2121.09219
883.503	2239.38629
883.682	2157.98408
883.861	2210.83737
884.04	2125.73989
884.219	2255.85661
884.397	2026.35579
884.576	2116.24324
884.755	2020.57894
884.933	2196.27445
885.112	2123.09778
885.291	2103.62582
885.469	2018.7741
885.648	2067.78741
885.827	2011.60986
886.005	2137.52311
886.184	2025.9805
886.363	2241.74822
886.541	2006.17937
886.72	2063.69803
886.898	1894.40358
887.077	2076.90735
887.255	1971.53759
887.434	2109.26272
887.612	1971.50461
887.791	2102.69393
887.969	2009.97705
888.147	2068.10229
888.326	1942.19316
888.504	2053.23667
888.682	1976.18185
888.861	2091.35681
889.039	1946.83482
889.218	2076.80084
889.396	1994.61235
889.574	2012.79109
889.752	1947.30604
889.931	1961.39675
890.109	1864.13801
890.287	2084.04143
890.465	1921.30661
890.643	2001.44037
890.822	1902.41976
891	2052.68586
891.178	1712.43025
891.356	1924.51842
891.534	1930.08107
891.712	1891.69445
891.89	1732.89977
892.068	1838.88935
892.247	1788.7316
892.425	1776.83989
892.603	1622.77467
892.781	1759.8444
892.959	1652.11171
893.137	1818.3809
893.314	1670.04958
893.492	1742.9115
893.67	1569.46634
893.848	1580.55469
894.026	1525.26604
894.204	1509.69599
894.382	1393.23702
894.56	1635.45668
894.738	1470.52846
894.915	1488.08745
895.093	1450.28492
895.271	1391.4961
895.449	1344.61333
895.626	1356.93339
895.804	1193.92839
895.982	1264.18326
896.16	1269.99063
896.337	1248.82454
896.515	1114.74007
896.693	1186.44836
896.87	1054.07524
897.048	1024.8672
897.225	900.75942
897.403	925.3424
897.581	899.42529
897.758	858.16082
897.936	820.14785
898.113	852.04077
898.291	808.36044
898.468	832.41458
898.646	698.95778
898.823	773.13901
899.001	616.19453
899.178	770.83799
899.356	694.28665
899.533	680.31466
899.71	646.25401
899.888	596.88396
900.065	531.39607
900.242	615.41042
900.42	484.83461
900.597	600.86064
900.774	517.75617
900.952	583.7294
901.129	409.06724
901.306	530.82804
901.483	480.42972
901.661	512.15162
901.838	496.39847
902.015	447.25365
902.192	430.55422
902.369	566.21423
902.546	498.07829
902.723	508.32439
902.901	451.12719
903.078	565.15427
903.255	553.79906
903.432	547.94147
903.609	469.89388
903.786	450.3283
903.963	505.52163
904.14	518.994
904.317	439.0409
904.494	635.4868
904.671	532.45827
904.848	449.18448
905.024	450.07812
905.201	517.5806
905.378	628.77712
905.555	517.10239
905.732	464.17278
905.909	593.47068
906.086	589.72477
906.262	586.27432
906.439	465.65047
906.616	540.45473
906.793	507.36433
906.969	470.2304
907.146	463.86936
907.323	438.4072
907.5	494.81347
907.676	513.19229
907.853	369.16787
908.03	469.92868
908.206	480.0839
908.383	458.52542
908.559	405.61331
908.736	424.30399
908.912	354.33634
909.089	415.09469
909.266	348.47625
909.442	475.69277
909.619	397.1321
909.795	461.72356
909.972	381.77034
910.148	390.07785
910.324	394.00598
910.501	375.30492
910.677	411.7922
910.854	417.00499
911.03	212.47991
911.206	330.15227
911.383	262.14444
911.559	292.70241
911.735	297.21805
911.912	267.76368
912.088	217.48842
912.264	225.8676
912.44	186.55271
912.617	205.00274
912.793	223.40893
912.969	190.39843
913.145	167.54627
913.321	273.42387
913.498	241.78106
913.674	185.63654
913.85	140.79262
914.026	158.30025
914.202	171.86245
914.378	233.03161
914.554	264.70227
914.73	191.04303
914.906	177.59744
915.082	212.2956
915.258	258.57279
915.434	183.73247
915.61	166.28962
915.786	230.85822
915.962	193.7102
916.138	247.26611
916.314	204.64808
916.49	139.757
916.665	150.48673
916.841	166.6689
917.017	181.50788
917.193	192.95221
917.369	217.21068
917.545	169.30663
917.72	194.07152
917.896	143.04637
918.072	136.25743
918.247	150.97828
918.423	233.71352
918.599	197.75664
918.775	258.76555
918.95	167.79768
919.126	91.43278
919.301	214.1128
919.477	153.73192
919.653	159.82921
919.828	179.27067
920.004	214.56681
920.179	177.59744
920.355	114.14732
920.53	203.18171
920.706	231.30953
920.881	188.15683
921.057	184.0548
921.232	232.38369
921.408	116.27754
921.583	194.57661
921.759	185.06312
921.934	181.07676
922.109	239.88156
922.285	168.92978
922.46	204.75015
922.635	199.68819
922.811	197.31696
922.986	222.75769
923.161	259.08394
923.336	262.59322
923.512	180.10059
923.687	201.81472
923.862	176.42673
924.037	134.64218
924.212	227.44448
924.388	263.87042
924.563	195.03363
924.738	231.81786
924.913	213.23855
925.088	248.40952
925.263	165.5768
925.438	233.03161
925.613	130.83177
925.788	193.85465
925.963	213.56401
926.138	156.60449
926.313	214.76726
926.488	197.1615
926.663	200.59573
926.838	153.38207
927.013	191.53175
927.188	180.29218
927.363	172.53619
927.538	175.05556
927.713	156.93328
927.888	143.83387
928.062	152.89544
928.237	114.23582
928.412	152.25621
928.587	59.15244
928.761	42.50095
928.936	124.34727
929.111	72.56574
929.286	83.78364
929.46	155.833
929.635	79.69146
929.81	125.53424
929.984	41.82596
930.159	45.96788
930.334	61.1436
930.508	130.03549
930.683	61.3447
930.857	58.48507
931.032	46.47213
931.206	36.45239
931.381	8.37334
931.556	94.59605
931.73	3.97145
931.904	52.85979
932.079	13.73816
932.253	20.81739
932.428	93.89733
932.602	60.67981
932.777	63.16917
932.951	88.52053
933.125	-2.87157
933.3	59.4589
933.474	16.4248
933.648	9.34593
933.823	47.69248
933.997	29.38189
934.171	76.98496
934.345	-13.62446
934.52	29.87332
934.694	57.01693
934.868	-14.60665
935.042	101.59243
935.217	24.77381
935.391	68.55107
935.565	-12.89309
935.739	51.11943
935.913	26.92612
936.087	-24.86971
936.261	6.42
936.435	5.19464
936.609	4.70766
936.783	-27.586
936.957	53.82043
937.131	21.79271
937.305	-37.55568
937.479	80.95167
937.653	38.16475
937.827	11.05708
938.001	-37.56509
938.175	-25.33084
938.349	48.23386
938.523	-4.09669
938.697	41.14952
938.87	24.98189
939.044	0.79402
939.218	6.17514
939.392	4.94871
939.566	45.79046
939.739	16.69495
939.913	0.79421
940.087	11.31619
940.261	31.37977
940.434	12.52667
940.608	51.35323
940.782	8.61821
940.955	2.99633
941.129	-4.0895
941.302	66.51943
941.476	41.87849
941.65	31.83194
941.823	36.98136
941.997	39.63127
942.17	15.21921
942.344	66.53612
942.517	-29.00218
942.691	10.80952
942.864	46.24891
943.038	61.6689
943.211	88.52053
943.385	6.17204
943.558	-30.02634
943.731	-22.89407
943.905	17.6412
944.078	-2.38421
944.251	45.52091
944.425	13.25844
944.598	27.16481
944.771	17.90412
944.945	7.39221
945.118	21.59088
945.291	97.35677
945.464	40.89275
945.638	55.80991
945.811	-44.66941
945.984	-5.79959
946.157	-29.9886
946.33	94.2171
946.503	15.21921
946.677	28.89055
946.85	44.55747
947.023	0.06115
947.196	-6.2937
947.369	18.63529
947.542	38.70541
947.715	29.1071
947.888	-13.86126
948.061	7.38114
948.234	-7.27185
948.407	12.03974
948.58	46.54229
948.753	1.52793
948.926	80.53652
949.099	10.55684
949.271	-54.24108
949.444	-26.82192
949.617	63.86356
949.79	62.19494
949.963	37.21822
950.136	-73.50044
950.308	112.33081
950.481	48.70291
950.654	-27.54439
950.827	63.87963
950.999	101.69549
951.172	26.00324
951.345	3.47799
951.517	-41.475
951.69	49.1963
951.863	-15.34177
952.035	48.24602
952.208	11.79473
952.381	-8.98449
952.553	29.12891
952.726	19.61649
952.898	8.85866
953.071	-9.47496
953.243	-33.90658
953.416	87.81941
953.588	-25.35621
953.761	80.22758
953.933	-13.88218
954.106	37.22758
954.278	-34.11523
954.45	9.10803
954.623	-21.47254
954.795	14.46923
954.967	-4.58427
955.14	48.2096
955.312	17.42682
955.484	1.28276
955.657	8.85866
955.829	1.52793
956.001	30.63375
956.173	56.53704
956.346	30.63375
956.518	51.65167
956.69	83.51824
956.862	18.64936
957.034	-10.68702
957.207	-9.96056
957.379	30.87976
957.551	9.84293
957.723	-21.19145
957.895	26.93961
958.067	11.30763
958.239	48.97425
958.411	10.80952
958.583	27.22635
958.755	-10.20196
958.927	3.48147
959.099	-24.61407
959.271	-18.50906
959.443	87.05216
959.615	23.26998
959.787	-7.51217
959.959	-22.66225
960.13	71.48997
960.302	54.82174
960.474	30.85645
960.646	-22.68506
960.818	31.80803
960.99	-23.85462
961.161	29.12163
961.333	39.17845
961.505	46.02554
961.677	2.99182
961.848	66.80038
962.02	-4.58427
962.192	88.79127
962.363	-5.31702
962.535	33.78255
962.707	15.21921
962.878	-41.76992
963.05	-13.86473
963.221	59.70608
963.393	15.69779
963.564	-2.87085
963.736	27.43084
963.907	29.16553
964.079	6.90111
964.25	22.52271
964.422	1.77337
964.593	30.38011
964.765	55.06874
964.936	41.85742
965.108	52.32673
965.279	16.20014
965.45	33.79104
965.622	10.82584
965.793	-3.36088
965.964	72.17926
966.136	67.8421
966.307	85.71334
966.478	-0.67201
966.65	97.83012
966.821	57.46784
966.992	-5.07024
967.163	71.45394
967.334	63.32117
967.506	33.78255
967.677	51.91166
967.848	28.8761
968.019	44.54627
968.19	39.42476
968.361	11.29347
968.532	37.68222
968.703	7.8797
968.874	-7.99603
969.045	-30.22396
969.216	7.88962
969.387	23.77869
969.558	35.26731
969.729	32.57781
969.9	32.83208
970.071	27.45847
970.242	-0.67201
970.413	-41.99142
970.584	15.94685
970.755	56.79845
970.926	27.43084
971.097	36.47981
971.267	36.0513
971.438	64.62214
971.609	77.53874
971.78	-5.56543
971.951	62.59547
972.121	11.05431
972.292	-47.60017
972.463	-14.59931
972.633	34.28303
972.804	27.19888
972.975	18.15852
973.145	40.64638
973.316	64.62214
973.487	-58.59527
973.657	53.10668
973.828	34.94254
973.998	20.83303
974.169	55.30187
974.339	63.15324
974.51	25.97047
974.68	26.46842
974.851	38.94198
975.021	17.42243
975.192	82.85414
975.362	-10.68969
975.533	46.97675
975.703	44.2998
975.874	55.28798
976.044	4.94747
976.214	67.8421
976.385	-52.00883
976.555	22.53961
976.725	68.97718
976.896	33.54507
977.066	-11.92061
977.236	60.20053
977.406	-22.42457
977.577	-14.60665
977.747	-18.76669
977.917	14.72888
978.087	-11.42113
978.257	24.74885
978.427	15.71359
978.598	42.35017
978.768	11.05708
978.938	33.31588
979.108	1.52678
979.278	8.8498
979.448	12.2786
979.618	57.24963
979.788	-11.19707
979.958	53.06673
980.128	54.7531
980.298	73.43705
980.468	49.44304
980.638	-16.80407
980.808	-57.88462
980.978	64.32608
981.148	49.24596
981.317	54.60225
981.487	-4.33454
981.657	30.58763
981.827	77.55823
981.997	68.76419
982.167	-20.46655
982.336	-4.5889
982.506	-85.75954
982.676	8.61172
982.846	-12.64925
983.015	11.78586
983.185	15.45276
983.355	90.21487
983.524	-44.40474
983.694	37.20887
983.864	-9.95307
984.033	98.20286
984.203	29.88082
984.372	10.82038
984.542	52.37926
984.712	64.09486
984.881	95.18895
985.051	51.61277
985.22	54.79421
985.39	25.24639
985.559	26.71417
985.728	52.30061
985.898	47.48174
986.067	40.65662
986.237	32.06173
986.406	47.46982
986.576	-65.40355
986.745	12.29096
986.914	-8.00605
987.084	35.00362
987.253	-39.73767
987.422	26.46176
987.591	31.82396
987.761	-35.90251
987.93	22.54527
988.099	36.45239
988.268	31.59403
988.438	4.20973
988.607	53.87463
988.776	82.95818
988.945	20.83827
989.114	84.69733
989.283	52.59972
989.452	5.67979
989.621	19.37116
989.791	38.42039
989.96	61.17431
990.129	-2.38301
990.298	8.62256
990.467	-21.20741
990.636	17.17279
990.805	9.60036
990.974	-5.31702
991.142	42.54326
991.311	-56.68952
991.48	-5.5515
991.649	-19.47312
991.818	23.29926
991.987	32.79088
992.156	43.34686
992.325	6.90283
992.493	20.12244
992.662	-222.46446
992.831	-7.99603
993	-34.11523
993.168	-1.89436
993.337	-22.39654
993.506	-6.78361
993.675	45.53236
993.843	47.71639
994.012	52.1455
994.181	10.80681
994.349	88.36098
994.518	65.06812
994.686	-10.44584
994.855	-0.67235
995.024	10.57803
995.192	-15.33791
995.361	31.86402
995.529	-20.22311
995.698	57.72924
995.866	47.49369
996.035	57.97627
996.203	11.30479
996.371	21.30773
996.54	100.07147
996.708	50.67705
996.877	-0.9168
997.045	28.91961
997.213	47.71639
997.382	-15.33022
997.55	2.75022
997.718	3.72502
997.887	35.75059
998.055	28.8978
998.223	59.22662
998.391	-43.18224
998.56	43.80694
998.728	9.33426
998.896	58.49979
999.064	24.50945
999.232	2.01503
999.401	-73.92687
999.569	11.05708
999.737	52.13238
999.905	-9.46782
1000.073	7.1529
1000.241	8.37756
1000.409	-9.47734
1000.577	11.06542
1000.745	-54.37397
1000.913	-4.57967
1001.081	23.49188
1001.249	13.02656
1001.417	-32.69224
1001.585	23.03039
1001.753	-18.26098
1001.921	2.99107
1002.089	32.33183
1002.256	34.75766
1002.424	-6.78191
1002.592	54.08086
1002.76	-27.0855
1002.928	16.19606
1003.096	29.39665
1003.263	40.4102
1003.431	82.70982
1003.599	79.54337
1003.767	43.79595
1003.934	45.53236
1004.102	-15.58947
1004.27	10.07528
1004.437	-14.59931
1004.605	56.75561
1004.773	-1.89247
1004.94	51.63868
1005.108	25.03233
1005.275	18.63529
1005.443	48.92503
1005.61	45.00539
1005.778	82.02695
1005.945	8.13053
1006.113	-2.87302
1006.28	9.84541
1006.448	-2.87085
1006.615	23.77271
1006.783	46.75372
1006.95	-37.76992
1007.118	-5.31702
1007.285	71.93147
1007.452	-3.60334
1007.62	25.48567
1007.787	20.84351
1007.954	3.48497
1008.122	25.47926
1008.289	13.50345
1008.456	9.59794
1008.623	36.47981
1008.791	33.56195
1008.958	-8.25637
1009.125	0.06113
1009.292	62.13235
1009.459	-50.26333
1009.627	56.33255
1009.794	-19.73615
1009.961	-21.69434
1010.128	20.58255
1010.295	-1.40563
1010.462	52.1062
1010.629	11.79473
1010.796	65.82692
1010.963	78.20435
1011.13	13.25179
1011.297	-22.18676
1011.464	51.4048
1011.631	21.10495
1011.798	36.9535
1011.965	12.28168
1012.132	-38.04072
1012.299	-27.038
1012.466	-56.57584
1012.633	61.69998
1012.799	28.43503
1012.966	41.35439
1013.133	37.97597
1013.3	1.2847
1013.467	-1.64959
1013.633	25.48567
1013.8	-7.52162
1013.967	71.52614
1014.134	5.68407
1014.3	22.56799
1014.467	-2.13978
1014.634	20.562
1014.8	47.00035
1014.967	43.31417
1015.134	2.01807
1015.3	40.11344
1015.467	10.32518
1015.633	27.91515
1015.8	-24.35869
1015.966	53.84748
1016.133	28.16784
1016.3	-29.00218
1016.466	12.53613
1016.632	68.7124
1016.799	21.08367
1016.965	5.19203
1017.132	-22.20917
1017.298	-39.05949
1017.465	23.80876
1017.631	-76.55535
1017.797	14.48739
1017.964	17.91313
1018.13	26.70073
1018.296	9.34593
1018.463	1.28276
1018.629	-10.20709
1018.795	50.65157
1018.961	-34.37494
1019.128	80.20745
1019.294	-14.10486
1019.46	25.00072
1019.626	-6.29055
1019.792	25.7378
1019.959	42.83225
1020.125	-8.00605
1020.291	52.36609
1020.457	5.68693
1020.623	95.31815
1020.789	48.19751
1020.955	25.7184
1021.121	1.77204
1021.287	-69.1066
1021.453	-11.17734
1021.619	71.73791
1021.785	4.46178
1021.951	36.7167
1022.117	6.90457
1022.283	27.88726
1022.449	27.19888
1022.615	79.79162
1022.781	13.25511
1022.946	-60.73935
1023.112	14.73259
1023.278	-19.97463
1023.444	48.98661
1023.61	48.23386
1023.775	-4.0936
1023.941	19.63132
1024.107	43.82897
1024.273	21.81455
1024.438	18.39466
1024.604	-2.13763
1024.77	-64.87232
1024.935	57.7728
1025.101	3.73253
1025.267	-49.77932
1025.432	-16.5521
1025.598	-19.2491
1025.763	-19.47798
1025.929	24.50945
1026.095	-8.98902
1026.26	39.1686
1026.426	-6.30005
1026.591	66.53612
1026.757	-56.61828
1026.922	36.27025
1027.087	26.70073
1027.253	35.00362
1027.418	32.81555
1027.584	10.08286
1027.749	26.20295
1027.914	57.23526
1028.08	57.23526
1028.245	-9.23319
1028.41	11.30479
1028.576	19.13065
1028.741	13.49668
1028.906	52.1455
1029.072	-2.38481
1029.237	3.48321
1029.402	-3.84553
1029.567	-15.56991
1029.732	71.18825
1029.898	34.53776
1030.063	52.89976
1030.228	12.04885
1030.393	-26.55215
1030.558	-20.23838
1030.723	-29.9811
1030.888	-0.67218
1031.053	43.54962
1031.218	8.85422
1031.383	18.39929
1031.548	-85.1502
1031.713	16.19606
1031.878	15.46052
1032.043	41.87849
1032.208	-28.0234
1032.373	15.96292
1032.538	-30.71729
1032.703	30.11151
1032.868	-37.07056
1033.033	70.97626
1033.198	42.61804
1033.362	2.26165
1033.527	22.32232
1033.692	29.39665
1033.857	-17.54373
1034.021	-38.54497
1034.186	36.9535
1034.351	-1.65125
1034.516	1.77204
1034.68	37.19953
1034.845	8.13669
1035.01	19.35175
1035.174	25.01965
1035.339	9.34593
1035.504	71.20616
1035.668	-49.76686
1035.833	6.41516
1035.997	52.93994
1036.162	75.87973
1036.326	15.95487
1036.491	13.76236
1036.655	4.70885
1036.82	41.60064
1036.984	-33.18638
1037.149	35.96961
1037.313	-52.72169
1037.478	-42.21275
1037.642	-18.51836
1037.807	19.61649
1037.971	17.90862
1038.135	17.66777
1038.3	11.30763
1038.464	5.67979
1038.628	30.38011
1038.792	-67.81518
1038.957	-30.43644
1039.121	1.03864
1039.285	20.83303
1039.449	14.98158
1039.614	53.13343
1039.778	14.48739
1039.942	15.94685
1040.106	-6.78703
1040.27	-32.20635
1040.434	-4.57967
1040.599	-44.92307
1040.763	14.96276
1040.927	8.36285
1041.091	28.91233
1041.255	23.03039
1041.419	18.14938
1041.583	4.70766
1041.747	-76.98842
1041.911	-25.83615
1042.075	-35.85735
1042.239	39.14896
1042.403	-12.15846
1042.567	-46.15805
1042.731	-15.33791
1042.894	20.60325
1043.058	-7.02422
1043.222	51.41775
1043.386	-9.47257
1043.55	10.32518
1043.714	54.34146
1043.877	82.2339
1044.041	-11.42973
1044.205	-18.51836
1044.369	49.71484
1044.532	-13.63475
1044.696	11.55557
1044.86	-16.08518
1045.023	-96.61085
1045.187	-65.11345
1045.351	-19.01033
1045.514	33.81657
1045.678	-40.95935
1045.841	6.17359
