Data from 4_51 _Subt2__2__16-53-38-520.txt Node

Date: Tue Oct 07 16:53:38 EDT 2025
User: brett
Spectrometer: USB4F03499
Trigger mode: 4
Integration Time (sec): 2.950000E-3
Scans to average: 1
Electric dark correction enabled: true
Nonlinearity correction enabled: true
Boxcar width: 5
XAxis mode: Wavelengths
Number of Pixels in Spectrum: 3648
>>>>>Begin Spectral Data<<<<<
345.386	-39.36139
345.605	-22.37144
345.824	-27.04601
346.044	-43.9807
346.263	-54.34384
346.482	-31.50852
346.701	-108.73046
346.92	20.30791
347.139	-49.93597
347.358	-31.71196
347.577	34.77002
347.796	83.97297
348.015	-12.82428
348.234	-12.37879
348.453	-31.70823
348.672	-28.3761
348.891	30.30208
349.11	57.2373
349.329	-11.27547
349.548	27.63702
349.767	-10.6087
349.986	-14.62302
350.205	-39.04773
350.424	-10.83271
350.643	-23.03668
350.862	-16.62063
351.08	-39.27231
351.299	-40.60906
351.518	-30.83761
351.737	-84.29987
351.956	-66.57836
352.174	-43.05453
352.393	-72.34243
352.612	-80.54638
352.831	-89.21771
353.049	-120.23645
353.268	-73.4765
353.487	-85.8984
353.705	-32.18226
353.924	-141.71852
354.143	-50.83631
354.361	-76.78369
354.58	16.74269
354.798	-4.83339
355.017	-51.05091
355.236	16.07897
355.454	-57.26306
355.673	60.61019
355.891	-16.59353
356.11	11.41834
356.328	-67.21091
356.547	-45.90944
356.765	-33.02941
356.984	-24.14696
357.202	0.07712
357.42	21.64278
357.639	56.81243
357.857	0.96088
358.076	-91.1524
358.294	-56.98726
358.512	-85.57865
358.731	45.89212
358.949	-58.97254
359.167	-9.92168
359.386	44.091
359.604	-35.011
359.822	-33.68608
360.04	29.19295
360.259	26.52427
360.477	59.68073
360.695	1.85141
360.913	50.32991
361.131	-75.58837
361.35	-52.97973
361.568	22.97039
361.786	-17.69417
362.004	-38.11473
362.222	12.29607
362.44	75.93641
362.658	6.52578
362.876	-3.02483
363.094	-5.92443
363.312	-15.92115
363.53	-31.90573
363.749	-34.56619
363.967	14.51332
364.184	-19.91859
364.402	59.24546
364.62	-44.56119
364.838	-18.59364
365.056	-5.48884
365.274	22.06971
365.492	11.40546
365.71	55.23458
365.928	9.85551
366.146	-1.03439
366.364	-23.69828
366.581	-18.37138
366.799	-28.36248
367.017	-20.81394
367.235	-34.35942
367.453	16.08463
367.67	-16.38493
367.888	26.71938
368.106	-74.70226
368.323	-20.16405
368.541	-58.32001
368.759	98.61037
368.977	29.59997
369.194	-48.53919
369.412	46.94337
369.629	35.60003
369.847	-16.37293
370.065	9.61889
370.282	-70.25319
370.5	69.44972
370.717	29.83705
370.935	39.8435
371.152	-64.05793
371.37	-8.60265
371.588	-38.56998
371.805	118.28015
372.022	-42.17832
372.24	-5.97238
372.457	8.47874
372.675	-53.51841
372.892	-63.50809
373.11	12.73511
373.327	-42.6323
373.544	-41.74216
373.762	-21.96702
373.979	10.06163
374.196	-67.03025
374.414	-0.82016
374.631	-13.48946
374.848	-19.0283
375.066	-28.79666
375.283	-31.69493
375.5	-32.58447
375.717	-14.81948
375.935	-80.04412
376.152	-10.81395
376.369	10.07291
376.586	-33.028
376.803	-39.69241
377.02	-46.35212
377.238	-46.35122
377.455	53.45225
377.672	19.18274
377.889	40.97318
378.106	-111.67757
378.323	-29.24332
378.54	-31.03567
378.757	-46.57331
378.974	-25.92169
379.191	-64.94239
379.408	-31.90692
379.625	-68.50954
379.842	-18.14771
380.059	8.96198
380.276	-74.96927
380.493	-61.44316
380.71	-83.38561
380.927	-25.46276
381.143	-73.16684
381.36	-0.1372
381.577	-49.22722
381.794	26.10935
382.011	-44.12771
382.228	-12.81018
382.444	-67.00003
382.661	-5.47527
382.878	-24.58893
383.095	6.74609
383.311	-50.35478
383.528	-25.92915
383.745	-39.91641
383.962	83.0795
384.178	19.62685
384.395	-111.97079
384.612	-9.71719
384.828	-46.77966
385.045	-7.93864
385.261	39.63166
385.478	12.06468
385.695	0.73085
385.911	-61.6417
386.128	-36.5659
386.344	-24.3594
386.561	89.52604
386.777	-39.42503
386.994	56.11838
387.21	-8.8072
387.427	-30.56313
387.643	-51.19843
387.86	44.33669
388.076	93.0975
388.292	68.81831
388.509	-44.98822
388.725	-10.14345
388.942	-53.42733
389.158	-27.46457
389.374	-77.78972
389.591	13.40517
389.807	29.6266
390.023	4.51451
390.239	-15.91213
390.456	36.06168
390.672	-46.74046
390.888	57.42295
391.104	17.84434
391.321	86.1249
391.537	41.84029
391.753	17.83935
391.969	3.6197
392.185	78.97786
392.401	-6.37279
392.618	81.64101
392.834	24.27546
393.05	61.63328
393.266	50.50398
393.482	23.82767
393.698	-50.06011
393.914	19.82969
394.13	-66.50998
394.346	-61.17276
394.562	-15.48017
394.778	66.30293
394.994	0.7294
395.21	-61.16225
395.426	24.27289
395.642	18.49366
395.858	43.82843
396.073	-6.60118
396.289	-62.69193
396.505	2.74341
396.721	28.0582
396.937	19.61538
397.153	6.73667
397.369	14.51541
397.584	-23.01181
397.8	-6.80627
398.016	-61.16844
398.232	-15.68881
398.447	-28.34102
398.663	62.56687
398.879	17.85543
399.094	-23.90768
399.31	4.0764
399.526	-41.43604
399.741	-25.68245
399.957	17.17759
400.173	-33.00544
400.388	-2.60437
400.604	-9.26773
400.82	72.09002
401.035	68.28994
401.251	70.50054
401.466	80.06638
401.682	24.03659
401.897	59.58242
402.113	62.03509
402.328	46.24976
402.544	61.37414
402.759	64.7331
402.974	38.04539
403.19	14.94245
403.405	-65.55551
403.621	77.86689
403.836	42.27745
404.051	-5.91795
404.267	12.28737
404.482	54.29417
404.697	4.73803
404.913	7.40321
405.128	-24.54851
405.343	90.10699
405.559	27.1673
405.774	-28.31407
405.989	42.71839
406.204	-46.26936
406.42	2.96148
406.635	32.27572
406.85	90.07901
407.065	-19.87944
407.28	32.26693
407.495	14.50628
407.71	3.183
407.926	46.45303
408.141	31.13875
408.356	-21.19737
408.571	21.59377
408.786	79.95587
409.001	77.29261
409.216	-32.27747
409.431	134.89577
409.646	7.15724
409.861	16.91175
410.076	109.98223
410.291	70.63225
410.506	98.82655
410.721	81.26989
410.936	58.80302
411.15	56.60662
411.365	100.3503
411.58	148.15729
411.795	79.90851
412.01	135.88545
412.225	68.34885
412.439	49.71333
412.654	76.11738
412.869	136.31542
413.084	110.29012
413.299	110.09482
413.513	128.51626
413.728	126.03341
413.943	181.83216
414.157	176.40285
414.372	111.96936
414.587	127.70326
414.801	182.52223
415.016	194.71315
415.231	120.97177
415.445	169.08858
415.66	162.17685
415.874	140.85082
416.089	139.92697
416.304	177.82946
416.518	145.88349
416.733	176.85893
416.947	217.69532
417.162	221.05764
417.376	179.9193
417.59	296.58597
417.805	240.97127
418.019	182.32519
418.234	214.93432
418.448	218.97219
418.663	271.65618
418.877	193.85357
419.091	262.97386
419.306	210.27098
419.52	189.79394
419.734	293.80189
419.949	221.07235
420.163	220.54889
420.377	231.14221
420.591	296.32272
420.806	336.51819
421.02	336.4906
421.234	248.86129
421.448	323.05255
421.663	303.38438
421.877	174.80416
422.091	291.55218
422.305	338.83059
422.519	312.5924
422.733	330.36592
422.947	241.58156
423.161	267.03129
423.376	264.96338
423.59	289.07229
423.804	319.88937
424.018	374.00993
424.232	325.21888
424.446	331.67055
424.66	374.96844
424.874	328.89536
425.088	331.25909
425.302	445.75441
425.515	375.92979
425.729	328.36358
425.943	284.61044
426.157	363.18389
426.371	427.87591
426.585	396.63284
426.799	367.31582
427.013	442.06186
427.226	366.54647
427.44	428.60956
427.654	418.01971
427.868	407.81137
428.081	478.68393
428.295	427.54031
428.509	426.26087
428.723	449.83345
428.936	376.44214
429.15	426.73796
429.364	434.57204
429.577	395.38405
429.791	331.58883
430.005	447.58181
430.218	373.54271
430.432	356.50295
430.645	415.10268
430.859	420.92823
431.073	431.3954
431.286	383.74584
431.5	438.99548
431.713	415.36028
431.927	435.54299
432.14	445.13613
432.354	410.53889
432.567	479.95005
432.781	449.7135
432.994	481.89109
433.207	346.55474
433.421	484.48948
433.634	469.9259
433.848	491.06171
434.061	451.173
434.274	455.46168
434.488	442.38022
434.701	427.08296
434.914	509.23276
435.127	535.45193
435.341	467.19025
435.554	450.6642
435.767	527.04313
435.98	562.8325
436.194	482.91155
436.407	538.60072
436.62	590.0268
436.833	640.03768
437.046	716.07476
437.259	565.85096
437.473	620.49795
437.686	609.42823
437.899	631.4149
438.112	640.3753
438.325	635.45854
438.538	682.39209
438.751	689.22618
438.964	661.61307
439.177	702.87809
439.39	777.31038
439.603	810.07065
439.816	807.69678
440.029	821.74248
440.242	888.92265
440.455	993.78142
440.668	945.6434
440.881	884.20505
441.094	948.10301
441.306	981.77524
441.519	1005.84955
441.732	1050.45227
441.945	1139.93171
442.158	1146.32864
442.37	1085.82588
442.583	1135.03307
442.796	1092.39077
443.009	1254.75929
443.222	1215.63725
443.434	1302.96883
443.647	1336.36161
443.86	1308.96364
444.072	1364.32926
444.285	1302.99146
444.498	1400.02362
444.71	1351.29409
444.923	1325.70752
445.136	1365.16417
445.348	1326.41271
445.561	1427.12983
445.773	1422.45443
445.986	1345.95724
446.198	1429.00568
446.411	1477.4626
446.623	1481.84195
446.836	1555.83688
447.048	1564.87127
447.261	1725.75016
447.473	1741.97695
447.686	1652.60974
447.898	1694.07349
448.11	1764.89454
448.323	1723.44555
448.535	1670.96594
448.748	1729.83706
448.96	1741.77113
449.172	1835.72423
449.385	1750.64744
449.597	1825.46621
449.809	1749.48296
450.021	1822.06162
450.234	1814.15892
450.446	1818.53479
450.658	1838.64939
450.87	1836.15283
451.083	1885.71855
451.295	1948.91176
451.507	1925.69485
451.719	1903.02469
451.931	2000.25312
452.143	2026.37482
452.356	2028.49892
452.568	1961.05322
452.78	2012.71195
452.992	2019.62426
453.204	1944.7727
453.416	2075.44301
453.628	2137.05478
453.84	2187.29345
454.052	2148.18026
454.264	2162.6494
454.476	2108.95241
454.688	2182.97373
454.9	2222.19421
455.112	2197.90439
455.324	2337.5284
455.536	2307.50086
455.747	2265.83272
455.959	2260.93358
456.171	2247.60022
456.383	2246.21742
456.595	2307.39909
456.807	2323.16057
457.018	2391.21619
457.23	2243.60947
457.442	2239.733
457.654	2233.55132
457.865	2321.54914
458.077	2401.06554
458.289	2390.57017
458.501	2406.15061
458.712	2441.58043
458.924	2430.04469
459.136	2422.47536
459.347	2450.28635
459.559	2520.14093
459.77	2511.4236
459.982	2592.49107
460.194	2437.22845
460.405	2584.64204
460.617	2622.41725
460.828	2596.37643
461.04	2687.12917
461.251	2717.60468
461.463	2531.84647
461.674	2753.00645
461.886	2753.96452
462.097	2730.34915
462.309	2683.06261
462.52	2726.50829
462.731	2734.39204
462.943	2732.62817
463.154	2824.45389
463.366	2822.04044
463.577	2839.30473
463.788	3025.70548
464	2914.27915
464.211	3005.44413
464.422	3032.64436
464.634	3162.34102
464.845	3109.20366
465.056	3199.48806
465.267	3185.29169
465.478	3244.29851
465.69	3290.48655
465.901	3280.14362
466.112	3401.79175
466.323	3371.8979
466.534	3332.82577
466.745	3422.38007
466.957	3408.7721
467.168	3472.00522
467.379	3450.83949
467.59	3529.43842
467.801	3578.88895
468.012	3568.17316
468.223	3568.39729
468.434	3615.99626
468.645	3612.11009
468.856	3621.14037
469.067	3659.0113
469.278	3687.24086
469.489	3692.94327
469.7	3900.79098
469.911	3859.04212
470.122	3862.89102
470.333	3999.43343
470.543	3938.70742
470.754	3966.52821
470.965	4064.12348
471.176	4129.04676
471.387	4084.24929
471.598	4172.48164
471.808	4152.9421
472.019	4159.65968
472.23	4269.5864
472.441	4311.19259
472.651	4231.64835
472.862	4316.20311
473.073	4336.58779
473.283	4291.8
473.494	4440.52343
473.705	4441.95033
473.915	4640.45656
474.126	4567.69824
474.337	4635.87291
474.547	4654.4415
474.758	4680.11687
474.968	4889.33609
475.179	4892.61828
475.389	4894.7519
475.6	5029.62828
475.81	4969.75232
476.021	5083.56414
476.231	5076.27823
476.442	5134.74391
476.652	5274.41671
476.863	5305.78299
477.073	5336.24368
477.284	5356.33064
477.494	5494.75102
477.704	5435.62889
477.915	5580.25453
478.125	5712.0601
478.335	5716.82776
478.546	5788.2335
478.756	5922.46975
478.966	5953.31033
479.177	5989.86415
479.387	6122.51914
479.597	6261.10576
479.807	6210.42622
480.018	6257.91262
480.228	6294.36738
480.438	6359.61262
480.648	6500.38047
480.858	6626.24122
481.068	6687.87593
481.279	6852.31953
481.489	6962.93089
481.699	6906.48852
481.909	7014.97822
482.119	7095.869
482.329	7290.79795
482.539	7381.12733
482.749	7434.85577
482.959	7528.40001
483.169	7544.87553
483.379	7608.07684
483.589	7704.35977
483.799	7673.06525
484.009	7917.11588
484.219	7927.80224
484.429	8070.1837
484.639	8021.13444
484.849	8067.31308
485.059	8171.07418
485.268	8262.68731
485.478	8306.79237
485.688	8329.53843
485.898	8505.62352
486.108	8550.50044
486.317	8635.78626
486.527	8661.08817
486.737	8737.67552
486.947	8759.61744
487.156	8865.96637
487.366	8842.17488
487.576	8927.59844
487.785	8963.68973
487.995	8921.64741
488.205	8980.80515
488.414	8966.2346
488.624	9103.72515
488.834	9033.90326
489.043	9201.63572
489.253	9132.93218
489.462	9215.829
489.672	9193.55003
489.882	9357.88775
490.091	9416.2587
490.301	9361.79468
490.51	9521.59194
490.72	9565.16629
490.929	9537.11911
491.138	9613.33783
491.348	9621.55028
491.557	9701.0929
491.767	9730.89019
491.976	9797.32234
492.185	9734.55979
492.395	9930.96969
492.604	9815.05009
492.813	9878.84323
493.023	10054.06132
493.232	10063.35165
493.441	9994.87174
493.651	10138.05359
493.86	10171.95844
494.069	10268.42253
494.278	10202.51021
494.488	10327.6571
494.697	10328.12934
494.906	10423.54382
495.115	10509.59393
495.324	10466.43135
495.533	10637.11304
495.743	10679.70265
495.952	10726.76986
496.161	10897.79243
496.37	10867.89221
496.579	10980.50094
496.788	11130.32542
496.997	11107.07714
497.206	11228.2858
497.415	11182.77314
497.624	11333.96337
497.833	11349.77133
498.042	11401.18379
498.251	11406.73166
498.46	11493.65017
498.669	11609.84659
498.878	11541.91456
499.087	11576.78856
499.296	11588.23632
499.504	11769.19543
499.713	11652.68498
499.922	11740.98466
500.131	11808.6246
500.34	11846.88627
500.549	11871.50346
500.757	11867.21912
500.966	11908.62999
501.175	11975.25427
501.384	11991.18067
501.592	12026.06557
501.801	12030.36262
502.01	12150.76185
502.218	12163.52276
502.427	12180.86974
502.636	12069.53737
502.844	12098.4503
503.053	12046.68369
503.262	12208.34263
503.47	12169.34118
503.679	12071.72819
503.887	12148.41331
504.096	12129.32956
504.304	12161.21694
504.513	12266.49342
504.721	12153.18588
504.93	12091.41747
505.138	12183.57582
505.347	12192.36038
505.555	12128.64685
505.764	12176.34406
505.972	12137.84544
506.18	12075.67902
506.389	12178.48449
506.597	12184.74044
506.806	12184.34709
507.014	12207.71874
507.222	12319.56167
507.431	12275.61766
507.639	12258.5216
507.847	12305.43638
508.055	12380.2101
508.264	12394.36263
508.472	12298.86687
508.68	12390.35788
508.888	12320.5998
509.096	12426.92209
509.305	12378.32609
509.513	12400.32036
509.721	12387.61512
509.929	12489.30028
510.137	12503.68187
510.345	12529.06291
510.553	12473.62517
510.762	12535.01125
510.97	12502.80369
511.178	12635.40404
511.386	12576.34055
511.594	12689.25918
511.802	12680.22284
512.01	12759.17091
512.218	12748.72001
512.426	12830.81522
512.634	12833.94502
512.842	12831.96275
513.049	12870.61846
513.257	12915.70893
513.465	12967.89795
513.673	13002.72338
513.881	13012.603
514.089	13059.96242
514.297	13022.66041
514.504	13128.32352
514.712	13148.89141
514.92	13200.09531
515.128	13313.54671
515.336	13229.92067
515.543	13296.40232
515.751	13281.27701
515.959	13218.50904
516.166	13285.88606
516.374	13295.90566
516.582	13338.65243
516.789	13388.64685
516.997	13436.36606
517.205	13291.66177
517.412	13363.10555
517.62	13296.05531
517.827	13282.04623
518.035	13239.93866
518.243	13253.67553
518.45	13219.76049
518.658	13295.12734
518.865	13209.35024
519.073	13239.98093
519.28	13171.68812
519.488	13162.98424
519.695	13169.34514
519.902	13071.86423
520.11	13067.67531
520.317	13016.69915
520.525	13047.02123
520.732	13064.90303
520.939	12962.34694
521.147	13037.62534
521.354	12958.22148
521.561	13031.06207
521.769	12930.355
521.976	12922.63013
522.183	12867.70752
522.391	12986.48842
522.598	13002.42992
522.805	13007.43158
523.012	12946.7732
523.219	13096.80409
523.427	13113.73992
523.634	13266.02341
523.841	13212.00102
524.048	13246.47194
524.255	13265.53093
524.462	13309.44812
524.669	13324.20776
524.877	13358.73752
525.084	13421.11452
525.291	13330.15926
525.498	13411.43211
525.705	13397.06998
525.912	13530.21825
526.119	13494.66544
526.326	13448.75626
526.533	13538.92317
526.74	13618.95787
526.947	13663.28237
527.153	13665.83091
527.36	13718.19199
527.567	13702.3178
527.774	13752.57386
527.981	13830.99847
528.188	13792.35842
528.395	13846.68602
528.602	13840.18658
528.808	13902.55896
529.015	13884.82844
529.222	13860.56958
529.429	13938.80327
529.635	13916.57269
529.842	13977.14763
530.049	13989.77425
530.256	14012.69696
530.462	13981.12493
530.669	14052.55146
530.876	14102.22918
531.082	14137.46662
531.289	14173.46133
531.495	14228.30226
531.702	14266.75485
531.909	14209.08972
532.115	14326.18313
532.322	14340.30715
532.528	14390.2516
532.735	14393.85635
532.941	14369.02682
533.148	14419.70216
533.354	14323.39908
533.561	14399.88859
533.767	14375.74472
533.974	14461.9092
534.18	14465.53568
534.387	14388.97432
534.593	14491.9626
534.799	14456.13048
535.006	14435.16195
535.212	14396.07774
535.418	14320.42367
535.625	14392.32794
535.831	14400.60384
536.037	14398.31416
536.244	14515.97504
536.45	14498.95642
536.656	14456.41607
536.862	14593.28703
537.068	14583.97452
537.275	14588.67358
537.481	14551.58269
537.687	14666.48565
537.893	14645.49001
538.099	14708.16741
538.305	14692.46402
538.512	14677.23337
538.718	14782.12912
538.924	14729.47938
539.13	14676.9306
539.336	14708.58121
539.542	14705.44561
539.748	14756.50217
539.954	14708.37257
540.16	14705.09513
540.366	14723.76737
540.572	14783.51627
540.778	14684.91005
540.984	14592.20203
541.19	14634.05036
541.396	14633.65846
541.602	14654.33105
541.807	14680.64522
542.013	14712.5867
542.219	14632.78212
542.425	14652.14407
542.631	14684.7627
542.837	14614.53333
543.042	14593.66387
543.248	14605.61122
543.454	14520.44454
543.66	14600.62314
543.865	14559.14823
544.071	14558.32419
544.277	14538.64785
544.483	14482.2413
544.688	14414.47005
544.894	14504.31
545.1	14452.7438
545.305	14509.80428
545.511	14534.61008
545.716	14434.98656
545.922	14461.73787
546.128	14510.37976
546.333	14548.48191
546.539	14435.76321
546.744	14443.19404
546.95	14469.75624
547.155	14431.19025
547.361	14379.39458
547.566	14428.04913
547.772	14285.45252
547.977	14385.05277
548.182	14367.5021
548.388	14364.79828
548.593	14288.75302
548.799	14359.98174
549.004	14360.34933
549.209	14382.6981
549.415	14355.25624
549.62	14339.61755
549.825	14447.33171
550.031	14418.98999
550.236	14444.60201
550.441	14469.03614
550.646	14435.17239
550.852	14501.27531
551.057	14444.94811
551.262	14577.19477
551.467	14483.16189
551.672	14517.57901
551.878	14459.05357
552.083	14462.98606
552.288	14512.47889
552.493	14428.40992
552.698	14459.18016
552.903	14538.84833
553.108	14527.23944
553.313	14539.223
553.518	14576.15252
553.723	14591.8581
553.928	14571.4404
554.133	14648.25213
554.338	14599.89842
554.543	14601.21714
554.748	14665.97868
554.953	14678.73321
555.158	14637.64361
555.363	14760.57201
555.568	14691.11489
555.773	14711.7178
555.978	14673.10167
556.182	14699.95916
556.387	14722.60419
556.592	14682.86874
556.797	14734.93752
557.002	14732.17943
557.206	14745.28161
557.411	14645.56815
557.616	14686.21478
557.821	14691.82103
558.025	14641.01973
558.23	14719.36974
558.435	14663.26166
558.64	14756.45733
558.844	14662.17776
559.049	14624.10455
559.253	14662.87481
559.458	14676.8795
559.663	14623.64136
559.867	14678.79347
560.072	14526.80997
560.276	14581.97939
560.481	14552.24379
560.685	14512.58857
560.89	14486.27159
561.094	14514.1462
561.299	14429.635
561.503	14432.50459
561.708	14495.51233
561.912	14396.15029
562.117	14319.54086
562.321	14402.97535
562.525	14389.3471
562.73	14408.6679
562.934	14357.90085
563.139	14350.43034
563.343	14281.21058
563.547	14361.379
563.752	14341.35792
563.956	14363.08167
564.16	14317.94613
564.364	14259.35914
564.569	14263.70195
564.773	14213.53336
564.977	14227.70821
565.181	14194.99258
565.385	14170.99392
565.59	14169.79335
565.794	14190.06053
565.998	14126.15949
566.202	14171.08585
566.406	14158.49845
566.61	14146.93311
566.814	14141.38578
567.018	14167.84379
567.222	14109.48802
567.426	14008.04226
567.63	14024.24918
567.834	14034.89823
568.038	13952.43341
568.242	13967.05464
568.446	13954.91436
568.65	13793.18546
568.854	13877.2337
569.058	13907.43569
569.262	13862.06443
569.466	13873.57518
569.67	13851.86694
569.874	13753.91401
570.078	13852.63189
570.281	13821.31817
570.485	13763.11238
570.689	13687.42617
570.893	13685.14025
571.097	13717.6857
571.3	13551.01958
571.504	13530.51283
571.708	13507.25439
571.912	13575.20812
572.115	13548.905
572.319	13502.72231
572.523	13487.17248
572.726	13455.16272
572.93	13455.86148
573.133	13345.83112
573.337	13320.30198
573.541	13278.36167
573.744	13360.88957
573.948	13257.37202
574.151	13264.0237
574.355	13205.54449
574.558	13151.02271
574.762	13183.52633
574.965	13200.54008
575.169	13203.08478
575.372	13078.29409
575.576	13231.70555
575.779	13109.7218
575.983	13094.04479
576.186	13073.8149
576.389	13071.07499
576.593	13066.89017
576.796	12887.73871
577	12939.85533
577.203	12880.1302
577.406	12778.4135
577.609	12867.70056
577.813	12782.51887
578.016	12827.13763
578.219	12816.51514
578.423	12661.14553
578.626	12638.65566
578.829	12686.41514
579.032	12757.02601
579.235	12634.25173
579.438	12729.93358
579.642	12655.24572
579.845	12683.97604
580.048	12636.86508
580.251	12631.11416
580.454	12584.98855
580.657	12648.21914
580.86	12576.73893
581.063	12597.07687
581.266	12431.98233
581.469	12533.35018
581.672	12440.00606
581.875	12460.93029
582.078	12489.64587
582.281	12485.24706
582.484	12468.14602
582.687	12497.36719
582.89	12523.96881
583.093	12496.98347
583.296	12526.10945
583.499	12582.22173
583.702	12556.89028
583.904	12518.51569
584.107	12485.18076
584.31	12505.09332
584.513	12462.04756
584.716	12571.18538
584.918	12502.55658
585.121	12499.24424
585.324	12471.27597
585.527	12522.00069
585.729	12483.00605
585.932	12523.66324
586.135	12481.14496
586.337	12504.50425
586.54	12517.70439
586.743	12461.62645
586.945	12535.90754
587.148	12462.00451
587.35	12464.72294
587.553	12480.85032
587.755	12418.69491
587.958	12389.22654
588.161	12387.12535
588.363	12409.02665
588.566	12310.5358
588.768	12386.93523
588.971	12229.73606
589.173	12320.97603
589.375	12343.32617
589.578	12171.77924
589.78	12181.25375
589.983	12142.18099
590.185	12032.31864
590.387	12010.53854
590.59	11887.64055
590.792	11818.56737
590.994	11687.95325
591.197	11682.98928
591.399	11571.21217
591.601	11559.23629
591.803	11419.22059
592.006	11438.60747
592.208	11309.04271
592.41	11206.98295
592.612	11212.94139
592.815	11094.95468
593.017	11046.51504
593.219	10980.49922
593.421	10925.90319
593.623	10896.73308
593.825	10782.14492
594.027	10769.85116
594.229	10744.19333
594.432	10627.35354
594.634	10585.75489
594.836	10553.03312
595.038	10472.17855
595.24	10489
595.442	10421.82218
595.644	10384.3955
595.846	10268.44161
596.048	10239.42931
596.249	10191.58809
596.451	10219.747
596.653	10152.55707
596.855	10062.25551
597.057	10069.73848
597.259	9929.13359
597.461	9909.6738
597.663	9938.40166
597.864	9874.99312
598.066	9877.04735
598.268	9909.78228
598.47	9843.16854
598.671	9904.08161
598.873	9927.92867
599.075	9935.97676
599.277	9868.55203
599.478	9861.22474
599.68	9942.7159
599.882	9883.32556
600.083	9938.29915
600.285	9928.53534
600.487	9935.56832
600.688	9994.00436
600.89	10035.72341
601.091	10003.64942
601.293	10023.38168
601.494	10045.06857
601.696	10053.65928
601.898	10108.98379
602.099	10141.29367
602.301	10155.25873
602.502	10158.85553
602.703	10158.75802
602.905	10262.8904
603.106	10129.08382
603.308	10277.52714
603.509	10221.85609
603.711	10276.86383
603.912	10230.64668
604.113	10185.72464
604.315	10323.46987
604.516	10341.92506
604.717	10270.49531
604.919	10298.32839
605.12	10300.38018
605.321	10525.7947
605.522	10412.30918
605.724	10415.32872
605.925	10411.13642
606.126	10505.89148
606.327	10472.66876
606.528	10472.07052
606.729	10545.73102
606.931	10556.74903
607.132	10633.80448
607.333	10690.68471
607.534	10648.00315
607.735	10721.58757
607.936	10689.85704
608.137	10696.01279
608.338	10686.65493
608.539	10692.39538
608.74	10739.61739
608.941	10762.77751
609.142	10704.89542
609.343	10787.51426
609.544	10715.44649
609.745	10790.16862
609.946	10725.30897
610.147	10777.10158
610.348	10750.31168
610.549	10867.74196
610.75	10801.61813
610.95	10801.97232
611.151	10710.81448
611.352	10770.71857
611.553	10729.23058
611.754	10771.11083
611.954	10741.82186
612.155	10819.00197
612.356	10757.14445
612.557	10689.72038
612.757	10758.41936
612.958	10738.00775
613.159	10782.22884
613.359	10677.57166
613.56	10648.86591
613.761	10713.78274
613.961	10680.78518
614.162	10683.81052
614.362	10629.3093
614.563	10692.55423
614.764	10670.07383
614.964	10597.27419
615.165	10577.3536
615.365	10647.84731
615.566	10554.79247
615.766	10537.02372
615.967	10489.66
616.167	10450.59732
616.368	10438.08549
616.568	10408.80851
616.768	10385.74282
616.969	10444.78223
617.169	10329.20556
617.37	10361.81276
617.57	10330.75608
617.77	10321.39306
617.971	10389.01254
618.171	10356.15115
618.371	10255.67147
618.571	10218.21857
618.772	10330.70066
618.972	10322.27381
619.172	10242.76825
619.372	10271.08345
619.573	10226.93343
619.773	10262.31745
619.973	10189.81937
620.173	10137.59317
620.373	10170.59071
620.573	10229.3491
620.774	10224.04662
620.974	10177.49987
621.174	10034.54363
621.374	10043.81383
621.574	10104.10122
621.774	10077.01713
621.974	10089.29256
622.174	10013.02725
622.374	10041.07606
622.574	10046.63315
622.774	10039.04057
622.974	10061.38374
623.174	10074.31126
623.374	10083.97725
623.574	10100.31173
623.774	9996.63466
623.973	10015.95323
624.173	10078.12414
624.373	9967.52545
624.573	9919.14938
624.773	10015.20177
624.973	9988.21469
625.172	10058.2069
625.372	9971.4424
625.572	9862.99585
625.772	9841.01623
625.971	9840.82084
626.171	9900.13253
626.371	9875.50401
626.57	9831.73075
626.77	9892.57586
626.97	9812.18283
627.169	9814.34166
627.369	9751.23393
627.569	9772.61858
627.768	9748.48422
627.968	9722.50149
628.167	9708.24103
628.367	9695.24523
628.566	9705.60532
628.766	9650.78099
628.965	9719.56635
629.165	9584.54621
629.364	9635.74893
629.564	9535.30902
629.763	9606.93661
629.963	9542.80705
630.162	9438.93906
630.362	9398.08429
630.561	9419.19358
630.76	9334.17165
630.96	9385.67771
631.159	9339.03617
631.358	9221.13199
631.558	9272.60384
631.757	9198.67025
631.956	9129.00769
632.155	9097.5913
632.355	9145.77814
632.554	9088.13544
632.753	9147.16334
632.952	9033.8626
633.152	8998.37269
633.351	8949.54154
633.55	8954.38216
633.749	8995.58657
633.948	9040.72365
634.147	8924.69199
634.346	8885.18935
634.545	8928.30486
634.744	8928.80943
634.944	8964.19493
635.143	8797.50612
635.342	8761.69994
635.541	8794.58992
635.74	8811.70335
635.939	8762.23131
636.138	8838.82732
636.336	8727.57419
636.535	8780.38537
636.734	8708.47196
636.933	8710.51972
637.132	8673.8409
637.331	8708.85235
637.53	8686.25532
637.729	8703.18207
637.928	8534.5296
638.126	8674.2276
638.325	8585.64771
638.524	8634.04591
638.723	8640.68015
638.921	8649.20452
639.12	8595.25329
639.319	8644.50005
639.518	8661.99444
639.716	8538.17352
639.915	8546.03166
640.114	8583.55415
640.312	8572.98386
640.511	8581.94973
640.71	8609.46642
640.908	8679.51847
641.107	8486.87381
641.305	8591.05814
641.504	8585.09216
641.702	8620.00228
641.901	8569.56069
642.099	8632.92473
642.298	8606.88089
642.496	8551.46349
642.695	8531.79252
642.893	8579.48765
643.092	8597.39816
643.29	8599.06036
643.489	8558.35906
643.687	8464.53649
643.885	8469.24342
644.084	8533.79566
644.282	8530.73288
644.48	8484.2346
644.679	8491.02734
644.877	8469.89149
645.075	8485.20902
645.274	8526.85881
645.472	8370.07697
645.67	8445.25959
645.868	8309.03136
646.067	8422.83819
646.265	8344.65719
646.463	8351.24166
646.661	8299.85498
646.859	8365.26896
647.057	8333.13988
647.256	8321.61103
647.454	8346.25357
647.652	8301.72047
647.85	8251.59915
648.048	8178.76773
648.246	8149.14284
648.444	8142.10639
648.642	8038.00918
648.84	8073.33925
649.038	7994.34499
649.236	7997.83864
649.434	7979.38379
649.632	7880.738
649.83	7811.81031
650.028	7800.46439
650.226	7819.56451
650.423	7674.85717
650.621	7663.66731
650.819	7638.6914
651.017	7604.80716
651.215	7537.17148
651.413	7486.07265
651.61	7455.14371
651.808	7400.11231
652.006	7355.75695
652.204	7315.14044
652.401	7194.31917
652.599	7223.96182
652.797	7188.96265
652.995	7198.31855
653.192	7148.61069
653.39	7087.73791
653.588	7018.18805
653.785	7059.95833
653.983	6945.1512
654.18	6926.32025
654.378	6988.57093
654.576	6888.95537
654.773	6906.22023
654.971	6901.0334
655.168	6970.40017
655.366	6885.82791
655.563	6838.08539
655.761	6966.18636
655.958	6837.44261
656.156	6686.95532
656.353	6820.59074
656.55	6812.87775
656.748	6758.64005
656.945	6704.42787
657.143	6637.5211
657.34	6672.27856
657.537	6669.35519
657.735	6576.21332
657.932	6505.5445
658.129	6538.19287
658.326	6512.33194
658.524	6508.79955
658.721	6416.0637
658.918	6458.8415
659.115	6429.44957
659.313	6368.17181
659.51	6382.2848
659.707	6337.33083
659.904	6374.7597
660.101	6351.67144
660.298	6278.10453
660.496	6253.84567
660.693	6277.68346
660.89	6217.94405
661.087	6295.03973
661.284	6218.29046
661.481	6240.72379
661.678	6326.48336
661.875	6375.36997
662.072	6278.34175
662.269	6259.70218
662.466	6193.87209
662.663	6202.24424
662.86	6192.62919
663.057	6374.25967
663.254	6292.3264
663.45	6302.87773
663.647	6241.91419
663.844	6324.91864
664.041	6330.28929
664.238	6313.73218
664.435	6298.05198
664.631	6309.50091
664.828	6293.5648
665.025	6328.69989
665.222	6271.60066
665.419	6307.61606
665.615	6343.40293
665.812	6334.81303
666.009	6294.10832
666.205	6250.9075
666.402	6424.66986
666.599	6351.62711
666.795	6370.27475
666.992	6370.78768
667.188	6423.06682
667.385	6437.36189
667.582	6453.53611
667.778	6544.80776
667.975	6482.74226
668.171	6463.08331
668.368	6522.97203
668.564	6531.98061
668.761	6529.85294
668.957	6508.57838
669.154	6551.47629
669.35	6497.98842
669.547	6465.99611
669.743	6537.127
669.939	6485.22426
670.136	6552.91298
670.332	6488.40355
670.528	6541.84174
670.725	6491.24412
670.921	6458.78127
671.117	6431.8853
671.314	6451.77896
671.51	6510.96631
671.706	6475.69684
671.902	6379.69849
672.099	6411.29061
672.295	6418.8127
672.491	6456.84882
672.687	6464.94019
672.883	6507.7476
673.08	6384.02307
673.276	6466.91627
673.472	6439.54699
673.668	6441.59947
673.864	6338.86222
674.06	6394.44353
674.256	6398.06512
674.452	6471.34845
674.648	6408.7725
674.844	6366.52273
675.04	6335.3597
675.236	6326.62578
675.432	6340.97186
675.628	6240.55949
675.824	6215.71562
676.02	6201.08519
676.216	6216.92482
676.412	6223.05294
676.608	6186.46479
676.804	6126.40678
676.999	6116.24708
677.195	6118.63757
677.391	6065.73591
677.587	6093.58446
677.783	6083.08264
677.978	6088.75361
678.174	6006.16882
678.37	6069.6754
678.566	6022.80233
678.761	6054.61173
678.957	6011.55702
679.153	6013.19834
679.348	6002.30355
679.544	5989.56101
679.74	5998.49309
679.935	5935.89388
680.131	5962.83205
680.327	5957.87668
680.522	5919.83876
680.718	5852.10988
680.913	5869.17107
681.109	5920.27112
681.304	5854.78468
681.5	5872.08453
681.695	5887.93303
681.891	5827.4575
682.086	5928.14163
682.282	5871.60031
682.477	5823.86838
682.672	5794.29545
682.868	5767.3709
683.063	5771.11944
683.259	5791.01083
683.454	5778.17822
683.649	5735.96462
683.845	5642.07795
684.04	5738.23531
684.235	5644.51975
684.43	5616.68991
684.626	5631.32916
684.821	5684.58665
685.016	5594.77654
685.211	5703.19283
685.407	5706.5206
685.602	5698.44547
685.797	5607.52098
685.992	5624.63982
686.187	5636.69682
686.382	5559.48707
686.577	5466.31691
686.773	5436.80264
686.968	5584.06171
687.163	5518.75945
687.358	5532.36961
687.553	5439.08896
687.748	5470.24869
687.943	5405.67397
688.138	5399.8474
688.333	5362.15872
688.528	5308.5033
688.723	5276.9368
688.918	5336.331
689.112	5241.28506
689.307	5160.10353
689.502	5170.1318
689.697	5114.27226
689.892	4972.73361
690.087	4954.63309
690.282	4888.27949
690.476	4781.44479
690.671	4813.09415
690.866	4671.48254
691.061	4673.8871
691.255	4592.31357
691.45	4567.67635
691.645	4528.90872
691.84	4475.39075
692.034	4437.69278
692.229	4392.71116
692.424	4399.90481
692.618	4339.45052
692.813	4300.16963
693.007	4187.67282
693.202	4268.05099
693.397	4247.78095
693.591	4188.02837
693.786	4133.20422
693.98	4054.18683
694.175	4036.69017
694.369	3978.29044
694.564	4026.79397
694.758	4032.31866
694.953	3968.27224
695.147	3905.67838
695.342	3858.19719
695.536	3928.44996
695.73	3848.18903
695.925	3787.29546
696.119	3737.75265
696.313	3725.71491
696.508	3730.58083
696.702	3592.71692
696.896	3606.85583
697.091	3509.7108
697.285	3604.2914
697.479	3550.92133
697.673	3519.39958
697.868	3566.57184
698.062	3533.21482
698.256	3574.49639
698.45	3530.9483
698.644	3644.55506
698.839	3604.61378
699.033	3622.68987
699.227	3630.65146
699.421	3615.38019
699.615	3617.43349
699.809	3583.02436
700.003	3542.18035
700.197	3605.81952
700.391	3624.55711
700.585	3590.5796
700.779	3687.45399
700.973	3706.91303
701.167	3673.95903
701.361	3709.37489
701.555	3653.39212
701.749	3684.28671
701.943	3578.27258
702.137	3731.70334
702.331	3748.8353
702.525	3748.80073
702.718	3717.70062
702.912	3665.3722
703.106	3611.35037
703.3	3708.55565
703.494	3673.54702
703.687	3739.38613
703.881	3708.505
704.075	3760.21685
704.269	3784.60242
704.462	3699.44772
704.656	3727.94861
704.85	3681.72856
705.043	3768.96469
705.237	3776.01807
705.431	3754.00823
705.624	3740.3211
705.818	3791.0108
706.012	3797.41487
706.205	3893.37587
706.399	3853.90349
706.592	3809.03052
706.786	3816.73521
706.979	3767.39699
707.173	3911.7499
707.366	3884.97213
707.56	3829.78296
707.753	3862.08304
707.947	3873.6193
708.14	3842.76808
708.333	3863.42466
708.527	3834.18691
708.72	3858.47879
708.914	3903.90749
709.107	3895.4522
709.3	3944.06685
709.494	3854.14261
709.687	3924.88167
709.88	3881.23556
710.073	3979.29734
710.267	4000.33775
710.46	4009.37732
710.653	3976.61389
710.846	3885.64259
711.04	4024.82511
711.233	4059.06489
711.426	4043.58009
711.619	4085.88022
711.812	4102.34284
712.005	4095.16529
712.198	4120.03196
712.391	4209.34129
712.585	4246.90364
712.778	4251.20363
712.971	4243.27211
713.164	4288.64639
713.357	4262.1258
713.55	4331.10115
713.743	4431.11814
713.936	4397.44925
714.129	4376.73903
714.322	4310.46856
714.514	4313.75789
714.707	4421.95577
714.9	4386.08196
715.093	4397.79381
715.286	4502.18692
715.479	4420.84102
715.672	4503.57636
715.864	4471.11869
716.057	4410.24094
716.25	4462.03037
716.443	4512.78868
716.636	4490.04826
716.828	4462.25582
717.021	4470.35627
717.214	4525.56709
717.406	4520.1966
717.599	4472.21195
717.792	4405.3736
717.984	4479.80628
718.177	4398.76432
718.37	4427.65721
718.562	4261.03805
718.755	4322.34014
718.947	4343.90969
719.14	4146.34196
719.333	4086.79948
719.525	4066.57884
719.718	4000.16263
719.91	3939.53336
720.103	3871.16144
720.295	3770.48947
720.487	3673.75822
720.68	3619.62975
720.872	3542.16873
721.065	3467.17701
721.257	3438.42707
721.449	3283.71645
721.642	3285.54458
721.834	3252.77062
722.026	3105.98921
722.219	3067.85093
722.411	2979.39554
722.603	2932.76816
722.796	2898.41589
722.988	2822.5758
723.18	2762.27877
723.372	2727.13222
723.565	2703.16018
723.757	2646.02917
723.949	2640.13885
724.141	2548.78817
724.333	2526.41509
724.525	2486.07349
724.717	2481.22281
724.91	2481.6909
725.102	2521.35515
725.294	2396.06371
725.486	2329.95811
725.678	2389.11676
725.87	2289.18201
726.062	2255.78308
726.254	2201.55518
726.446	2156.96937
726.638	2199.01976
726.83	2118.8197
727.022	2002.19089
727.213	2093.2362
727.405	2094.49953
727.597	2093.24515
727.789	2006.19036
727.981	1996.98535
728.173	1995.53901
728.365	2036.24159
728.556	1970.18833
728.748	1998.33661
728.94	1982.50011
729.132	1978.57867
729.324	2126.416
729.515	2107.83261
729.707	2056.38983
729.899	2074.97098
730.09	2019.04654
730.282	2068.26435
730.474	2034.97073
730.665	2109.25744
730.857	2205.39383
731.049	2167.52694
731.24	2096.67936
731.432	2149.49569
731.623	2093.6111
731.815	2144.58693
732.006	2082.43132
732.198	2084.80926
732.389	2085.09476
732.581	2095.02498
732.772	2055.5191
732.964	2065.6354
733.155	2041.95721
733.347	2085.3594
733.538	2071.82496
733.729	2109.40333
733.921	2152.22179
734.112	2180.70061
734.304	2093.47432
734.495	2114.12915
734.686	2169.07724
734.877	2284.68615
735.069	2271.89222
735.26	2317.84651
735.451	2339.12558
735.643	2417.96937
735.834	2434.23383
736.025	2495.36243
736.216	2497.45473
736.407	2565.80493
736.599	2567.06941
736.79	2655.17345
736.981	2761.63667
737.172	2760.01412
737.363	2797.70127
737.554	2876.10309
737.745	2869.5629
737.936	2970.49902
738.127	2951.75888
738.318	3040.10884
738.509	2939.28109
738.7	3075.68696
738.891	3103.91741
739.082	3144.10992
739.273	3261.51528
739.464	3248.41794
739.655	3284.0267
739.846	3301.63668
740.037	3413.89646
740.228	3448.30589
740.419	3511.31021
740.609	3540.77446
740.8	3452.3304
740.991	3585.77271
741.182	3667.9941
741.373	3713.18452
741.563	3836.12016
741.754	3817.17582
741.945	3828.26288
742.136	3998.21669
742.326	3860.25648
742.517	3955.83563
742.708	3980.17266
742.898	4111.15566
743.089	4046.53222
743.28	4130.69542
743.47	4166.79262
743.661	4187.82343
743.851	4336.97609
744.042	4190.43491
744.233	4190.20351
744.423	4247.21917
744.614	4251.16941
744.804	4357.75091
744.995	4316.09371
745.185	4389.52203
745.376	4435.96413
745.566	4522.97067
745.756	4506.51776
745.947	4540.93757
746.137	4682.99787
746.328	4696.71243
746.518	4622.51183
746.708	4693.95523
746.899	4649.51368
747.089	4728.93649
747.279	4713.82965
747.47	4750.14124
747.66	4787.68804
747.85	4801.02655
748.04	4739.6696
748.231	4768.76792
748.421	4770.09238
748.611	4863.49631
748.801	4859.24723
748.991	4858.52882
749.182	4883.00458
749.372	4843.92878
749.562	4833.73826
749.752	4969.01435
749.942	4969.54828
750.132	5033.11174
750.322	5032.65854
750.512	5012.8412
750.702	4989.61303
750.892	4973.40663
751.082	4981.00034
751.272	5059.27478
751.462	5125.87052
751.652	5128.25081
751.842	5006.60827
752.032	5101.17427
752.222	5072.71155
752.412	5097.8982
752.602	5009.73423
752.792	5090.04226
752.981	5089.89697
753.171	5087.05373
753.361	5009.1062
753.551	5012.77069
753.741	5033.34251
753.93	4990.55867
754.12	5016.12017
754.31	4913.36961
754.5	4993.89427
754.689	4975.57202
754.879	4957.59598
755.069	4850.95245
755.258	5006.5579
755.448	5034.87938
755.638	4960.67586
755.827	5072.96987
756.017	4991.5529
756.206	5053.23113
756.396	4963.5821
756.586	5034.12103
756.775	4996.763
756.965	4976.46427
757.154	4973.11727
757.344	4932.59354
757.533	4909.57752
757.723	4872.51137
757.912	4885.38408
758.101	4910.24541
758.291	4775.24729
758.48	4843.15431
758.67	4790.9017
758.859	4802.13366
759.048	4907.90783
759.238	4817.09007
759.427	4792.12937
759.616	4847.17039
759.806	4756.07181
759.995	4700.64046
760.184	4695.29971
760.373	4749.13921
760.563	4735.07324
760.752	4634.62465
760.941	4575.20429
761.13	4511.72415
761.319	4415.75412
761.509	4466.72553
761.698	4283.74623
761.887	4295.63247
762.076	4110.23662
762.265	4004.39927
762.454	3792.34477
762.643	3724.92227
762.832	3640.28383
763.021	3503.6757
763.21	3424.5886
763.399	3224.05853
763.588	3106.86676
763.777	2976.43243
763.966	2815.1493
764.155	2772.79549
764.344	2691.27239
764.533	2563.67357
764.722	2502.49831
764.911	2382.03245
765.1	2241.16768
765.288	2172.02215
765.477	2077.06671
765.666	1950.24299
765.855	1932.59692
766.044	1798.42158
766.232	1660.29763
766.421	1653.23854
766.61	1494.07209
766.799	1444.90302
766.987	1352.7986
767.176	1340.30125
767.365	1264.19874
767.553	1176.3434
767.742	1142.38342
767.931	1036.42202
768.119	977.14562
768.308	949.91503
768.497	959.7448
768.685	895.61727
768.874	844.13351
769.062	935.43533
769.251	826.85837
769.439	894.69396
769.628	855.98844
769.816	926.8885
770.005	890.30153
770.193	989.7186
770.382	886.33153
770.57	1018.17989
770.758	1045.55068
770.947	1091.91147
771.135	1198.25133
771.323	1185.64144
771.512	1230.89626
771.7	1314.58349
771.888	1345.19192
772.077	1471.99605
772.265	1575.10165
772.453	1517.91909
772.642	1638.95065
772.83	1676.28943
773.018	1754.74685
773.206	1804.86414
773.394	1930.23162
773.583	2004.03402
773.771	2008.12614
773.959	2118.54558
774.147	2156.00409
774.335	2344.38319
774.523	2363.55373
774.711	2477.35608
774.899	2440.16273
775.087	2609.2352
775.275	2583.55488
775.463	2753.88885
775.651	2701.61646
775.839	2818.00808
776.027	2844.0581
776.215	2908.68395
776.403	2885.65669
776.591	3009.57908
776.779	2995.36697
776.967	3072.36071
777.155	3136.7289
777.343	3204.68297
777.531	3194.28379
777.718	3201.72555
777.906	3205.1913
778.094	3257.98521
778.282	3216.89797
778.47	3263.62834
778.657	3315.70885
778.845	3288.55659
779.033	3332.5098
779.22	3319.03989
779.408	3372.67676
779.596	3310.70867
779.783	3322.55754
779.971	3390.08354
780.159	3270.61243
780.346	3328.94612
780.534	3323.60007
780.722	3355.59547
780.909	3389.16639
781.097	3307.56984
781.284	3362.23812
781.472	3301.85423
781.659	3310.62094
781.847	3382.4126
782.034	3275.61961
782.222	3366.93852
782.409	3278.55522
782.597	3259.48031
782.784	3290.68216
782.971	3250.16577
783.159	3200.87182
783.346	3250.78497
783.533	3185.62213
783.721	3148.22627
783.908	3181.10938
784.095	3179.7168
784.283	3174.71806
784.47	3164.21162
784.657	3079.17157
784.844	3175.06511
785.032	3094.04583
785.219	3114.31528
785.406	3083.16584
785.593	3110.97103
785.78	3056.22197
785.968	3110.79592
786.155	3061.82307
786.342	3062.30443
786.529	3037.53021
786.716	3045.45849
786.903	3030.08339
787.09	2935.54209
787.277	2917.01355
787.464	2912.95536
787.651	2820.23155
787.838	2834.64411
788.025	2842.10388
788.212	2871.23068
788.399	2811.06504
788.586	2740.17755
788.773	2787.35478
788.96	2824.78529
789.147	2805.02849
789.334	2718.45524
789.521	2776.41148
789.707	2696.45817
789.894	2749.04754
790.081	2709.37795
790.268	2683.77974
790.455	2637.57993
790.641	2515.13093
790.828	2608.14927
791.015	2549.10749
791.202	2591.05558
791.388	2585.5552
791.575	2574.477
791.762	2410.38246
791.948	2457.55394
792.135	2372.17132
792.322	2351.61313
792.508	2310.35571
792.695	2314.29174
792.881	2320.05054
793.068	2362.81335
793.254	2310.68871
793.441	2255.2993
793.627	2196.51015
793.814	2189.60414
794	2198.17671
794.187	2146.26393
794.373	2149.09028
794.56	2219.27171
794.746	2170.59011
794.933	2204.36011
795.119	2088.49233
795.305	2090.92474
795.492	2095.6036
795.678	2107.18994
795.864	2105.00795
796.051	2181.40961
796.237	2099.12438
796.423	2077.03992
796.61	2014.88852
796.796	2032.0654
796.982	1986.29403
797.168	1979.8902
797.355	1967.99035
797.541	1985.41777
797.727	1942.74664
797.913	1906.18105
798.099	1880.66841
798.285	1939.24512
798.471	1952.98162
798.658	1901.3641
798.844	1868.44758
799.03	1835.03836
799.216	1831.38131
799.402	1958.55811
799.588	1875.65358
799.774	1875.56009
799.96	1824.98231
800.146	1879.61439
800.332	1858.85873
800.518	1867.24577
800.704	1839.3605
800.89	1807.23341
801.075	1782.98212
801.261	1798.50545
801.447	1793.43137
801.633	1774.57687
801.819	1798.98731
802.005	1699.90588
802.19	1788.28931
802.376	1718.49154
802.562	1683.24834
802.748	1781.76438
802.934	1775.47419
803.119	1702.39491
803.305	1844.54823
803.491	1773.58351
803.676	1669.55469
803.862	1761.93653
804.048	1612.54306
804.233	1749.79886
804.419	1682.72093
804.605	1728.75722
804.79	1752.01757
804.976	1610.074
805.161	1653.90667
805.347	1593.86934
805.532	1605.41208
805.718	1560.9605
805.903	1670.07498
806.089	1669.01569
806.274	1563.59979
806.46	1685.8785
806.645	1621.69106
806.831	1661.68681
807.016	1636.41296
807.201	1626.84346
807.387	1679.49718
807.572	1571.27751
807.757	1633.76884
807.943	1656.91503
808.128	1601.62325
808.313	1596.74423
808.499	1510.07623
808.684	1589.07193
808.869	1593.48289
809.054	1575.83168
809.24	1543.86465
809.425	1648.8097
809.61	1584.87543
809.795	1545.68863
809.98	1484.35719
810.165	1547.39077
810.35	1537.51344
810.536	1591.38487
810.721	1533.21762
810.906	1566.97891
811.091	1501.32503
811.276	1562.01941
811.461	1418.61779
811.646	1437.58981
811.831	1483.20759
812.016	1434.88147
812.201	1392.11634
812.386	1474.312
812.571	1385.45155
812.756	1394.49777
812.941	1366.9216
813.125	1341.78656
813.31	1419.82084
813.495	1337.84828
813.68	1337.46295
813.865	1344.24219
814.05	1298.47167
814.234	1304.82883
814.419	1346.57974
814.604	1271.15863
814.789	1251.18561
814.973	1162.9165
815.158	1243.11578
815.343	1225.6789
815.528	1123.26444
815.712	1118.919
815.897	1116.38668
816.081	1055.88598
816.266	1034.72278
816.451	1018.5247
816.635	936.68902
816.82	906.78073
817.004	862.26696
817.189	877.09588
817.374	933.64258
817.558	807.31537
817.743	783.48755
817.927	797.7255
818.111	769.81348
818.296	667.11534
818.48	748.55007
818.665	705.41021
818.849	586.11817
819.034	548.59673
819.218	586.08064
819.402	553.03856
819.587	552.26733
819.771	493.09764
819.955	426.45946
820.14	505.94976
820.324	470.98302
820.508	495.91662
820.692	478.92447
820.877	494.61027
821.061	386.14854
821.245	515.73965
821.429	446.2144
821.613	368.63367
821.798	394.61738
821.982	316.57352
822.166	363.16499
822.35	366.65387
822.534	365.81891
822.718	382.01336
822.902	332.60684
823.086	349.8106
823.27	271.51276
823.454	242.01507
823.638	267.72524
823.822	336.96142
824.006	359.28854
824.19	264.09329
824.374	350.84286
824.558	234.44249
824.742	236.04692
824.926	306.00291
825.11	219.19708
825.294	253.15617
825.477	273.66953
825.661	213.03378
825.845	274.08478
826.029	232.72989
826.213	274.20596
826.396	201.29341
826.58	336.84598
826.764	219.72005
826.948	216.64043
827.131	228.80064
827.315	269.02808
827.499	241.69655
827.682	298.0522
827.866	299.28252
828.05	253.5008
828.233	248.42143
828.417	296.71017
828.6	283.66876
828.784	268.17663
828.967	233.11598
829.151	273.23844
829.335	249.24722
829.518	251.88877
829.701	250.27596
829.885	217.09929
830.068	279.03888
830.252	254.39435
830.435	229.28347
830.619	256.66313
830.802	213.79636
830.985	276.77516
831.169	297.00613
831.352	278.34018
831.535	194.29096
831.719	250.67859
831.902	317.8343
832.085	290.46386
832.269	262.19155
832.452	269.31816
832.635	293.70196
832.818	297.4665
833.002	279.69994
833.185	288.85681
833.368	253.07869
833.551	283.92473
833.734	286.8514
833.917	287.11963
834.1	239.21629
834.284	207.82551
834.467	210.66786
834.65	230.43726
834.833	273.34344
835.016	185.24767
835.199	292.27862
835.382	196.79767
835.565	133.04121
835.748	263.25862
835.931	224.10832
836.114	222.32842
836.297	208.05172
836.479	286.91677
836.662	239.3453
836.845	265.12317
837.028	255.74468
837.211	215.53718
837.394	231.95907
837.577	275.43072
837.759	218.78656
837.942	263.18309
838.125	247.57479
838.308	301.54661
838.49	243.39065
838.673	204.81995
838.856	197.49222
839.039	160.98038
839.221	364.62897
839.404	299.27246
839.587	294.82315
839.769	166.23825
839.952	364.62094
840.134	314.75875
840.317	230.42797
840.499	289.08548
840.682	317.33479
840.865	330.0693
841.047	246.26313
841.23	303.73303
841.412	297.5282
841.595	365.08021
841.777	302.34268
841.959	362.32182
842.142	383.8547
842.324	310.05041
842.507	335.93353
842.689	266.64122
842.871	264.52977
843.054	273.18863
843.236	354.19094
843.418	270.67787
843.601	352.15439
843.783	356.65709
843.965	328.95702
844.147	328.15969
844.33	281.66998
844.512	301.46938
844.694	401.27211
844.876	244.39707
845.059	293.21653
845.241	242.24325
845.423	298.34658
845.605	266.19247
845.787	302.96942
845.969	257.94873
846.151	285.40764
846.333	345.8088
846.515	301.94084
846.697	445.68412
846.879	314.42225
847.061	304.62934
847.243	327.98375
847.425	285.63635
847.607	328.50832
847.789	344.74733
847.971	342.20187
848.153	309.13793
848.335	352.04044
848.517	297.92622
848.699	376.44759
848.881	343.49443
849.062	262.67079
849.244	317.2266
849.426	328.01091
849.608	326.42014
849.789	260.96937
849.971	315.10698
850.153	377.12751
850.335	379.63477
850.516	306.60706
850.698	286.69371
850.88	380.50269
851.061	289.1356
851.243	337.61277
851.425	296.53755
851.606	285.07328
851.788	231.21008
851.969	285.14023
852.151	297.13614
852.333	289.1234
852.514	267.23885
852.696	307.33905
852.877	325.80038
853.059	383.6161
853.24	315.93698
853.422	306.71107
853.603	267.84567
853.784	262.50506
853.966	238.14635
854.147	274.73057
854.329	318.00255
854.51	254.21818
854.691	230.80021
854.873	336.46134
855.054	326.09873
855.235	260.62059
855.416	196.13243
855.598	325.98318
855.779	312.9478
855.96	260.96104
856.141	281.94965
856.323	256.97152
856.504	217.33462
856.685	170.50208
856.866	239.64458
857.047	129.59513
857.228	282.42609
857.409	209.92909
857.591	224.83734
857.772	206.97937
857.953	256.31429
858.134	204.33005
858.315	158.3743
858.496	173.63021
858.677	194.50218
858.858	245.84185
859.039	229.16757
859.22	188.28934
859.401	157.653
859.582	210.64922
859.762	183.84834
859.943	244.9552
860.124	163.45222
860.305	243.61498
860.486	90.39023
860.667	262.50272
860.848	228.65856
861.028	254.88795
861.209	228.26998
861.39	196.58917
861.571	246.84723
861.751	211.6914
861.932	195.69442
862.113	199.28322
862.293	135.62836
862.474	168.46147
862.655	109.94404
862.835	174.72722
863.016	256.33874
863.197	167.37282
863.377	240.03827
863.558	186.88799
863.738	218.25723
863.919	92.03174
864.099	216.74085
864.28	199.35468
864.46	228.05918
864.641	167.18778
864.821	213.61964
865.002	171.23564
865.182	127.55213
865.363	134.85371
865.543	161.98022
865.723	134.89803
865.904	191.8883
866.084	136.35931
866.264	145.69095
866.445	194.55756
866.625	168.54769
866.805	184.99831
866.986	138.15334
867.166	156.75422
867.346	167.40213
867.526	178.05336
867.707	175.37594
867.887	229.21489
868.067	156.37005
868.247	185.27042
868.427	132.86501
868.607	168.42845
868.788	139.11655
868.968	95.85376
869.148	99.87606
869.328	121.82987
869.508	132.51478
869.688	166.99789
869.868	215.56126
870.048	140.16423
870.228	179.92771
870.408	127.47907
870.588	119.46346
870.768	193.00908
870.948	180.77375
871.128	166.08356
871.307	43.65218
871.487	82.86471
871.667	110.59235
871.847	85.30638
872.027	163.62647
872.207	83.95492
872.387	190.75046
872.566	125.87251
872.746	179.22381
872.926	114.82565
873.106	151.71167
873.285	123.23512
873.465	147.66578
873.645	225.24787
873.824	169.85018
874.004	101.05159
874.184	146.84535
874.363	71.16187
874.543	117.77609
874.723	177.53634
874.902	50.28976
875.082	140.61893
875.261	107.56029
875.441	27.05759
875.62	111.14996
875.8	46.56859
875.979	58.32163
876.159	53.66284
876.338	168.06356
876.518	107.83398
876.697	16.24808
876.876	114.57646
877.056	131.24555
877.235	-18.07037
877.415	119.6578
877.594	10.26675
877.773	114.99542
877.953	46.16494
878.132	68.799
878.311	102.33893
878.49	145.00319
878.67	115.39614
878.849	118.74592
879.028	29.08336
879.207	149.70769
879.387	61.69082
879.566	113.02574
879.745	36.63056
879.924	97.43083
880.103	53.23636
880.282	138.295
880.461	38.8215
880.64	163.00864
880.819	109.39643
880.998	167.20147
881.178	154.96928
881.357	72.98371
881.536	142.51379
881.715	45.92527
881.893	71.67084
882.072	137.65852
882.251	65.0162
882.43	51.05456
882.609	135.89247
882.788	106.54373
882.967	111.2024
883.146	176.14162
883.325	38.62335
883.503	112.54609
883.682	52.14644
883.861	151.9174
884.04	127.44363
884.219	29.75329
884.397	69.01493
884.576	2.51091
884.755	111.71423
884.933	17.80356
885.112	22.01854
885.291	63.93565
885.469	114.82064
885.648	96.60433
885.827	43.95257
886.005	30.88292
886.184	61.49998
886.363	92.59571
886.541	31.99213
886.72	44.19273
886.898	42.19763
887.077	28.44288
887.255	37.77347
887.434	144.04907
887.612	111.53996
887.791	40.45279
887.969	81.10319
888.147	52.44649
888.326	12.943
888.504	71.56017
888.682	64.44815
888.861	44.01118
889.039	2.29093
889.218	10.49603
889.396	-1.92037
889.574	64.87565
889.752	97.80108
889.931	94.91022
890.109	56.67362
890.287	41.78792
890.465	61.53545
890.643	67.05213
890.822	39.05864
891	111.01694
891.178	101.23485
891.356	59.91702
891.534	120.36341
891.712	97.67363
891.89	99.65276
892.068	138.76258
892.247	100.75383
892.425	102.53374
892.603	84.10571
892.781	93.24241
892.959	49.51041
893.137	97.26748
893.314	41.30263
893.492	58.8436
893.67	-15.67495
893.848	57.29237
894.026	161.20172
894.204	75.29077
894.382	12.25456
894.56	48.66775
894.738	28.46652
894.915	89.33361
895.093	49.33394
895.271	9.17106
895.449	79.75977
895.626	-27.17068
895.804	8.51061
895.982	36.24882
896.16	39.35596
896.337	35.57864
896.515	93.1293
896.693	22.48092
896.87	-23.64795
897.048	65.79522
897.225	37.36554
897.403	-5.92019
897.581	3.39424
897.758	-18.56139
897.936	-5.48054
898.113	30.02274
898.291	53.35752
898.468	109.65168
898.646	-44.69824
898.823	-19.66056
899.001	-7.24537
899.178	104.05838
899.356	4.06308
899.533	112.71374
899.71	45.56078
899.888	71.57078
900.065	-3.48019
900.242	-33.62551
900.42	12.4895
900.597	61.12941
900.774	39.57122
900.952	32.46968
901.129	49.34951
901.306	-7.03712
901.483	-42.5285
901.661	6.05771
901.838	-59.16017
902.015	68.52592
902.192	9.39072
902.369	-36.77902
902.546	83.9324
902.723	-19.02398
902.901	-5.92616
903.078	45.87553
903.255	-52.08667
903.432	-1.04347
903.609	28.95234
903.786	65.89083
903.963	-16.13634
904.14	-65.15732
904.317	-3.04478
904.494	10.94226
904.671	-29.89786
904.848	0.29097
905.024	43.81226
905.201	68.96023
905.378	12.72013
905.555	5.17107
905.732	-27.66952
905.909	35.59626
906.086	-11.71118
906.262	-18.14833
906.439	76.31252
906.616	-48.54406
906.793	12.26732
906.969	50.7576
907.146	56.75591
907.323	14.48764
907.5	-40.55798
907.676	15.59163
907.853	-38.54437
908.03	17.59862
908.206	33.81908
908.383	38.04862
908.559	44.0506
908.736	44.0506
908.912	-64.03722
909.089	-60.27574
909.266	-9.25363
909.442	-133.80079
909.619	46.55914
909.795	-23.89359
909.972	6.0638
910.148	-30.11364
910.324	59.627
910.501	19.38469
910.677	-8.59003
910.854	77.19341
911.03	3.83685
911.206	83.64049
911.383	14.04227
911.559	-40.31265
911.735	43.14386
911.912	13.6158
912.088	1.18102
912.264	41.40086
912.44	4.06731
912.617	-79.34431
912.793	84.35054
912.969	16.06569
913.145	-24.57389
913.321	15.17155
913.498	-29.46955
913.674	50.32455
913.85	-10.37764
914.026	-50.32863
914.202	37.1927
914.378	33.18719
914.554	-18.37657
914.73	-8.37501
914.906	-39.23622
915.082	-14.59352
915.258	21.19122
915.434	-33.6739
915.61	6.29757
915.786	49.00406
915.962	-14.58589
916.138	4.52066
916.314	-20.36056
916.49	-42.10114
916.665	-18.7979
916.841	-37.88228
917.017	-53.40898
917.193	49.19904
917.369	31.406
917.545	20.96271
917.72	-35.20495
917.896	7.18869
918.072	19.39931
918.247	32.72937
918.423	-3.26104
918.599	89.4558
918.775	-39.88058
918.95	10.27853
919.126	55.18036
919.301	-44.09708
919.477	31.83177
919.653	-3.05921
919.828	1.82447
920.004	-28.57644
920.179	56.72448
920.355	-33.44362
920.53	1.38645
920.706	-11.93352
920.881	-68.49544
921.057	-14.599
921.232	-8.60776
921.408	5.16121
921.583	0.95394
921.759	1.60574
921.934	-43.9197
922.109	2.93329
922.285	-45.04892
922.46	-32.38517
922.635	-121.66532
922.811	-23.05725
922.986	20.25261
923.161	-44.5608
923.336	-69.82881
923.512	-66.7082
923.687	19.61153
923.862	-27.02002
924.037	75.88518
924.212	29.17196
924.388	11.18054
924.563	-82.00945
924.738	41.40615
924.913	-8.81857
925.088	-22.5844
925.263	11.16131
925.438	-75.39858
925.613	-29.92978
925.788	-66.52857
925.963	-26.60026
926.138	5.60496
926.313	-33.91139
926.488	0.27443
926.663	-11.93512
926.838	-33.92086
927.013	-17.93091
927.188	35.41762
927.363	13.62866
927.538	-20.14425
927.713	35.64529
927.888	10.07351
928.062	16.97127
928.237	14.96551
928.412	26.07672
928.587	-1.26146
928.761	-14.58377
928.936	34.51589
929.111	40.52409
929.286	6.51506
929.46	-23.91615
929.635	-6.81968
929.81	19.39854
929.984	-12.59734
930.159	-0.37873
930.334	-28.58344
930.508	113.66272
930.683	-14.37616
930.857	-47.01838
931.032	18.30932
931.206	28.95962
931.381	34.73809
931.556	-27.71034
931.73	-10.38622
931.904	43.39488
932.079	40.9504
932.253	-11.71853
932.428	-37.88415
932.602	37.60324
932.777	10.05059
932.951	26.71486
933.125	-57.85799
933.3	-56.97819
933.474	23.40881
933.648	45.43702
933.823	-73.38452
933.997	37.64771
934.171	-15.25297
934.345	50.55673
934.52	-25.91108
934.694	-10.81462
934.868	-41.2331
935.042	-1.92542
935.217	34.97296
935.391	21.8533
935.565	17.6084
935.739	6.05626
935.913	46.72805
936.087	-58.97503
936.261	-24.59612
936.435	30.06046
936.609	4.9394
936.783	-7.93906
936.957	-2.17405
937.131	24.27429
937.305	19.82865
937.479	16.28912
937.653	70.37838
937.827	24.753
938.001	-47.89808
938.175	-12.3723
938.349	-25.47259
938.523	-26.36522
938.697	4.96667
938.87	-14.58796
939.044	-49.89398
939.218	-25.24556
939.392	-4.36275
939.566	29.66061
939.739	-91.12816
939.913	-33.2423
940.087	18.5283
940.261	-133.62205
940.434	41.21314
940.608	-47.672
940.782	-56.54224
940.955	-30.81629
941.129	-34.37145
941.302	-66.76534
941.476	24.52228
941.65	-97.13176
941.823	-41.69145
941.997	32.7766
942.17	-9.70492
942.344	-23.02964
942.517	-49.23106
942.691	-54.77447
942.864	-114.142
943.038	-36.56986
943.211	-121.71709
943.385	-86.06532
943.558	-35.9234
943.731	-68.10279
943.905	-14.38026
944.078	-59.46955
944.251	-30.60805
944.425	-62.57564
944.598	-38.1554
944.771	-5.49848
944.945	64.37606
945.118	-17.04108
945.291	-43.01443
945.464	-26.58775
945.638	13.61452
945.811	7.83945
945.984	-31.67614
946.157	-4.37532
946.33	35.19423
946.503	-68.95752
946.677	-2.82781
946.85	-74.30534
947.023	-55.47682
947.196	27.19041
947.369	-35.71919
947.542	10.0822
947.715	-30.82689
947.888	-10.60148
948.061	-68.55896
948.234	-131.69754
948.407	-47.47299
948.58	-15.93449
948.753	25.87397
948.926	-47.70705
949.099	11.17065
949.271	-7.72874
949.444	-52.58233
949.617	3.16165
949.79	-2.83778
949.963	-28.82768
950.136	-92.70586
950.308	-7.05912
950.481	-22.15835
950.654	-54.56538
950.827	-5.70085
950.999	-97.3416
951.172	-58.10367
951.345	-48.55647
951.517	-59.63922
951.69	-22.13639
951.863	31.64709
952.035	-86.68247
952.208	42.09661
952.381	22.07992
952.553	44.54432
952.726	33.413
952.898	18.51808
953.071	-50.97059
953.243	5.18486
953.416	-62.73646
953.588	1.84584
953.761	-0.15335
953.933	-4.82126
954.106	-36.80977
954.278	-1.26102
954.45	-57.6574
954.623	-41.0195
954.795	-31.47176
954.967	-102.2295
955.14	-5.25293
955.312	-4.14078
955.484	19.85777
955.657	-13.03425
955.829	-0.81558
956.001	34.75478
956.173	38.09071
956.346	-29.68322
956.518	-84.68067
956.69	51.66887
956.862	20.96609
957.034	46.32482
957.207	-35.90897
957.379	-10.58994
957.551	39.89023
957.723	-28.59241
957.895	-1.93306
958.067	-39.02805
958.239	-8.82192
958.411	-38.80358
958.583	22.08413
958.755	-23.04145
958.927	12.07755
959.099	-31.25325
959.271	-10.37491
959.443	9.85724
959.615	-28.36635
959.787	-40.13965
959.959	-18.81572
960.13	-115.77451
960.302	-60.34004
960.474	16.31257
960.646	13.42087
960.818	23.87743
960.99	-150.0444
961.161	-56.1056
961.333	-7.91864
961.505	-56.09306
961.677	0.52335
961.848	-8.80832
962.02	8.30277
962.192	8.52746
962.363	-27.69006
962.535	24.52093
962.707	-30.58461
962.878	-20.5927
963.05	5.62341
963.221	-62.09183
963.393	-60.99361
963.564	-61.88412
963.736	61.47949
963.907	-46.36946
964.079	79.08084
964.25	15.84256
964.422	-124.62511
964.593	-27.71324
964.765	-34.37535
964.936	-0.60537
965.108	-26.83408
965.279	-82.76697
965.45	-4.60828
965.622	-10.16766
965.793	-11.05139
965.964	-83.65745
966.136	-66.33328
966.307	-3.48447
966.478	-14.82162
966.65	-57.92069
966.821	-105.37015
966.992	-32.15353
967.163	-113.32767
967.334	-29.25482
967.506	-36.79351
967.677	-5.26011
967.848	38.31101
968.019	-22.14279
968.19	24.2813
968.361	-55.86792
968.532	4.51226
968.703	35.18608
968.874	2.95791
969.045	24.06428
969.216	10.95568
969.387	-5.03512
969.558	67.20197
969.729	8.06114
969.9	23.40143
970.071	14.95824
970.242	-20.57311
970.413	18.51002
970.584	3.17253
970.755	-60.50078
970.926	-19.02931
971.097	-56.7395
971.267	-61.18942
971.438	-51.43547
971.609	-76.05227
971.78	-37.45866
971.951	-20.5871
972.121	-51.42773
972.292	-40.36584
972.463	-3.04901
972.633	10.94736
972.804	66.57473
972.975	-84.47838
973.145	26.50356
973.316	-32.5931
973.487	-108.21628
973.657	-74.31738
973.828	-49.26507
973.998	-22.17278
974.169	12.06847
974.339	-33.04153
974.51	-51.00374
974.68	-5.94116
974.851	-78.054
975.021	-48.34111
975.192	-29.70262
975.362	-9.48383
975.533	9.84091
975.703	52.74293
975.874	-82.01219
976.044	53.19475
976.214	-10.15072
976.385	7.3994
976.555	-82.89278
976.725	59.44654
976.896	12.72854
977.066	24.05869
977.236	55.19781
977.406	21.17621
977.577	15.62913
977.747	-39.90554
977.917	-3.93319
978.087	-18.37696
978.257	-31.27056
978.427	13.61757
978.598	8.72415
978.768	30.53397
978.938	-31.48549
979.108	-80.51569
979.278	-4.60673
979.448	-37.70125
979.618	-21.266
979.788	-33.47835
979.958	-15.04261
980.128	-13.92895
980.298	-34.14248
980.468	12.52076
980.638	4.07052
980.808	-46.35432
980.978	-49.23927
981.148	-85.14713
981.317	-92.24072
981.487	-17.93197
981.657	-25.48439
981.827	-14.38559
981.997	15.18715
982.167	2.29074
982.336	-33.4755
982.506	-74.28508
982.676	-14.81249
982.846	-56.32814
983.015	0.29652
983.185	-35.47625
983.355	44.57301
983.524	-71.64223
983.694	-45.22393
983.864	-5.47409
984.033	-60.08201
984.203	-43.66195
984.372	51.24202
984.542	56.11777
984.712	21.18602
984.881	-12.82404
985.051	-26.35921
985.22	-30.3571
985.39	-38.58197
985.559	-14.60897
985.728	6.93496
985.898	33.82667
986.067	-43.45041
986.237	34.05273
986.406	36.06442
986.576	-10.371
986.745	73.24738
986.914	-8.3689
987.084	-25.69916
987.253	11.39128
987.422	0.50579
987.591	-41.00503
987.761	-39.89325
987.93	-30.795
988.099	-46.7769
988.268	52.07323
988.438	-32.58098
988.607	31.39356
988.776	37.19187
988.945	-23.24644
989.114	-4.59434
989.283	-2.36954
989.452	2.73882
989.621	-75.35303
989.791	8.96197
989.96	71.01872
990.129	-27.89643
990.298	-17.90534
990.467	2.0838
990.636	23.85993
990.805	2.5289
990.974	-80.43193
991.142	-1.46836
991.311	-58.93354
991.48	24.74315
991.649	-15.23216
991.818	-45.17179
991.987	-79.72526
992.156	12.74081
992.325	-57.35597
992.493	-33.22099
992.662	68.54224
992.831	20.95051
993	-16.14413
993.168	16.0613
993.337	-40.55647
993.506	-72.04156
993.675	-14.59305
993.843	42.09082
994.012	-17.70402
994.181	-23.91646
994.349	-64.06608
994.518	-10.37241
994.686	56.75148
994.855	-17.47547
995.024	67.89473
995.192	-17.92814
995.361	25.85357
995.529	-45.93869
995.698	-87.83798
995.866	-77.86841
996.035	-40.60651
996.203	3.81558
996.371	28.75433
996.54	-73.70425
996.708	11.4024
996.877	-58.60124
997.045	-20.40002
997.213	-42.3922
997.382	3.84874
997.55	-23.03793
997.718	16.97568
997.887	-105.32281
998.055	-32.56568
998.223	9.19088
998.391	-55.17861
998.56	8.96889
998.728	-54.95762
998.896	1.85771
999.064	46.54752
999.232	-35.66381
999.401	28.30594
999.569	-76.44855
999.737	35.42065
999.905	25.41331
1000.073	62.79664
1000.241	-39.88981
1000.409	-4.81158
1000.577	-32.78623
1000.745	41.41486
1000.913	13.83429
1001.081	7.6159
1001.249	-30.78627
1001.417	-49.45267
1001.585	51.41891
1001.753	-6.8332
1001.921	-10.39285
1002.089	16.0463
1002.256	-33.2633
1002.424	5.60229
1002.592	-6.83696
1002.76	6.96218
1002.928	-7.04175
1003.096	-29.47789
1003.263	21.42473
1003.431	7.41592
1003.599	11.41899
1003.767	33.43359
1003.934	-19.68271
1004.102	-11.9116
1004.27	-17.24131
1004.437	26.08924
1004.605	0.74854
1004.773	19.84981
1004.94	22.96563
1005.108	-47.44904
1005.275	-47.44904
1005.443	-68.99037
1005.61	-19.49581
1005.778	-11.94766
1005.945	-99.85023
1006.113	-9.94247
1006.28	-122.67498
1006.448	-39.49903
1006.615	-25.03874
1006.783	-88.05594
1006.95	10.74871
1007.118	33.22232
1007.285	-102.66592
1007.452	-72.51561
1007.62	32.77311
1007.787	27.42665
1007.954	29.20408
1008.122	-39.89523
1008.289	-35.69069
1008.456	-61.43809
1008.623	-45.2449
1008.791	-17.03904
1008.958	11.63079
1009.125	9.18405
1009.292	-21.93152
1009.459	83.97741
1009.627	-14.15536
1009.794	-25.70751
1009.961	-35.46392
1010.128	-7.47876
1010.295	-5.06137
1010.462	44.08662
1010.629	-80.09593
1010.796	-36.16901
1010.963	-27.9486
1011.13	-22.83952
1011.297	42.29907
1011.464	10.48595
1011.631	-2.62621
1011.798	69.45999
1011.965	21.17074
1012.132	25.41078
1012.299	-63.40967
1012.466	49.00684
1012.633	-30.36171
1012.799	6.30106
1012.966	-64.77575
1013.133	62.41159
1013.3	-91.62182
1013.467	-38.1399
1013.633	-4.58445
1013.8	-32.80118
1013.967	-5.92412
1014.134	-47.25694
1014.3	-88.95511
1014.467	-79.64461
1014.634	-64.5774
1014.8	-25.71876
1014.967	-49.47871
1015.134	-41.92855
1015.3	4.49144
1015.467	-41.26126
1015.633	63.02347
1015.8	-6.83267
1015.966	-15.26596
1016.133	-25.2599
1016.3	17.84757
1016.466	-31.90041
1016.632	-29.91699
1016.799	-18.81353
1016.965	-21.47861
1017.132	-49.45153
1017.298	-50.58243
1017.465	25.4291
1017.631	-2.60431
1017.797	-47.24977
1017.964	12.28544
1018.13	58.35454
1018.296	2.49918
1018.463	-6.16669
1018.629	-37.48885
1018.795	-74.11225
1018.961	-67.69609
1019.128	-10.38372
1019.294	-72.30629
1019.46	-41.0335
1019.626	18.74551
1019.792	18.07989
1019.959	-125.49104
1020.125	-84.26574
1020.291	-44.36402
1020.457	-9.9399
1020.623	-59.46485
1020.789	-22.37804
1020.955	-26.82792
1021.121	-34.15628
1021.287	2.95295
1021.453	-40.38342
1021.619	-77.00974
1021.785	-21.71895
1021.951	-98.07308
1022.117	-10.37679
1022.283	17.42567
1022.449	-38.58092
1022.615	-10.15174
1022.781	-83.58749
1022.946	6.29822
1023.112	47.00507
1023.278	-79.57526
1023.444	21.86169
1023.61	-44.53834
1023.775	-18.13269
1023.941	6.74658
1024.107	-40.75696
1024.273	77.28209
1024.438	9.41836
1024.604	-69.38052
1024.77	-2.80233
1024.935	-23.89692
1025.101	-53.44859
1025.267	-5.27175
1025.432	14.95907
1025.598	-88.26984
1025.763	23.18757
1025.929	-25.71866
1026.095	-40.3726
1026.26	11.61458
1026.426	-53.26981
1026.591	-66.82898
1026.757	-6.8446
1026.922	-69.67584
1027.087	-41.06264
1027.253	-32.61939
1027.418	-66.12505
1027.584	-49.49586
1027.749	-26.41105
1027.914	-104.07588
1028.08	7.82379
1028.245	-47.94179
1028.41	25.62446
1028.576	-25.06442
1028.741	-59.01905
1028.906	-42.14036
1029.072	-45.69219
1029.237	-23.72043
1029.402	-22.8271
1029.567	-27.04208
1029.732	-3.04622
1029.898	-27.47902
1030.063	22.06983
1030.228	-34.58202
1030.393	6.96374
1030.558	-11.26264
1030.723	-103.98508
1030.888	-21.48733
1031.053	-41.25138
1031.218	-81.83864
1031.383	4.96168
1031.548	-57.27184
1031.713	-41.05647
1031.878	-21.72805
1032.043	48.37259
1032.208	-54.15583
1032.373	-6.83706
1032.538	10.29427
1032.703	-10.6123
1032.868	12.29273
1033.033	-47.24893
1033.198	-18.81725
1033.362	-29.4618
1033.527	-67.85463
1033.692	-54.77406
1033.857	-6.37106
1034.021	-26.80693
1034.186	58.37377
1034.351	-64.99191
1034.516	-82.29432
1034.68	-46.57803
1034.845	-71.20555
1035.01	-44.1347
1035.174	-8.81471
1035.339	-42.56697
1035.504	-17.02495
1035.668	-54.5586
1035.833	-90.50873
1035.997	35.20164
1036.162	-47.90718
1036.326	-49.24115
1036.491	-65.46487
1036.655	-0.17533
1036.82	-5.06377
1036.984	-139.7264
1037.149	-14.84761
1037.313	-68.82166
1037.478	-3.9467
1037.642	-57.46999
1037.807	21.43127
1037.971	-28.39114
1038.135	-2.16748
1038.3	-91.8442
1038.464	-31.71944
1038.628	-25.27624
1038.792	34.32763
1038.957	-60.12577
1039.121	-39.04351
1039.285	-7.94375
1039.449	-42.82179
1039.614	-20.38981
1039.778	-30.82523
1039.942	-26.59701
1040.106	-39.47022
1040.27	-16.36874
1040.434	-38.7911
1040.599	-11.47588
1040.763	34.5209
1040.927	56.09763
1041.091	-0.15239
1041.255	-44.313
1041.419	-79.12673
1041.583	-5.25324
1041.747	-39.88194
1041.911	14.07387
1042.075	-35.22719
1042.239	34.53106
1042.403	-49.2187
1042.567	-31.46166
1042.731	-25.69776
1042.894	-15.70174
1043.058	-23.69627
1043.222	-66.73702
1043.386	4.29981
1043.55	-10.36717
1043.714	43.66334
1043.877	-8.37295
1044.041	-66.04762
1044.205	-55.40547
1044.369	-44.79379
1044.532	8.94422
1044.696	-22.82051
1044.86	-7.27919
1045.023	-0.39129
1045.187	-51.12904
1045.351	-49.63966
1045.514	-65.17174
1045.678	4.53232
1045.841	-17.75447
