Data from 3_57 pm cloudy_Subt2__5__16-00-08-088.txt Node

Date: Tue Oct 07 16:00:08 EDT 2025
User: brett
Spectrometer: USB4F03499
Trigger mode: 4
Integration Time (sec): 1.000000E-2
Scans to average: 10
Electric dark correction enabled: true
Nonlinearity correction enabled: true
Boxcar width: 0
XAxis mode: Wavelengths
Number of Pixels in Spectrum: 3648
>>>>>Begin Spectral Data<<<<<
345.386	-0.3358
345.605	-0.3358
345.824	-0.3358
346.044	-4.03093
346.263	-13.7705
346.482	-13.54222
346.701	1.0069
346.92	-2.01533
347.139	13.98818
347.358	-10.51969
347.577	24.84315
347.796	-6.3801
348.015	-2.01434
348.234	-0.22382
348.453	7.94864
348.672	-2.46168
348.891	-10.6344
349.11	-17.3462
349.329	134.56388
349.548	184.18724
349.767	190.26634
349.986	209.2683
350.205	210.96186
350.424	209.36292
350.643	195.24566
350.862	203.23524
351.08	187.90902
351.299	199.50503
351.518	204.75689
351.737	202.01011
351.956	203.71222
352.174	197.55334
352.393	208.32574
352.612	224.83429
352.831	222.73982
353.049	215.37905
353.268	219.90307
353.487	217.9668
353.705	220.43873
353.924	230.34587
354.143	228.03389
354.361	220.88309
354.58	222.27805
354.798	223.00628
355.017	237.50202
355.236	234.5397
355.454	228.27475
355.673	245.54795
355.891	244.20671
356.11	236.3198
356.328	249.98691
356.547	240.7563
356.765	244.19117
356.984	249.82547
357.202	256.59409
357.42	255.70328
357.639	256.56118
357.857	248.25982
358.076	263.71591
358.294	248.726
358.512	270.11675
358.731	267.82992
358.949	260.21274
359.167	260.02
359.386	269.15786
359.604	261.27836
359.822	257.53551
360.04	281.01268
360.259	294.21748
360.477	272.29976
360.695	262.18739
360.913	279.7415
361.131	273.14926
361.35	281.84098
361.568	277.72675
361.786	267.81492
362.004	266.87785
362.222	286.39099
362.44	278.42408
362.658	279.91733
362.876	272.91328
363.094	271.21651
363.312	275.76237
363.53	264.63723
363.749	279.84821
363.967	258.45849
364.184	284.965
364.402	280.37441
364.62	283.53257
364.838	283.35416
365.056	273.12386
365.274	302.33636
365.492	285.93908
365.71	280.47378
365.928	282.93728
366.146	298.53686
366.364	290.98237
366.581	314.7625
366.799	313.30073
367.017	309.40013
367.235	324.24491
367.453	338.76034
367.67	342.72002
367.888	330.27367
368.106	341.66165
368.323	330.89726
368.541	340.66398
368.759	344.37458
368.977	356.41347
369.194	346.28274
369.412	365.99858
369.629	365.90526
369.847	361.57875
370.065	369.69259
370.282	387.49542
370.5	379.23724
370.717	387.3678
370.935	412.16212
371.152	394.67913
371.37	417.14396
371.588	410.40934
371.805	423.394
372.022	413.13148
372.24	432.07872
372.457	429.48845
372.675	433.2496
372.892	428.2294
373.11	426.53315
373.327	446.08861
373.544	437.65913
373.762	447.54584
373.979	421.18401
374.196	454.59441
374.414	435.92793
374.631	457.51604
374.848	452.11321
375.066	424.85624
375.283	446.08607
375.5	447.6676
375.717	449.88463
375.935	477.016
376.152	471.82345
376.369	466.6684
376.586	448.03455
376.803	454.76998
377.02	450.14779
377.238	465.24261
377.455	460.48707
377.672	470.33386
377.889	453.88972
378.106	453.03264
378.323	475.21408
378.54	473.05049
378.757	475.58707
378.974	452.51878
379.191	469.46777
379.408	496.7167
379.625	474.43315
379.842	457.57918
380.059	477.32736
380.276	491.63284
380.493	475.52208
380.71	476.2401
380.927	488.05551
381.143	485.9083
381.36	504.90392
381.577	507.87624
381.794	496.42911
382.011	496.9057
382.228	501.548
382.444	521.43419
382.661	491.23262
382.878	491.19862
383.095	517.85999
383.311	501.85377
383.528	489.87258
383.745	518.40714
383.962	544.37853
384.178	524.20315
384.395	532.20067
384.612	551.49456
384.828	544.58544
385.045	531.4789
385.261	545.60492
385.478	548.48227
385.695	527.27311
385.911	548.10273
386.128	556.75324
386.344	557.98934
386.561	558.47548
386.777	543.04924
386.994	551.1548
387.21	534.07314
387.427	544.70522
387.643	551.0309
387.86	537.02658
388.076	535.4161
388.292	539.605
388.509	523.90741
388.725	534.18775
388.942	565.68104
389.158	555.64914
389.374	553.95489
389.591	555.18901
389.807	521.14036
390.023	575.86748
390.239	556.33071
390.456	574.43558
390.672	580.011
390.888	581.52216
391.104	568.69805
391.321	580.6776
391.537	585.2036
391.753	590.41934
391.969	619.346
392.185	611.0014
392.401	618.17223
392.618	607.20351
392.834	624.33017
393.05	646.93983
393.266	653.60352
393.482	656.05665
393.698	641.73269
393.914	643.47394
394.13	665.86589
394.346	675.24272
394.562	656.96505
394.778	656.40468
394.994	705.92146
395.21	718.73185
395.426	694.25546
395.642	709.11386
395.858	727.32144
396.073	714.33148
396.289	734.96493
396.505	753.02594
396.721	742.92541
396.937	765.21314
397.153	729.94243
397.369	739.30001
397.584	778.94138
397.8	760.749
398.016	757.7607
398.232	790.29257
398.447	777.76005
398.663	813.1909
398.879	781.29534
399.094	813.98306
399.31	820.74805
399.526	825.82021
399.741	839.22755
399.957	830.50895
400.173	840.51468
400.388	856.97936
400.604	853.46998
400.82	866.43528
401.035	904.49093
401.251	919.04229
401.466	931.84975
401.682	935.25304
401.897	998.9273
402.113	979.87926
402.328	1001.82141
402.544	1016.754
402.759	1019.16065
402.974	1054.0831
403.19	1072.85677
403.405	1147.1075
403.621	1193.45231
403.836	1168.49945
404.051	1242.04263
404.267	1246.84531
404.482	1232.73478
404.697	1247.2987
404.913	1281.38085
405.128	1365.55577
405.343	1354.16168
405.559	1360.64755
405.774	1392.67482
405.989	1452.36441
406.204	1462.54938
406.42	1500.36243
406.635	1501.34527
406.85	1508.38583
407.065	1556.19769
407.28	1585.77405
407.495	1616.10681
407.71	1587.03967
407.926	1627.15047
408.141	1753.87877
408.356	1731.27585
408.571	1692.4601
408.786	1716.46466
409.001	1752.05412
409.216	1821.03658
409.431	1835.61409
409.646	1811.3307
409.861	1801.82229
410.076	1831.05533
410.291	1839.34905
410.506	1905.08191
410.721	1849.21286
410.936	1885.26954
411.15	1874.41039
411.365	1903.43009
411.58	1924.81773
411.795	1928.97477
412.01	2025.93413
412.225	1995.44568
412.439	1934.32458
412.654	1973.94692
412.869	2002.91342
413.084	1998.9219
413.299	2056.18576
413.513	1973.12469
413.728	2024.49034
413.943	2097.31364
414.157	2101.37284
414.372	2130.23765
414.587	2134.07218
414.801	2233.20932
415.016	2198.7739
415.231	2235.51915
415.445	2234.86684
415.66	2252.75764
415.874	2295.09595
416.089	2233.01834
416.304	2321.29982
416.518	2320.79286
416.733	2331.57509
416.947	2299.25803
417.162	2329.39248
417.376	2392.47146
417.59	2455.75443
417.805	2477.42172
418.019	2416.60066
418.234	2412.79273
418.448	2371.00674
418.663	2475.0103
418.877	2455.08199
419.091	2485.4186
419.306	2467.29672
419.52	2508.4165
419.734	2493.74402
419.949	2626.01695
420.163	2595.61791
420.377	2519.94438
420.591	2575.38595
420.806	2602.38753
421.02	2541.75585
421.234	2635.07026
421.448	2639.44401
421.663	2630.64555
421.877	2623.9191
422.091	2593.01604
422.305	2574.24942
422.519	2595.89906
422.733	2732.48265
422.947	2637.07202
423.161	2620.12841
423.376	2657.66974
423.59	2696.43452
423.804	2702.6806
424.018	2701.91139
424.232	2692.2596
424.446	2807.74408
424.66	2768.97898
424.874	2725.22202
425.088	2652.1641
425.302	2723.31764
425.515	2824.22178
425.729	2841.66392
425.943	2847.70783
426.157	2854.91819
426.371	2792.3895
426.585	2831.41313
426.799	2834.50062
427.013	2979.03214
427.226	2975.44897
427.44	2806.79436
427.654	2853.96471
427.868	2822.81616
428.081	2904.20415
428.295	2852.92649
428.509	2855.02822
428.723	2844.30052
428.936	2903.62539
429.15	2788.54884
429.364	2875.42693
429.577	2743.9906
429.791	2835.87659
430.005	2966.70869
430.218	2937.17151
430.432	2776.25927
430.645	2797.91108
430.859	2841.47681
431.073	2852.52346
431.286	2944.74288
431.5	2974.15168
431.713	2828.40241
431.927	2822.83979
432.14	2894.84381
432.354	2848.62342
432.567	2857.4034
432.781	2951.45492
432.994	2932.09067
433.207	2984.62917
433.421	3004.83703
433.634	2966.66035
433.848	3039.47916
434.061	2935.1081
434.274	2836.65253
434.488	2898.0439
434.701	2855.7838
434.914	2901.24
435.127	2966.73558
435.341	2988.66836
435.554	2999.58015
435.767	3107.3295
435.98	3119.67183
436.194	2956.3142
436.407	2981.88471
436.62	3231.27425
436.833	3208.69754
437.046	3115.41746
437.259	3009.47843
437.473	3143.10898
437.686	3190.46343
437.899	3134.03881
438.112	3229.23699
438.325	3113.7376
438.538	3180.32051
438.751	3417.33225
438.964	3269.31075
439.177	3260.87503
439.39	3275.30975
439.603	3505.03218
439.816	3388.97984
440.029	3548.42257
440.242	3657.81419
440.455	3688.01206
440.668	3637.23167
440.881	3497.24831
441.094	3434.12836
441.306	3664.53126
441.519	3818.58507
441.732	3828.6463
441.945	3837.98349
442.158	3678.28268
442.37	3614.30842
442.583	3896.62025
442.796	3998.62377
443.009	3978.14082
443.222	3781.99112
443.434	3693.53219
443.647	4014.57361
443.86	4185.05819
444.072	4222.42409
444.285	4103.06344
444.498	4173.51915
444.71	4078.0297
444.923	4103.19645
445.136	4071.15044
445.348	3982.51737
445.561	4051.04605
445.773	4060.05281
445.986	3879.04776
446.198	4223.81976
446.411	4225.14761
446.623	4301.4771
446.836	4273.61975
447.048	4297.03066
447.261	4457.81756
447.473	4460.98053
447.686	4276.91538
447.898	4314.8372
448.11	4582.32281
448.323	4654.28726
448.535	4559.78911
448.748	4354.04448
448.96	4409.08755
449.172	4355.19245
449.385	4248.89437
449.597	4508.32806
449.809	4551.83981
450.021	4647.54959
450.234	4721.20164
450.446	4460.16554
450.658	4487.91648
450.87	4506.37944
451.083	4660.25459
451.295	4684.93241
451.507	4625.80065
451.719	4577.74656
451.931	4735.62179
452.143	4705.1046
452.356	4623.5264
452.568	4706.87174
452.78	4747.64084
452.992	4845.71641
453.204	4963.36884
453.416	4760.83539
453.628	4642.61896
453.84	4738.83824
454.052	4731.99258
454.264	4928.35646
454.476	4902.97092
454.688	5105.67845
454.9	5157.72265
455.112	4844.92493
455.324	4806.74356
455.536	4991.59115
455.747	5061.37215
455.959	5016.51008
456.171	5124.594
456.383	4988.62898
456.595	4833.54508
456.807	4907.95329
457.018	4867.74852
457.23	5049.31014
457.442	4979.75257
457.654	5109.40572
457.865	5050.45699
458.077	4872.10442
458.289	4920.30916
458.501	4985.49869
458.712	5290.64551
458.924	5452.32345
459.136	5141.07403
459.347	5060.86884
459.559	5121.64664
459.77	5349.92166
459.982	5384.2565
460.194	5402.64132
460.405	5092.36706
460.617	5137.39718
460.828	5394.84725
461.04	5356.83023
461.251	5265.73194
461.463	5691.74184
461.674	5552.3884
461.886	5480.2068
462.097	5322.77654
462.309	5500.93403
462.52	5293.29304
462.731	5706.58029
462.943	5334.2555
463.154	5256.13186
463.366	5343.07158
463.577	5525.65729
463.788	5721.40465
464	5740.10054
464.211	5763.48533
464.422	6063.04942
464.634	5980.39563
464.845	5925.97738
465.056	6043.28142
465.267	5976.77521
465.478	5717.40572
465.69	5952.77008
465.901	5950.79834
466.112	5984.7634
466.323	6046.16275
466.534	6163.13335
466.745	6234.51879
466.957	6227.76215
467.168	6167.23088
467.379	6188.25877
467.59	5984.93946
467.801	5881.28059
468.012	6143.14941
468.223	6236.36245
468.434	6126.46744
468.645	6477.60483
468.856	6638.89584
469.067	6443.28734
469.278	6480.91422
469.489	6557.44676
469.7	6279.25067
469.911	6214.74944
470.122	6720.80797
470.333	6900.29474
470.543	6495.73974
470.754	6700.48379
470.965	6724.03824
471.176	6726.27801
471.387	6998.43249
471.598	6795.34301
471.808	6783.41043
472.019	6863.62384
472.23	6909.03716
472.441	6715.02711
472.651	6918.51455
472.862	6828.65084
473.073	7135.91969
473.283	7023.17596
473.494	6926.69373
473.705	6955.18558
473.915	7069.47865
474.126	7321.77916
474.337	7270.24017
474.547	7435.65005
474.758	7558.7419
474.968	7445.78167
475.179	7497.04612
475.389	7430.92171
475.6	7575.09795
475.81	7644.19107
476.021	7827.74121
476.231	7905.15057
476.442	7840.22356
476.652	7583.61712
476.863	7764.86712
477.073	7734.43883
477.284	8004.64133
477.494	7933.44636
477.704	8362.15048
477.915	8519.431
478.125	8039.59179
478.335	8335.11155
478.546	8613.00837
478.756	8441.00353
478.966	8707.7722
479.177	8641.8141
479.387	8783.29933
479.597	8720.29851
479.807	8830.95705
480.018	8720.45911
480.228	8979.14978
480.438	8983.85444
480.648	9172.6496
480.858	9248.90323
481.068	8874.47787
481.279	9219.11594
481.489	9669.66184
481.699	9522.81782
481.909	9491.3051
482.119	10059.78443
482.329	10017.31312
482.539	9945.28964
482.749	9756.09591
482.959	10001.58325
483.169	10370.59743
483.379	10320.6005
483.589	10429.84407
483.799	10376.69938
484.009	10233.55762
484.219	10453.11897
484.429	10625.08665
484.639	10458.48101
484.849	10714.59375
485.059	10870.77679
485.268	11014.45313
485.478	11076.77261
485.688	10773.81826
485.898	10819.56213
486.108	11063.01368
486.317	11223.47217
486.527	11262.04642
486.737	11503.57909
486.947	11499.15293
487.156	11633.13064
487.366	11613.81098
487.576	11326.18383
487.785	11459.26368
487.995	11407.05613
488.205	11642.62382
488.414	11723.76441
488.624	11700.03886
488.834	11774.96918
489.043	11630.75886
489.253	11559.64646
489.462	11854.59762
489.672	12069.70598
489.882	12096.68218
490.091	12231.72465
490.301	12146.37531
490.51	12192.74964
490.72	12289.8869
490.929	12418.89548
491.138	12540.39684
491.348	12351.63358
491.557	12456.36944
491.767	12539.11626
491.976	12575.64205
492.185	12591.87131
492.395	12633.7565
492.604	12758.23214
492.813	12771.96647
493.023	12955.88872
493.232	12874.58796
493.441	12818.22995
493.651	13067.66263
493.86	12764.08574
494.069	12987.00645
494.278	13080.85038
494.488	13151.05208
494.697	13170.31145
494.906	13091.61686
495.115	13323.70942
495.324	13183.53677
495.533	13457.67188
495.743	13574.53937
495.952	13818.96793
496.161	13696.22795
496.37	13832.88519
496.579	13918.31861
496.788	13921.76671
496.997	14206.42303
497.206	13943.21066
497.415	14082.3153
497.624	14140.64007
497.833	14253.60745
498.042	14355.92191
498.251	14477.1307
498.46	14528.01668
498.669	14501.1318
498.878	14477.84899
499.087	14526.07134
499.296	14877.59661
499.504	14896.91046
499.713	14782.28476
499.922	14854.4039
500.131	14913.37411
500.34	15017.71767
500.549	15015.3345
500.757	14898.45823
500.966	15062.62821
501.175	15090.2785
501.384	15259.55414
501.592	15099.13019
501.801	15193.23503
502.01	15238.61097
502.218	15175.49084
502.427	15320.30671
502.636	15287.27421
502.844	15389.21755
503.053	15296.25942
503.262	15325.93575
503.47	15343.35936
503.679	15383.66789
503.887	15359.45469
504.096	15468.0796
504.304	15402.62868
504.513	15539.38578
504.721	15420.97859
504.93	15406.30818
505.138	15580.79651
505.347	15526.77925
505.555	15463.58742
505.764	15578.30702
505.972	15643.90146
506.18	15445.69166
506.389	15482.18654
506.597	15460.76908
506.806	15631.85699
507.014	15692.0738
507.222	15566.31909
507.431	15603.39557
507.639	15517.54407
507.847	15762.81033
508.055	15722.11792
508.264	15668.11772
508.472	15788.62878
508.68	15731.42167
508.888	15873.97298
509.096	15810.88756
509.305	15833.68207
509.513	15799.37938
509.721	15856.54015
509.929	15943.60761
510.137	15796.46368
510.345	15915.19345
510.553	15874.46113
510.762	15928.44486
510.97	15902.44121
511.178	16043.71688
511.386	16144.96889
511.594	16115.48136
511.802	16145.14043
512.01	16178.78795
512.218	16190.29886
512.426	16350.26172
512.634	16267.35767
512.842	16348.51086
513.049	16344.76636
513.257	16315.9975
513.465	16511.67685
513.673	16523.43661
513.881	16548.80082
514.089	16571.6257
514.297	16585.8972
514.504	16558.15586
514.712	16627.07065
514.92	16774.76896
515.128	16858.31058
515.336	16700.08584
515.543	16724.4942
515.751	16866.42862
515.959	16742.54275
516.166	16644.27928
516.374	16761.39025
516.582	16861.38421
516.789	16842.79999
516.997	16813.11368
517.205	16770.4431
517.412	16893.51955
517.62	16847.25614
517.827	16882.90258
518.035	16848.40744
518.243	16769.83662
518.45	16674.94599
518.658	16630.97999
518.865	16737.12058
519.073	16755.21402
519.28	16619.62278
519.488	16660.04304
519.695	16506.16584
519.902	16578.51102
520.11	16540.67802
520.317	16757.47774
520.525	16649.64711
520.732	16514.40931
520.939	16632.21727
521.147	16415.10908
521.354	16573.41189
521.561	16561.23425
521.769	16558.56442
521.976	16420.81773
522.183	16623.90681
522.391	16453.22041
522.598	16618.65905
522.805	16591.66449
523.012	16578.04059
523.219	16623.39383
523.427	16727.94936
523.634	16672.9293
523.841	16757.46479
524.048	16654.31156
524.255	16814.68099
524.462	16762.06384
524.669	16611.49062
524.877	16872.16829
525.084	16737.61986
525.291	16789.54358
525.498	16907.94009
525.705	16942.53144
525.912	16984.52981
526.119	16886.99062
526.326	16912.74544
526.533	17026.50116
526.74	17114.26246
526.947	17079.24588
527.153	17151.70536
527.36	17201.94598
527.567	17108.82922
527.774	17163.22609
527.981	17087.53328
528.188	17157.51184
528.395	17328.98086
528.602	17204.30277
528.808	17288.66613
529.015	17256.74011
529.222	17432.91909
529.429	17241.85811
529.635	17403.37429
529.842	17440.19438
530.049	17325.49479
530.256	17353.80298
530.462	17503.62544
530.669	17468.06123
530.876	17472.22458
531.082	17486.98934
531.289	17541.83164
531.495	17520.87552
531.702	17674.46421
531.909	17628.75868
532.115	17821.48679
532.322	17616.98796
532.528	17636.64048
532.735	17706.13457
532.941	17757.15302
533.148	17713.41668
533.354	17684.61952
533.561	17846.05925
533.767	17726.67332
533.974	17689.87346
534.18	17806.44845
534.387	17733.03676
534.593	17712.93219
534.799	17757.75703
535.006	17827.81521
535.212	17791.0445
535.418	17861.72016
535.625	17923.44596
535.831	17823.75179
536.037	17742.37366
536.244	17895.72144
536.45	17587.97304
536.656	17708.76925
536.862	17879.35672
537.068	17905.03233
537.275	17934.51206
537.481	17892.75999
537.687	18044.28031
537.893	18058.79688
538.099	18010.04817
538.305	18010.19133
538.512	18056.62902
538.718	18004.17647
538.924	17978.24692
539.13	17939.69263
539.336	18016.0051
539.542	18039.461
539.748	18153.83599
539.954	18023.01644
540.16	18120.97838
540.366	18082.35975
540.572	18117.27201
540.778	18051.04239
540.984	18077.41078
541.19	18033.99084
541.396	17985.44985
541.602	18101.10983
541.807	17994.11913
542.013	18056.86153
542.219	17834.64821
542.425	17937.80687
542.631	17895.89963
542.837	17798.4196
543.042	17914.3657
543.248	17897.20986
543.454	17843.87286
543.66	17857.6791
543.865	17711.38677
544.071	17906.05165
544.277	17712.37328
544.483	17725.5368
544.688	17810.41916
544.894	17857.38601
545.1	17901.32951
545.305	17741.06114
545.511	17894.20723
545.716	17801.10105
545.922	17752.36757
546.128	17755.94763
546.333	17724.5391
546.539	17878.40002
546.744	17762.2446
546.95	17787.25114
547.155	17697.4023
547.361	17821.03153
547.566	17618.80475
547.772	17727.07404
547.977	17760.30093
548.182	17625.12593
548.388	17713.08497
548.593	17752.83921
548.799	17634.20298
549.004	17602.80708
549.209	17642.70877
549.415	17761.41058
549.62	17628.53974
549.825	17699.36342
550.031	17595.96757
550.236	17757.01461
550.441	17752.04721
550.646	17738.21205
550.852	17828.8209
551.057	17644.13519
551.262	17825.9996
551.467	17843.09087
551.672	17685.48444
551.878	17844.0724
552.083	17706.40077
552.288	17783.26398
552.493	17758.98389
552.698	17713.44908
552.903	17751.25071
553.108	17890.62232
553.313	17877.5396
553.518	17793.15727
553.723	17910.55109
553.928	17944.3121
554.133	17871.09153
554.338	17896.69787
554.543	18009.39697
554.748	17876.81075
554.953	17974.70338
555.158	17998.12709
555.363	18004.92375
555.568	17841.23931
555.773	18138.96016
555.978	18060.86237
556.182	17988.95487
556.387	17939.43691
556.592	17926.12153
556.797	18079.0745
557.002	18049.68822
557.206	18021.14645
557.411	18046.76821
557.616	17938.9906
557.821	18152.25566
558.025	18079.78091
558.23	18085.01469
558.435	18076.22403
558.64	18059.91209
558.844	18050.11238
559.049	18019.11011
559.253	18114.88447
559.458	17961.97114
559.663	18111.28507
559.867	17969.0342
560.072	17848.89685
560.276	17926.42752
560.481	17992.77178
560.685	17995.41193
560.89	17846.19524
561.094	17907.56159
561.299	17764.94773
561.503	17690.84018
561.708	17891.95937
561.912	17787.93081
562.117	17759.93063
562.321	17698.43015
562.525	17860.37268
562.73	17836.94616
562.934	17792.4122
563.139	17712.98906
563.343	17803.16663
563.547	17728.53518
563.752	17767.9967
563.956	17738.08608
564.16	17696.69946
564.364	17653.29379
564.569	17719.42385
564.773	17726.30376
564.977	17603.80452
565.181	17756.73723
565.385	17651.84766
565.59	17647.01328
565.794	17621.87048
565.998	17679.85802
566.202	17592.16127
566.406	17654.9772
566.61	17673.82284
566.814	17581.58554
567.018	17590.62492
567.222	17590.54348
567.426	17452.69241
567.63	17502.5613
567.834	17468.81837
568.038	17497.55184
568.242	17435.16512
568.446	17366.76991
568.65	17433.64039
568.854	17408.70883
569.058	17505.10194
569.262	17452.50698
569.466	17444.98958
569.67	17411.9378
569.874	17312.60326
570.078	17428.78981
570.281	17394.49038
570.485	17340.75418
570.689	17271.6754
570.893	17213.73521
571.097	17268.09163
571.3	17137.20268
571.504	17162.66667
571.708	17170.30373
571.912	17134.23774
572.115	17114.98691
572.319	16925.39419
572.523	17116.47595
572.726	17065.70951
572.93	16975.08214
573.133	17060.16865
573.337	17033.05549
573.541	16988.90402
573.744	16880.58886
573.948	16889.70465
574.151	16907.51843
574.355	16901.00308
574.558	16886.04513
574.762	16980.11486
574.965	16774.3696
575.169	16922.76812
575.372	16753.59
575.576	16812.63273
575.779	16762.50392
575.983	16841.21969
576.186	16725.43128
576.389	16747.05039
576.593	16608.41654
576.796	16730.42869
577	16528.41304
577.203	16810.39453
577.406	16644.97834
577.609	16514.31293
577.813	16667.25737
578.016	16578.75955
578.219	16567.12362
578.423	16491.3786
578.626	16486.81071
578.829	16492.19785
579.032	16419.87998
579.235	16616.50743
579.438	16559.64703
579.642	16476.36196
579.845	16388.24903
580.048	16469.50646
580.251	16319.8666
580.454	16438.12597
580.657	16377.92956
580.86	16401.55719
581.063	16241.74718
581.266	16322.7239
581.469	16382.41151
581.672	16320.04283
581.875	16412.14077
582.078	16320.73934
582.281	16335.5858
582.484	16286.66281
582.687	16400.92697
582.89	16372.79747
583.093	16256.87364
583.296	16273.37666
583.499	16531.73214
583.702	16358.60935
583.904	16277.97253
584.107	16375.49114
584.31	16306.05894
584.513	16295.68655
584.716	16341.392
584.918	16352.87721
585.121	16405.24881
585.324	16352.66453
585.527	16331.17936
585.729	16467.64011
585.932	16372.29046
586.135	16394.76694
586.337	16368.30789
586.54	16424.30296
586.743	16400.11776
586.945	16400.3225
587.148	16294.07689
587.35	16365.90201
587.553	16290.07599
587.755	16336.39409
587.958	16358.05947
588.161	16227.44205
588.363	16287.10286
588.566	16243.4704
588.768	16365.60395
588.971	16270.29168
589.173	16267.52044
589.375	16208.80942
589.578	16088.53264
589.78	16144.34208
589.983	16056.95134
590.185	16076.41519
590.387	15969.65511
590.59	15915.256
590.792	15880.71233
590.994	15660.02584
591.197	15760.34561
591.399	15530.55091
591.601	15500.58317
591.803	15348.48808
592.006	15354.06344
592.208	15410.61552
592.41	15263.22085
592.612	15188.94897
592.815	15156.32933
593.017	15162.61791
593.219	14945.21112
593.421	14915.99744
593.623	14891.64149
593.825	14841.49998
594.027	14812.12341
594.229	14717.81186
594.432	14637.08318
594.634	14678.12924
594.836	14609.4981
595.038	14707.808
595.24	14446.33259
595.442	14507.82563
595.644	14433.55753
595.846	14383.94229
596.048	14456.23583
596.249	14211.48171
596.451	14327.14248
596.653	14250.60373
596.855	14139.46987
597.057	14132.39244
597.259	14087.57472
597.461	14113.63941
597.663	14094.98845
597.864	13970.27246
598.066	14064.73842
598.268	14017.9932
598.47	13961.08254
598.671	13887.88317
598.873	13896.54905
599.075	13956.57127
599.277	14084.6011
599.478	13940.07995
599.68	14004.42822
599.882	14057.73509
600.083	14010.93736
600.285	14042.15585
600.487	13987.52546
600.688	14006.41042
600.89	14095.34365
601.091	14123.18765
601.293	14095.48766
601.494	14140.67175
601.696	14124.90458
601.898	14224.30891
602.099	14273.71727
602.301	14252.06313
602.502	14313.16195
602.703	14394.76602
602.905	14297.64138
603.106	14447.65995
603.308	14359.68304
603.509	14490.50808
603.711	14321.5026
603.912	14453.12244
604.113	14423.23991
604.315	14470.10811
604.516	14535.21954
604.717	14523.92303
604.919	14512.58716
605.12	14473.42044
605.321	14665.26809
605.522	14662.39365
605.724	14622.13111
605.925	14544.53397
606.126	14749.19685
606.327	14757.99563
606.528	14798.97629
606.729	14735.03282
606.931	14856.84328
607.132	14863.68215
607.333	14750.22146
607.534	14853.33494
607.735	14910.99307
607.936	14860.07196
608.137	14943.72397
608.338	14978.75952
608.539	14944.96162
608.74	14947.62642
608.941	14927.66545
609.142	14953.06897
609.343	15025.42726
609.544	15111.09381
609.745	14973.64345
609.946	15101.3963
610.147	15044.95708
610.348	15055.71706
610.549	14994.76118
610.75	15055.04068
610.95	15074.53017
611.151	15024.39354
611.352	15034.56678
611.553	15080.72939
611.754	15012.61874
611.954	15143.79093
612.155	15034.73643
612.356	15042.55437
612.557	15012.4237
612.757	15156.40169
612.958	15011.43919
613.159	15078.9943
613.359	15052.35256
613.56	15021.4696
613.761	15024.80032
613.961	15056.17102
614.162	14920.38071
614.362	14984.39255
614.563	15041.10863
614.764	15030.8041
614.964	14965.38291
615.165	14936.61095
615.365	15023.52097
615.566	14915.66373
615.766	14940.3807
615.967	14987.8118
616.167	14735.56702
616.368	14828.06057
616.568	14948.65453
616.768	14865.44983
616.969	14917.90255
617.169	14910.96663
617.37	14739.74555
617.57	14779.42541
617.77	14751.60035
617.971	14692.41448
618.171	14727.03678
618.371	14720.05905
618.571	14627.91235
618.772	14720.83729
618.972	14663.3108
619.172	14630.35529
619.372	14533.637
619.573	14524.36825
619.773	14642.50816
619.973	14545.89135
620.173	14577.0742
620.373	14537.74972
620.573	14528.1378
620.774	14572.90327
620.974	14423.51696
621.174	14455.3333
621.374	14529.7791
621.574	14502.86089
621.774	14422.10603
621.974	14413.83193
622.174	14411.39415
622.374	14443.74298
622.574	14379.17552
622.774	14400.36429
622.974	14354.06327
623.174	14485.13573
623.374	14430.13836
623.574	14474.74098
623.774	14450.33759
623.973	14430.25756
624.173	14343.70406
624.373	14414.36845
624.573	14415.93921
624.773	14327.06879
624.973	14379.06213
625.172	14343.69785
625.372	14242.67083
625.572	14341.34459
625.772	14311.62218
625.971	14192.93235
626.171	14259.75034
626.371	14350.54189
626.57	14137.5778
626.77	14342.27704
626.97	14168.34545
627.169	14146.3701
627.369	14205.04862
627.569	14244.49697
627.768	14084.84096
627.968	14101.88101
628.167	14169.07559
628.367	14077.79625
628.566	14052.90237
628.766	14045.74209
628.965	14052.4463
629.165	14108.37898
629.364	14012.85332
629.564	13928.43965
629.763	13972.03437
629.963	13882.87701
630.162	13926.04236
630.362	13921.10849
630.561	13817.683
630.76	13784.5618
630.96	13753.17677
631.159	13778.0278
631.358	13826.74254
631.558	13720.21518
631.757	13727.69566
631.956	13664.45269
632.155	13593.42954
632.355	13590.86955
632.554	13581.094
632.753	13568.90066
632.952	13487.29659
633.152	13529.41634
633.351	13515.21921
633.55	13503.7321
633.749	13480.09851
633.948	13504.58352
634.147	13416.42106
634.346	13292.76305
634.545	13349.95888
634.744	13271.75334
634.944	13278.48875
635.143	13316.70864
635.342	13278.15245
635.541	13296.53873
635.74	13266.93125
635.939	13184.66046
636.138	13244.35575
636.336	13203.9576
636.535	13168.91007
636.734	13208.4621
636.933	13281.45609
637.132	13185.88298
637.331	13102.33438
637.53	13191.1889
637.729	13128.2274
637.928	13235.78272
638.126	13219.61429
638.325	13089.68407
638.524	13063.17667
638.723	13048.2261
638.921	13075.82758
639.12	13110.42393
639.319	13105.51746
639.518	13178.42864
639.716	13052.23799
639.915	13118.35654
640.114	13146.21715
640.312	13137.72402
640.511	13134.58108
640.71	13147.41717
640.908	13100.42407
641.107	13138.10226
641.305	13049.47918
641.504	13069.79373
641.702	13046.19346
641.901	13119.01989
642.099	13070.42876
642.298	13020.67704
642.496	13110.32662
642.695	13017.10936
642.893	13053.57447
643.092	13049.01368
643.29	13048.3757
643.489	12969.51299
643.687	13054.36361
643.885	12960.88342
644.084	13001.09288
644.282	13006.24964
644.48	13065.32991
644.679	13050.69178
644.877	12943.55176
645.075	12987.66855
645.274	12982.03419
645.472	12931.82102
645.67	12954.91655
645.868	12908.59213
646.067	12857.79362
646.265	12962.26246
646.463	12910.85606
646.661	12851.21434
646.859	12840.51304
647.057	12778.27904
647.256	12775.96903
647.454	12816.48951
647.652	12833.1558
647.85	12774.13312
648.048	12789.1187
648.246	12673.87642
648.444	12569.71034
648.642	12629.89957
648.84	12532.56959
649.038	12496.41194
649.236	12411.68893
649.434	12428.88253
649.632	12328.69055
649.83	12443.2905
650.028	12255.79998
650.226	12272.24594
650.423	12184.20412
650.621	12229.10386
650.819	12060.78248
651.017	12050.46694
651.215	12065.43242
651.413	12073.88319
651.61	11967.31427
651.808	11886.78176
652.006	11907.79256
652.204	11879.84977
652.401	11862.85608
652.599	11794.66057
652.797	11753.13736
652.995	11714.5112
653.192	11619.8145
653.39	11678.94154
653.588	11758.76347
653.785	11585.97299
653.983	11604.39757
654.18	11582.46497
654.378	11537.37059
654.576	11529.95696
654.773	11430.20782
654.971	11489.20162
655.168	11479.86929
655.366	11466.34883
655.563	11404.88017
655.761	11346.92069
655.958	11388.29351
656.156	11345.24853
656.353	11310.56769
656.55	11305.29778
656.748	11347.88322
656.945	11201.57944
657.143	11189.77843
657.34	11236.13324
657.537	11238.94845
657.735	11172.52165
657.932	11060.05177
658.129	11067.98139
658.326	10985.17151
658.524	11120.58087
658.721	10997.00075
658.918	10971.70656
659.115	10836.21754
659.313	10890.33157
659.51	10750.62078
659.707	10921.26207
659.904	10826.30909
660.101	10832.48017
660.298	10875.0907
660.496	10804.05337
660.693	10818.46344
660.89	10762.68436
661.087	10781.26051
661.284	10761.07997
661.481	10805.75214
661.678	10800.59564
661.875	10813.10246
662.072	10801.65228
662.269	10862.21691
662.466	10846.10385
662.663	10856.54272
662.86	10814.52243
663.057	10826.99613
663.254	10859.41507
663.45	10876.92305
663.647	10771.2551
663.844	10885.99384
664.041	10770.18677
664.238	10896.35003
664.435	10813.67794
664.631	10764.46545
664.828	10873.65569
665.025	10863.02699
665.222	10849.02085
665.419	10869.94552
665.615	10980.3522
665.812	10855.42452
666.009	10945.1306
666.205	10949.75683
666.402	10913.84541
666.599	10882.53781
666.795	10963.74002
666.992	11011.15982
667.188	11030.89522
667.385	10977.77881
667.582	11109.57905
667.778	11057.26852
667.975	11088.68319
668.171	11034.4018
668.368	11051.6883
668.564	11096.0252
668.761	11113.33662
668.957	11083.77614
669.154	11106.73685
669.35	11109.40905
669.547	11091.47781
669.743	11177.43421
669.939	11141.86642
670.136	11153.28973
670.332	11146.14994
670.528	11060.20562
670.725	11174.71113
670.921	11166.10271
671.117	11135.14156
671.314	11124.04805
671.51	11193.39227
671.706	11107.84929
671.902	11110.7826
672.099	11154.36523
672.295	11075.55448
672.491	11030.25098
672.687	11021.15451
672.883	11033.52335
673.08	11063.40517
673.276	11158.0313
673.472	11048.5525
673.668	11044.40856
673.864	11029.5518
674.06	10988.77283
674.256	11060.17106
674.452	10865.58669
674.648	10909.1646
674.844	10920.69553
675.04	11021.47341
675.236	10869.94004
675.432	10857.06458
675.628	10829.65853
675.824	10827.67104
676.02	10882.46329
676.216	10875.17845
676.412	10848.8506
676.608	10791.04689
676.804	10752.82627
676.999	10885.58685
677.195	10696.90392
677.391	10800.97405
677.587	10795.2865
677.783	10800.92673
677.978	10760.94774
678.174	10773.05546
678.37	10719.65386
678.566	10756.90174
678.761	10723.55733
678.957	10694.22787
679.153	10638.28766
679.348	10679.3566
679.544	10704.14442
679.74	10705.52135
679.935	10601.1559
680.131	10670.66748
680.327	10615.07433
680.522	10543.63243
680.718	10586.36493
680.913	10559.59376
681.109	10484.43088
681.304	10521.15341
681.5	10579.05687
681.695	10570.24579
681.891	10501.36043
682.086	10493.45828
682.282	10526.39349
682.477	10484.57465
682.672	10422.51675
682.868	10414.24773
683.063	10455.07612
683.259	10502.74463
683.454	10429.61256
683.649	10381.94651
683.845	10366.85378
684.04	10410.28971
684.235	10393.20638
684.43	10359.71234
684.626	10289.97668
684.821	10392.43288
685.016	10298.47704
685.211	10384.37481
685.407	10243.30976
685.602	10249.65364
685.797	10274.00814
685.992	10215.20132
686.187	10294.69215
686.382	10266.66856
686.577	10166.82551
686.773	10163.98035
686.968	10128.08996
687.163	10198.01764
687.358	10154.83315
687.553	10139.81876
687.748	10150.98241
687.943	10116.35436
688.138	10063.84958
688.333	10075.39049
688.528	9976.15445
688.723	9990.43663
688.918	9934.26566
689.112	9795.14028
689.307	9743.38635
689.502	9674.73856
689.697	9667.27322
689.892	9709.2412
690.087	9500.23547
690.282	9582.28412
690.476	9459.38306
690.671	9458.3245
690.866	9358.93739
691.061	9323.7158
691.255	9252.24459
691.45	9218.5308
691.645	9154.23014
691.84	9120.90214
692.034	9063.48819
692.229	9041.10264
692.424	8994.44316
692.618	9008.94721
692.813	8901.64047
693.007	8836.40386
693.202	8858.90628
693.397	8911.30732
693.591	8771.5036
693.786	8771.68952
693.98	8676.18441
694.175	8757.23967
694.369	8620.26944
694.564	8678.51793
694.758	8567.95766
694.953	8623.39434
695.147	8563.3727
695.342	8495.92235
695.536	8414.63861
695.73	8400.63513
695.925	8332.06579
696.119	8339.18507
696.313	8216.36625
696.508	8245.37373
696.702	8247.79544
696.896	8143.97457
697.091	8130.72132
697.285	8160.70728
697.479	8116.17179
697.673	8113.34221
697.868	8108.95494
698.062	8138.97118
698.256	8006.15466
698.45	8051.15473
698.644	8065.79008
698.839	8086.6584
699.033	8017.02046
699.227	8064.58781
699.421	8033.36061
699.615	8071.84538
699.809	8050.86048
700.003	8158.36566
700.197	8089.34044
700.391	8143.89592
700.585	8058.48814
700.779	8119.00735
700.973	8126.61249
701.167	8075.44292
701.361	8118.30332
701.555	8161.36704
701.749	8071.92286
701.943	8138.43201
702.137	8086.63196
702.331	8044.01571
702.525	8047.17356
702.718	8098.99664
702.912	8044.95687
703.106	8039.60936
703.3	8027.29303
703.494	8018.60956
703.687	8020.74453
703.881	8000.17955
704.075	8037.7054
704.269	7981.23668
704.462	8050.87505
704.656	8053.29614
704.85	8009.96561
705.043	8029.36016
705.237	7961.69974
705.431	8024.63581
705.624	7983.82914
705.818	8049.715
706.012	8040.12407
706.205	8058.72687
706.399	7971.16522
706.592	8067.0869
706.786	8043.48939
706.979	8114.71794
707.173	8028.65057
707.366	8094.31557
707.56	8054.09213
707.753	8067.64931
707.947	8109.89346
708.14	8088.13275
708.333	8059.19397
708.527	8091.50435
708.72	8078.42745
708.914	8128.73798
709.107	8071.53759
709.3	8051.36723
709.494	8045.5961
709.687	8027.16822
709.88	8161.58002
710.073	8120.19785
710.267	8140.7437
710.46	8066.18592
710.653	8172.02875
710.846	8142.99451
711.04	8173.41895
711.233	8124.3473
711.426	8164.79172
711.619	8194.38605
711.812	8203.84348
712.005	8236.54108
712.198	8210.12549
712.391	8202.02168
712.585	8217.99194
712.778	8191.46113
712.971	8269.87943
713.164	8264.46117
713.357	8280.85994
713.55	8278.78408
713.743	8258.71888
713.936	8337.58491
714.129	8323.32631
714.322	8296.49811
714.514	8381.41915
714.707	8328.25573
714.9	8299.89343
715.093	8353.26481
715.286	8297.00872
715.479	8329.12363
715.672	8333.45379
715.864	8365.19448
716.057	8356.89149
716.25	8331.26793
716.443	8393.16911
716.636	8303.23009
716.828	8393.16148
717.021	8333.86949
717.214	8410.09257
717.406	8359.02259
717.599	8336.8023
717.792	8353.22499
717.984	8242.12542
718.177	8257.78088
718.37	8203.70801
718.562	8211.99272
718.755	8170.16808
718.947	8094.72524
719.14	8024.64089
719.333	7996.02517
719.525	7886.24843
719.718	7802.49626
719.91	7789.71278
720.103	7708.23514
720.295	7566.92907
720.487	7551.56261
720.68	7461.26605
720.872	7361.98435
721.065	7233.16204
721.257	7267.62694
721.449	7092.40815
721.642	7009.37851
721.834	6942.46019
722.026	6900.62899
722.219	6780.37116
722.411	6679.44919
722.603	6633.14447
722.796	6613.65579
722.988	6538.21375
723.18	6439.71902
723.372	6436.54958
723.565	6359.81899
723.757	6277.29945
723.949	6302.94153
724.141	6250.87218
724.333	6249.03984
724.525	6144.15704
724.717	6151.89005
724.91	6070.36002
725.102	6050.84
725.294	6034.46548
725.486	5948.05281
725.678	5944.14688
725.87	5915.68491
726.062	5859.51292
726.254	5832.72852
726.446	5755.19002
726.638	5757.73728
726.83	5689.07633
727.022	5654.34064
727.213	5617.54716
727.405	5650.41571
727.597	5578.77887
727.789	5579.6983
727.981	5574.68475
728.173	5559.83505
728.365	5506.56126
728.556	5500.0257
728.748	5445.95566
728.94	5485.07967
729.132	5442.51854
729.324	5413.60669
729.515	5409.17322
729.707	5431.19077
729.899	5405.14243
730.09	5436.38144
730.282	5425.6505
730.474	5457.92425
730.665	5393.22253
730.857	5403.82162
731.049	5434.63228
731.24	5466.73959
731.432	5451.4136
731.623	5404.32417
731.815	5444.51926
732.006	5467.07737
732.198	5428.59197
732.389	5443.55168
732.581	5382.36302
732.772	5382.35886
732.964	5371.95753
733.155	5366.34828
733.347	5399.86671
733.538	5394.08231
733.729	5400.3563
733.921	5439.46702
734.112	5374.42789
734.304	5488.39767
734.495	5476.95209
734.686	5513.74573
734.877	5498.38113
735.069	5497.5694
735.26	5542.92697
735.451	5609.76505
735.643	5570.61363
735.834	5687.89697
736.025	5684.73305
736.216	5689.23049
736.407	5723.43812
736.599	5757.52802
736.79	5762.05444
736.981	5828.05197
737.172	5855.17303
737.363	5931.05875
737.554	5905.27054
737.745	5950.29393
737.936	6039.824
738.127	6059.77962
738.318	6056.30574
738.509	6179.62636
738.7	6177.65123
738.891	6231.64049
739.082	6243.55275
739.273	6279.00894
739.464	6321.63955
739.655	6355.60125
739.846	6374.65668
740.037	6443.47211
740.228	6446.33194
740.419	6492.45527
740.609	6511.20536
740.8	6570.46843
740.991	6568.59088
741.182	6582.39342
741.373	6689.32288
741.563	6697.58735
741.754	6674.84361
741.945	6767.89269
742.136	6817.32671
742.326	6825.47984
742.517	6861.35063
742.708	6876.2705
742.898	6952.47905
743.089	6911.9177
743.28	6957.10925
743.47	7022.48626
743.661	6986.77579
743.851	7042.40359
744.042	7030.34684
744.233	7106.05915
744.423	7098.56408
744.614	7140.94586
744.804	7096.32863
744.995	7095.85534
745.185	7008.45803
745.376	7198.0125
745.566	7210.92123
745.756	7268.16161
745.947	7265.77834
746.137	7281.47467
746.328	7302.22345
746.518	7322.79035
746.708	7346.61597
746.899	7364.89927
747.089	7378.91461
747.279	7331.71483
747.47	7450.84224
747.66	7431.65617
747.85	7432.14666
748.04	7428.60605
748.231	7476.76988
748.421	7520.66557
748.611	7449.02598
748.801	7506.95971
748.991	7523.7465
749.182	7534.43705
749.372	7509.81521
749.562	7553.95179
749.752	7544.51581
749.942	7537.89815
750.132	7556.79565
750.322	7620.1016
750.512	7586.04763
750.702	7602.38869
750.892	7536.25411
751.082	7604.01736
751.272	7554.29483
751.462	7572.7128
751.652	7604.09988
751.842	7600.80864
752.032	7572.76285
752.222	7641.80284
752.412	7615.35458
752.602	7629.14983
752.792	7671.35214
752.981	7640.57179
753.171	7545.87979
753.361	7614.39453
753.551	7569.52181
753.741	7569.91947
753.93	7578.87127
754.12	7554.94549
754.31	7565.80987
754.5	7545.947
754.689	7532.95371
754.879	7556.63923
755.069	7515.21265
755.258	7546.76783
755.448	7521.90653
755.638	7519.96887
755.827	7484.54786
756.017	7521.4721
756.206	7451.29707
756.396	7520.92019
756.586	7505.74537
756.775	7546.72
756.965	7479.44513
757.154	7490.47378
757.344	7471.92496
757.533	7452.55445
757.723	7438.9774
757.912	7435.91717
758.101	7386.17737
758.291	7415.40848
758.48	7392.56177
758.67	7375.16598
758.859	7331.84819
759.048	7396.2815
759.238	7358.43637
759.427	7364.35945
759.616	7337.94799
759.806	7320.98289
759.995	7306.09688
760.184	7334.49083
760.373	7287.20745
760.563	7352.4508
760.752	7267.70083
760.941	7227.39869
761.13	7154.51378
761.319	7071.39235
761.509	7034.95441
761.698	6962.02122
761.887	6896.77632
762.076	6801.29035
762.265	6699.56948
762.454	6674.51694
762.643	6495.69253
762.832	6402.78282
763.021	6306.23709
763.21	6143.75517
763.399	6091.09913
763.588	5992.22278
763.777	5900.69606
763.966	5786.1754
764.155	5644.00136
764.344	5560.6586
764.533	5482.32713
764.722	5383.14222
764.911	5233.11217
765.1	5176.60712
765.288	5069.30038
765.477	5009.52176
765.666	4890.54447
765.855	4813.91756
766.044	4723.94707
766.232	4630.7058
766.421	4555.057
766.61	4507.00944
766.799	4391.0967
766.987	4353.03184
767.176	4248.09729
767.365	4202.38139
767.553	4141.61981
767.742	4111.22265
767.931	4020.99026
768.119	4031.40068
768.308	3961.05336
768.497	3892.42725
768.685	3878.63087
768.874	3877.39786
769.062	3829.63237
769.251	3830.37675
769.439	3802.53164
769.628	3837.63161
769.816	3864.62577
770.005	3898.20403
770.193	3912.46844
770.382	3943.66313
770.57	3952.47435
770.758	4042.7411
770.947	4087.91354
771.135	4177.31506
771.323	4160.52011
771.512	4275.21264
771.7	4271.82904
771.888	4378.72532
772.077	4385.60568
772.265	4422.48676
772.453	4496.94978
772.642	4568.71693
772.83	4581.47436
773.018	4690.8449
773.206	4686.31893
773.394	4740.37416
773.583	4795.70284
773.771	4951.96103
773.959	4989.31539
774.147	5062.47409
774.335	5169.72699
774.523	5161.45701
774.711	5289.47897
774.899	5321.90099
775.087	5362.03556
775.275	5427.36321
775.463	5433.14975
775.651	5555.21246
775.839	5562.73197
776.027	5611.66329
776.215	5631.16276
776.403	5721.46124
776.591	5750.36544
776.779	5803.58219
776.967	5803.29285
777.155	5856.07228
777.343	5817.4027
777.531	5940.72678
777.718	5888.61618
777.906	5951.29804
778.094	5933.93097
778.282	5998.8247
778.47	5983.81916
778.657	6019.60095
778.845	6008.79228
779.033	6041.75706
779.22	6040.55197
779.408	6068.19936
779.596	6011.967
779.783	6079.96307
779.971	6064.16932
780.159	6070.01444
780.346	6086.76917
780.534	6109.35823
780.722	6080.37015
780.909	6097.18401
781.097	6062.64227
781.284	6052.94086
781.472	6101.91885
781.659	6061.17428
781.847	6029.15243
782.034	6071.64985
782.222	6021.61446
782.409	6076.24028
782.597	6023.97493
782.784	5986.98609
782.971	6026.09013
783.159	5999.87094
783.346	6001.30139
783.533	6029.42727
783.721	5963.35037
783.908	5986.14558
784.095	5912.01856
784.283	5942.95029
784.47	5969.65928
784.657	5955.64412
784.844	5917.83329
785.032	5912.174
785.219	5854.60141
785.406	5905.85683
785.593	5838.57849
785.78	5897.33507
785.968	5825.31213
786.155	5867.4264
786.342	5798.42577
786.529	5871.77551
786.716	5813.79401
786.903	5840.65732
787.09	5770.85266
787.277	5830.59684
787.464	5767.18302
787.651	5798.90926
787.838	5733.79284
788.025	5742.2032
788.212	5711.21453
788.399	5723.85149
788.586	5686.71636
788.773	5728.57416
788.96	5683.87372
789.147	5662.4698
789.334	5599.15191
789.521	5638.89453
789.707	5579.68082
789.894	5612.59518
790.081	5596.27482
790.268	5555.49482
790.455	5521.93467
790.641	5561.40023
790.828	5548.0158
791.015	5457.49834
791.202	5453.42806
791.388	5442.6788
791.575	5400.00906
791.762	5363.13664
791.948	5354.85191
792.135	5379.67685
792.322	5325.76293
792.508	5353.16448
792.695	5268.12379
792.881	5274.11473
793.068	5202.70755
793.254	5190.05027
793.441	5191.57399
793.627	5129.73491
793.814	5154.30396
794	5152.68015
794.187	5109.6919
794.373	5142.23742
794.56	5055.49004
794.746	5065.69267
794.933	5059.73834
795.119	5030.78352
795.305	5034.07053
795.492	5010.46356
795.678	5022.46838
795.864	5013.20676
796.051	4944.03383
796.237	4960.26682
796.423	4904.02513
796.61	4955.16719
796.796	4859.37449
796.982	4938.56235
797.168	4911.45711
797.355	4882.83164
797.541	4858.95441
797.727	4884.10659
797.913	4834.09417
798.099	4866.12157
798.285	4789.48542
798.471	4834.83329
798.658	4764.08425
798.844	4801.61627
799.03	4784.22061
799.216	4806.78493
799.402	4804.51086
799.588	4776.42062
799.774	4764.3449
799.96	4748.95685
800.146	4723.86232
800.332	4771.36219
800.518	4710.21769
800.704	4754.49561
800.89	4737.70175
801.075	4745.61103
801.261	4705.10063
801.447	4693.82472
801.633	4704.30699
801.819	4705.79453
802.005	4691.30957
802.19	4726.69733
802.376	4684.98414
802.562	4674.54512
802.748	4678.886
802.934	4673.44487
803.119	4631.19562
803.305	4615.23905
803.491	4652.52404
803.676	4636.55876
803.862	4620.55596
804.048	4677.84615
804.233	4616.33986
804.419	4616.00421
804.605	4559.95776
804.79	4581.80515
804.976	4572.30331
805.161	4576.96099
805.347	4570.9457
805.532	4595.65627
805.718	4551.11417
805.903	4552.88604
806.089	4534.60205
806.274	4561.77589
806.46	4521.26999
806.645	4503.8754
806.831	4511.3382
807.016	4543.98328
807.201	4518.48262
807.387	4531.97144
807.572	4491.2675
807.757	4490.91797
807.943	4478.49137
808.128	4498.06926
808.313	4457.45499
808.499	4495.2571
808.684	4490.43619
808.869	4485.74269
809.054	4483.54792
809.24	4504.11997
809.425	4439.3661
809.61	4496.37182
809.795	4461.64695
809.98	4484.40025
810.165	4467.3814
810.35	4425.47777
810.536	4462.67065
810.721	4443.01072
810.906	4398.3025
811.091	4515.10444
811.276	4418.90474
811.461	4427.14659
811.646	4413.47927
811.831	4412.13952
812.016	4387.03788
812.201	4378.49358
812.386	4391.1706
812.571	4376.25817
812.756	4298.69133
812.941	4339.00282
813.125	4321.39777
813.31	4319.89597
813.495	4295.9989
813.68	4256.18339
813.865	4251.65278
814.05	4253.06592
814.234	4234.61559
814.419	4230.41811
814.604	4196.1227
814.789	4222.8085
814.973	4154.82957
815.158	4117.32467
815.343	4088.23057
815.528	4087.72903
815.712	4037.80224
815.897	4019.79185
816.081	3970.23996
816.266	3941.23579
816.451	3940.90503
816.635	3911.68029
816.82	3823.14114
817.004	3816.01646
817.189	3766.74606
817.374	3752.87762
817.558	3679.73484
817.743	3634.24824
817.927	3625.57305
818.111	3577.79034
818.296	3491.1433
818.48	3493.77055
818.665	3453.6073
818.849	3404.71434
819.034	3355.4073
819.218	3286.32018
819.402	3264.30006
819.587	3241.98531
819.771	3188.84712
819.955	3152.61161
820.14	3125.61154
820.324	3104.31773
820.508	3025.26215
820.692	3027.30762
820.877	2952.49932
821.061	2956.59891
821.245	2919.40729
821.429	2863.97996
821.613	2846.68748
821.798	2822.33041
821.982	2822.95851
822.166	2773.78135
822.35	2749.03796
822.534	2774.09627
822.718	2740.48457
822.902	2755.05582
823.086	2700.30131
823.27	2701.98397
823.454	2637.55702
823.638	2670.16143
823.822	2679.53952
824.006	2662.72014
824.19	2603.8576
824.374	2647.43806
824.558	2606.0466
824.742	2605.09283
824.926	2582.68633
825.11	2581.93663
825.294	2538.60945
825.477	2574.38687
825.661	2548.1801
825.845	2528.75589
826.029	2512.54873
826.213	2516.706
826.396	2533.08378
826.58	2526.15159
826.764	2535.93043
826.948	2533.94376
827.131	2516.3567
827.315	2531.21999
827.499	2542.86018
827.682	2529.95034
827.866	2558.83913
828.05	2542.33044
828.233	2543.01148
828.417	2565.67846
828.6	2586.92924
828.784	2599.4266
828.967	2572.71906
829.151	2606.53417
829.335	2583.17579
829.518	2599.7047
829.701	2595.1231
829.885	2593.37064
830.068	2623.38932
830.252	2602.0915
830.435	2594.92646
830.619	2621.89103
830.802	2599.16242
830.985	2625.56926
831.169	2620.92946
831.352	2597.20072
831.535	2588.28562
831.719	2608.61728
831.902	2570.23882
832.085	2553.43913
832.269	2589.54549
832.452	2556.58125
832.635	2563.3928
832.818	2590.57539
833.002	2576.01462
833.185	2583.85068
833.368	2583.14035
833.551	2578.23149
833.734	2575.75514
833.917	2592.84559
834.1	2607.8049
834.284	2570.29941
834.467	2562.00446
834.65	2588.15854
834.833	2569.98307
835.016	2592.531
835.199	2525.15403
835.382	2584.06067
835.565	2543.73311
835.748	2545.19646
835.931	2554.52118
836.114	2547.04589
836.297	2557.16161
836.479	2544.59137
836.662	2535.37217
836.845	2523.20422
837.028	2564.09733
837.211	2564.65578
837.394	2531.92271
837.577	2551.31286
837.759	2559.15323
837.942	2578.4188
838.125	2562.02238
838.308	2560.2868
838.49	2538.79761
838.673	2591.38758
838.856	2546.97114
839.039	2595.7182
839.221	2563.07387
839.404	2590.48471
839.587	2556.06385
839.769	2618.0721
839.952	2573.26715
840.134	2578.56402
840.317	2551.93923
840.499	2599.47922
840.682	2595.74911
840.865	2623.25962
841.047	2606.19266
841.23	2617.66515
841.412	2638.6482
841.595	2615.11221
841.777	2603.63667
841.959	2658.7132
842.142	2652.58101
842.324	2676.14275
842.507	2625.73215
842.689	2666.9281
842.871	2674.9586
843.054	2664.79291
843.236	2675.41344
843.418	2680.86454
843.601	2668.5366
843.783	2657.85425
843.965	2676.05051
844.147	2683.1252
844.33	2699.8286
844.512	2723.42117
844.694	2697.23489
844.876	2762.04429
845.059	2707.26408
845.241	2732.91407
845.423	2698.8232
845.605	2746.31882
845.787	2713.15676
845.969	2722.58765
846.151	2730.47778
846.333	2706.57407
846.515	2696.86516
846.697	2728.85702
846.879	2744.86535
847.061	2746.81378
847.243	2700.51856
847.425	2701.22288
847.607	2743.37948
847.789	2716.91209
847.971	2703.28688
848.153	2738.72963
848.335	2690.55
848.517	2722.88505
848.699	2697.75917
848.881	2734.0686
849.062	2705.05578
849.244	2708.14195
849.426	2693.93998
849.608	2711.89731
849.789	2690.89155
849.971	2693.85744
850.153	2680.76037
850.335	2712.83666
850.516	2700.15651
850.698	2711.63291
850.88	2678.44992
851.061	2700.60785
851.243	2678.03707
851.425	2694.07395
851.606	2637.84404
851.788	2684.12566
851.969	2637.44794
852.151	2636.79567
852.333	2619.65563
852.514	2648.98562
852.696	2639.66492
852.877	2646.98773
853.059	2589.84095
853.24	2625.23367
853.422	2611.16793
853.603	2616.75506
853.784	2571.31461
853.966	2584.61404
854.147	2566.16239
854.329	2550.81286
854.51	2568.8805
854.691	2554.41617
854.873	2545.70282
855.054	2529.8778
855.235	2518.55478
855.416	2487.90489
855.598	2519.70306
855.779	2484.48691
855.96	2486.09034
856.141	2474.66608
856.323	2473.61039
856.504	2481.80906
856.685	2409.4027
856.866	2472.21147
857.047	2417.14111
857.228	2388.37447
857.409	2377.21648
857.591	2387.74035
857.772	2380.90427
857.953	2355.87646
858.134	2347.79962
858.315	2341.74387
858.496	2339.4309
858.677	2339.7507
858.858	2334.9674
859.039	2311.83476
859.22	2309.68526
859.401	2299.1369
859.582	2281.01597
859.762	2320.05886
859.943	2277.97779
860.124	2293.10364
860.305	2284.61775
860.486	2318.68221
860.667	2262.01864
860.848	2266.52967
861.028	2286.60865
861.209	2267.70383
861.39	2251.77001
861.571	2263.53769
861.751	2272.74459
861.932	2265.90891
862.113	2253.73183
862.293	2238.46568
862.474	2213.79963
862.655	2252.26037
862.835	2250.96721
863.016	2252.27916
863.197	2220.22601
863.377	2244.64817
863.558	2209.695
863.738	2215.75771
863.919	2210.74183
864.099	2240.32116
864.28	2195.95383
864.46	2216.60776
864.641	2216.18901
864.821	2221.06851
865.002	2173.75891
865.182	2242.9218
865.363	2232.00174
865.543	2200.93907
865.723	2225.39467
865.904	2224.61337
866.084	2197.80947
866.264	2214.43532
866.445	2187.93219
866.625	2206.03511
866.805	2197.7262
866.986	2208.15512
867.166	2158.04654
867.346	2169.66163
867.526	2177.55466
867.707	2149.44274
867.887	2126.8999
868.067	2169.02558
868.247	2155.81511
868.427	2153.74165
868.607	2103.77258
868.788	2124.66765
868.968	2118.21689
869.148	2116.07553
869.328	2086.68503
869.508	2101.86392
869.688	2097.10325
869.868	2082.26658
870.048	2057.56732
870.228	2072.07441
870.408	2067.36947
870.588	2043.33633
870.768	2029.99507
870.948	2016.15864
871.128	2048.61424
871.307	2038.14871
871.487	2020.19116
871.667	2003.36707
871.847	1997.77809
872.027	2005.74847
872.207	1992.72408
872.387	2016.1855
872.566	1971.81123
872.746	1984.81748
872.926	1979.81058
873.106	1972.4767
873.285	1940.49645
873.465	1969.40649
873.645	1948.60645
873.824	1959.88171
874.004	1936.98904
874.184	1938.35864
874.363	1909.59895
874.543	1930.73996
874.723	1916.56688
874.902	1921.70044
875.082	1934.0918
875.261	1920.00132
875.441	1875.86969
875.62	1879.09651
875.8	1886.45511
875.979	1894.58628
876.159	1866.59311
876.338	1879.52048
876.518	1875.53345
876.697	1910.235
876.876	1884.11994
877.056	1876.61732
877.235	1893.86849
877.415	1859.36395
877.594	1862.69924
877.773	1871.32923
877.953	1844.19352
878.132	1854.0627
878.311	1848.10548
878.49	1858.91623
878.67	1835.65014
878.849	1854.67829
879.028	1834.33464
879.207	1798.15791
879.387	1816.78141
879.566	1845.37911
879.745	1815.21258
879.924	1837.84699
880.103	1785.57186
880.282	1825.01137
880.461	1801.17112
880.64	1777.63036
880.819	1771.89975
880.998	1785.86059
881.178	1778.01144
881.357	1792.98196
881.536	1789.24276
881.715	1773.80605
881.893	1743.75536
882.072	1736.73092
882.251	1772.4909
882.43	1756.67061
882.609	1734.34167
882.788	1738.87301
882.967	1706.68927
883.146	1747.04989
883.325	1715.34779
883.503	1727.55568
883.682	1684.67014
883.861	1703.18238
884.04	1663.99546
884.219	1694.01238
884.397	1693.10842
884.576	1705.7292
884.755	1689.05962
884.933	1680.24231
885.112	1679.07619
885.291	1675.23892
885.469	1676.13018
885.648	1658.70234
885.827	1655.36182
886.005	1666.15515
886.184	1627.64556
886.363	1664.22621
886.541	1646.07163
886.72	1649.34499
886.898	1661.21557
887.077	1643.34189
887.255	1616.73139
887.434	1628.57386
887.612	1635.76006
887.791	1612.51485
887.969	1608.91276
888.147	1607.89541
888.326	1626.14294
888.504	1609.13141
888.682	1608.10611
888.861	1610.50388
889.039	1606.65659
889.218	1630.7686
889.396	1603.27536
889.574	1599.05225
889.752	1592.22056
889.931	1580.27676
890.109	1573.47457
890.287	1582.82469
890.465	1566.52829
890.643	1591.03405
890.822	1576.65689
891	1578.85668
891.178	1578.94706
891.356	1567.04679
891.534	1554.11506
891.712	1575.01887
891.89	1549.66844
892.068	1561.41073
892.247	1551.76578
892.425	1572.29211
892.603	1564.87
892.781	1581.39115
892.959	1523.25385
893.137	1555.08129
893.314	1547.8182
893.492	1534.43378
893.67	1525.42316
893.848	1546.30437
894.026	1552.69126
894.204	1520.99356
894.382	1496.36532
894.56	1508.89125
894.738	1502.3486
894.915	1512.93262
895.093	1500.97982
895.271	1498.6987
895.449	1476.05911
895.626	1495.75456
895.804	1493.72028
895.982	1477.65444
896.16	1463.7453
896.337	1451.64704
896.515	1442.28303
896.693	1432.94481
896.87	1416.26592
897.048	1416.23316
897.225	1411.76701
897.403	1410.2146
897.581	1407.87354
897.758	1389.59136
897.936	1343.5493
898.113	1341.77753
898.291	1358.88134
898.468	1319.30531
898.646	1331.191
898.823	1314.09078
899.001	1292.60329
899.178	1268.76034
899.356	1255.38176
899.533	1241.51235
899.71	1210.97817
899.888	1219.3799
900.065	1180.14271
900.242	1157.8791
900.42	1142.20103
900.597	1165.79383
900.774	1137.35004
900.952	1108.37809
901.129	1089.87407
901.306	1066.51887
901.483	1046.17018
901.661	1044.60667
901.838	1014.96302
902.015	1020.83522
902.192	969.82554
902.369	981.38152
902.546	953.70773
902.723	941.22607
902.901	937.06894
903.078	908.6698
903.255	887.60486
903.432	881.49639
903.609	879.97188
903.786	851.39875
903.963	842.50745
904.14	843.97986
904.317	801.19414
904.494	831.17757
904.671	817.25508
904.848	792.60639
905.024	806.07404
905.201	799.22809
905.378	767.81536
905.555	769.60329
905.732	779.62332
905.909	773.65404
906.086	777.20685
906.262	765.34607
906.439	789.58208
906.616	774.96435
906.793	756.51137
906.969	782.05821
907.146	788.54942
907.323	759.82024
907.5	766.57642
907.676	800.24628
907.853	785.88125
908.03	792.3126
908.206	813.48937
908.383	778.0545
908.559	823.20065
908.736	798.50657
908.912	806.60042
909.089	814.65745
909.266	794.78504
909.442	805.53616
909.619	814.72933
909.795	818.76677
909.972	786.66646
910.148	807.24923
910.324	798.86855
910.501	805.23845
910.677	801.77904
910.854	803.04295
911.03	790.24209
911.206	806.57893
911.383	778.55344
911.559	785.03616
911.735	773.24087
911.912	769.90028
912.088	763.56599
912.264	755.39309
912.44	767.32328
912.617	764.40452
912.793	731.33521
912.969	775.19721
913.145	744.07482
913.321	753.04782
913.498	743.08733
913.674	745.36217
913.85	724.48359
914.026	732.20194
914.202	706.46158
914.378	712.79753
914.554	691.42033
914.73	679.11591
914.906	685.61099
915.082	660.23165
915.258	657.58941
915.434	663.32511
915.61	641.97646
915.786	646.95879
915.962	618.24855
916.138	622.19061
916.314	596.7481
916.49	616.44568
916.665	588.19728
916.841	597.63265
917.017	588.38985
917.193	591.51819
917.369	586.16413
917.545	599.86033
917.72	551.89624
917.896	577.37407
918.072	577.8982
918.247	574.27753
918.423	556.82376
918.599	575.97108
918.775	559.3856
918.95	559.44031
919.126	550.59546
919.301	549.74013
919.477	520.39157
919.653	551.65848
919.828	535.30227
920.004	540.75005
920.179	535.0345
920.355	523.88806
920.53	539.98632
920.706	532.10788
920.881	525.95604
921.057	521.57648
921.232	504.49826
921.408	553.78927
921.583	527.53629
921.759	519.62672
921.934	517.97553
922.109	530.25357
922.285	502.81124
922.46	522.57225
922.635	530.97722
922.811	534.3224
922.986	532.25458
923.161	531.17206
923.336	537.30705
923.512	533.10516
923.687	537.21224
923.862	536.33068
924.037	562.76349
924.212	549.76568
924.388	547.41813
924.563	555.88304
924.738	564.50508
924.913	567.03381
925.088	571.86695
925.263	559.72908
925.438	580.15228
925.613	573.46501
925.788	579.79263
925.963	577.52276
926.138	583.60079
926.313	574.01653
926.488	565.43251
926.663	577.26073
926.838	575.81492
927.013	572.18843
927.188	576.88045
927.363	580.13342
927.538	574.50103
927.713	567.91092
927.888	592.68152
928.062	594.58698
928.237	571.37583
928.412	569.40462
928.587	570.09941
928.761	589.06743
928.936	588.46991
929.111	565.23894
929.286	576.68997
929.46	569.59075
929.635	576.30993
929.81	555.14387
929.984	560.38271
930.159	569.3003
930.334	529.6475
930.508	542.17354
930.683	530.54487
930.857	510.19577
931.032	496.14386
931.206	507.09941
931.381	474.24744
931.556	481.61871
931.73	485.2901
931.904	477.96921
932.079	466.17534
932.253	464.40002
932.428	449.83684
932.602	460.08207
932.777	420.9834
932.951	415.29512
933.125	402.67959
933.3	412.29501
933.474	388.12229
933.648	370.62748
933.823	378.71956
933.997	339.40805
934.171	363.03967
934.345	350.42414
934.52	332.85855
934.694	329.6457
934.868	317.27614
935.042	305.74718
935.217	287.07077
935.391	285.05527
935.565	254.14151
935.739	271.97819
935.913	242.58451
936.087	237.4568
936.261	224.98624
936.435	220.72564
936.609	215.97933
936.783	222.44833
936.957	210.92296
937.131	193.66397
937.305	179.00817
937.479	170.30633
937.653	158.45766
937.827	158.83829
938.001	154.68221
938.175	137.2874
938.349	146.47877
938.523	122.61609
938.697	125.95627
938.87	113.68567
939.044	115.50447
939.218	112.82863
939.392	116.04781
939.566	95.6322
939.739	93.865
939.913	94.64884
940.087	99.11155
940.261	90.97903
940.434	81.906
940.608	89.62587
940.782	94.61468
940.955	89.76514
941.129	66.50394
941.302	79.92081
941.476	70.18906
941.65	91.19562
941.823	73.65144
941.997	65.2624
942.17	87.83781
942.344	74.77704
942.517	81.00375
942.691	80.01689
942.864	80.92357
943.038	99.68522
943.211	88.40247
943.385	81.5908
943.558	91.7532
943.731	99.29768
943.905	86.69193
944.078	85.16415
944.251	91.84033
944.425	104.37656
944.598	89.94078
944.771	103.16751
944.945	90.51817
945.118	81.66048
945.291	76.76677
945.464	91.96097
945.638	92.50438
945.811	97.4238
945.984	97.86736
946.157	102.87627
946.33	100.34773
946.503	88.84444
946.677	98.41569
946.85	90.06363
947.023	97.96922
947.196	90.60633
947.369	105.16024
947.542	100.66403
947.715	83.37116
947.888	102.4318
948.061	104.46667
948.234	103.87429
948.407	99.76681
948.58	103.45382
948.753	104.91678
948.926	88.81135
949.099	92.97246
949.271	89.4959
949.444	84.77392
949.617	81.69837
949.79	89.83912
949.963	98.00236
950.136	66.70945
950.308	89.06185
950.481	104.38372
950.654	80.32391
950.827	89.071
950.999	72.41998
951.172	102.36228
951.345	88.94722
951.517	91.50845
951.69	81.25657
951.863	79.77942
952.035	91.74657
952.208	78.66804
952.381	98.65671
952.553	72.85953
952.726	95.23676
952.898	77.68289
953.071	75.45746
953.243	70.50196
953.416	84.5087
953.588	92.39529
953.761	80.68559
953.933	83.71106
954.106	79.55262
954.278	81.01453
954.45	72.09499
954.623	93.9898
954.795	76.99553
954.967	101.45054
955.14	91.2116
955.312	87.81377
955.484	69.72263
955.657	75.20553
955.829	87.6113
956.001	73.40864
956.173	73.51576
956.346	82.57299
956.518	70.52637
956.69	87.60497
956.862	91.0882
957.034	74.42259
957.207	70.7483
957.379	91.96867
957.551	74.86559
957.723	85.81352
957.895	91.62628
958.067	87.48142
958.239	85.27835
958.411	88.71564
958.583	97.32188
958.755	81.13013
958.927	87.71922
959.099	85.48855
959.271	79.24682
959.443	78.45649
959.615	91.85674
959.787	93.30681
959.959	87.05769
960.13	78.79553
960.302	86.92131
960.474	82.22294
960.646	79.89222
960.818	85.70488
960.99	97.11909
961.161	89.39794
961.333	100.21446
961.505	90.82701
961.677	84.12931
961.848	89.03308
962.02	81.80655
962.192	74.64949
962.363	93.73099
962.535	96.4126
962.707	89.28432
962.878	89.63542
963.05	106.81888
963.221	92.9661
963.393	76.30617
963.564	97.29231
963.736	80.44281
963.907	102.58696
964.079	97.40383
964.25	88.25865
964.422	95.94897
964.593	88.36752
964.765	95.18279
964.936	88.79955
965.108	111.51434
965.279	115.04716
965.45	108.02479
965.622	87.50005
965.793	102.78935
965.964	105.13185
966.136	109.3936
966.307	99.21706
966.478	99.76188
966.65	111.92134
966.821	111.71829
966.992	118.19128
967.163	94.95394
967.334	113.60781
967.506	86.10835
967.677	112.01795
967.848	113.59574
968.019	114.62865
968.19	103.47309
968.361	104.55556
968.532	108.23425
968.703	111.01932
968.874	121.74208
969.045	112.80509
969.216	114.70315
969.387	112.13368
969.558	125.64388
969.729	114.92217
969.9	104.5937
970.071	126.74392
970.242	115.60324
970.413	128.33794
970.584	110.34207
970.755	134.68704
970.926	134.12786
971.097	133.23491
971.267	113.45329
971.438	117.93787
971.609	141.59739
971.78	140.54315
971.951	149.73325
972.121	118.77918
972.292	139.09324
972.463	145.59165
972.633	142.90066
972.804	130.36615
972.975	141.65519
973.145	150.14524
973.316	177.04477
973.487	139.62688
973.657	152.70272
973.828	167.63033
973.998	161.72036
974.169	169.0975
974.339	147.94054
974.51	146.85656
974.68	161.36635
974.851	159.82208
975.021	169.0975
975.192	176.54558
975.362	177.08988
975.533	165.2657
975.703	184.45762
975.874	174.78237
976.044	186.37543
976.214	174.45845
976.385	179.18341
976.555	182.87327
976.725	164.80814
976.896	173.07785
977.066	168.40999
977.236	175.64351
977.406	155.63882
977.577	175.75345
977.747	178.20309
977.917	169.40518
978.087	179.32642
978.257	174.73035
978.427	151.42138
978.598	156.42424
978.768	160.16507
978.938	189.8895
979.108	171.53366
979.278	166.39544
979.448	168.3757
979.618	166.62996
979.788	159.80761
979.958	164.25424
980.128	169.43011
980.298	166.51678
980.468	155.25635
980.638	181.02456
980.808	149.13349
980.978	163.8939
981.148	157.62144
981.317	148.321
981.487	154.49283
981.657	154.70031
981.827	150.71908
981.997	171.26775
982.167	146.2743
982.336	148.81914
982.506	140.20057
982.676	132.41628
982.846	154.46833
983.015	135.11022
983.185	142.20447
983.355	159.28358
983.524	148.93895
983.694	149.81629
983.864	137.32632
984.033	143.04505
984.203	140.12629
984.372	138.9887
984.542	144.67327
984.712	153.83352
984.881	149.82535
985.051	145.44838
985.22	149.40478
985.39	158.37504
985.559	149.66422
985.728	170.41311
985.898	145.89378
986.067	154.70265
986.237	159.42322
986.406	157.50594
986.576	132.1585
986.745	159.05132
986.914	164.89342
987.084	139.876
987.253	163.33227
987.422	169.75054
987.591	167.97625
987.761	164.55133
987.93	153.82945
988.099	163.71761
988.268	162.86907
988.438	149.40437
988.607	161.43585
988.776	177.87537
988.945	148.75788
989.114	165.86779
989.283	159.59103
989.452	169.29198
989.621	167.64615
989.791	152.8129
989.96	152.58101
990.129	155.66639
990.298	156.7195
990.467	164.60484
990.636	167.31667
990.805	157.57978
990.974	172.5808
991.142	162.25912
991.311	177.47119
991.48	173.51768
991.649	158.36309
991.818	160.29152
991.987	171.56281
992.156	148.74442
992.325	169.63222
992.493	178.22258
992.662	174.48261
992.831	149.31108
993	161.53354
993.168	155.71223
993.337	172.55211
993.506	160.81595
993.675	168.43161
993.843	178.53819
994.012	174.77252
994.181	172.81689
994.349	149.80439
994.518	158.41993
994.686	158.04051
994.855	178.22595
995.024	171.53884
995.192	157.12152
995.361	175.06212
995.529	165.64705
995.698	159.95634
995.866	168.04
996.035	151.1851
996.203	163.29277
996.371	159.88695
996.54	165.05434
996.708	154.58607
996.877	183.4571
997.045	167.78408
997.213	152.91096
997.382	150.87454
997.55	168.13669
997.718	154.12157
997.887	167.44126
998.055	161.62248
998.223	168.55437
998.391	175.37076
998.56	156.06096
998.728	139.50763
998.896	151.58588
999.064	167.57855
999.232	163.63287
999.401	162.95146
999.569	143.18663
999.737	153.67225
999.905	158.05244
1000.073	151.11484
1000.241	156.58275
1000.409	150.36623
1000.577	159.62237
1000.745	153.94254
1000.913	166.76203
1001.081	149.68061
1001.249	142.78929
1001.417	149.08002
1001.585	145.42366
1001.753	157.75484
1001.921	143.01041
1002.089	149.00694
1002.256	139.67808
1002.424	135.4009
1002.592	133.61438
1002.76	158.52528
1002.928	140.75365
1003.096	144.38999
1003.263	132.49362
1003.431	138.4292
1003.599	143.00555
1003.767	138.22527
1003.934	135.65749
1004.102	124.38826
1004.27	134.82978
1004.437	141.41377
1004.605	144.69516
1004.773	137.44343
1004.94	131.68035
1005.108	153.08652
1005.275	124.47284
1005.443	131.73491
1005.61	136.01794
1005.778	131.87924
1005.945	125.06437
1006.113	139.47378
1006.28	127.18578
1006.448	125.41766
1006.615	135.19298
1006.783	130.64223
1006.95	143.16079
1007.118	135.92198
1007.285	118.83
1007.452	129.14359
1007.62	122.14904
1007.787	138.5925
1007.954	106.51418
1008.122	122.92341
1008.289	123.84567
1008.456	122.38996
1008.623	126.97784
1008.791	131.79079
1008.958	111.56319
1009.125	109.01923
1009.292	106.34003
1009.459	119.37055
1009.627	126.01168
1009.794	113.03018
1009.961	119.82085
1010.128	96.17164
1010.295	125.85342
1010.462	111.35672
1010.629	126.65553
1010.796	119.76163
1010.963	116.92673
1011.13	112.90757
1011.297	112.60136
1011.464	105.22739
1011.631	123.65279
1011.798	106.6891
1011.965	104.09689
1012.132	111.23048
1012.299	108.59387
1012.466	117.04528
1012.633	112.94742
1012.799	95.74701
1012.966	124.31168
1013.133	116.64857
1013.3	112.06814
1013.467	106.9097
1013.633	97.32743
1013.8	121.88175
1013.967	120.88984
1014.134	104.53177
1014.3	115.38422
1014.467	106.81523
1014.634	100.86526
1014.8	99.32068
1014.967	116.2342
1015.134	104.56191
1015.3	97.16826
1015.467	98.53506
1015.633	103.67136
1015.8	104.78335
1015.966	104.34641
1016.133	96.88488
1016.3	93.05185
1016.466	93.63048
1016.632	94.30374
1016.799	103.0042
1016.965	90.39044
1017.132	104.23291
1017.298	107.02283
1017.465	108.05024
1017.631	89.62587
1017.797	94.29621
1017.964	95.28781
1018.13	89.71527
1018.296	86.47145
1018.463	93.31782
1018.629	92.64797
1018.795	92.40582
1018.961	90.06158
1019.128	84.48938
1019.294	89.37891
1019.46	93.09218
1019.626	91.96307
1019.792	101.34863
1019.959	93.39247
1020.125	89.07066
1020.291	90.05302
1020.457	99.68977
1020.623	89.83332
1020.789	69.74014
1020.955	91.85849
1021.121	71.40721
1021.287	79.79521
1021.453	98.437
1021.619	90.28334
1021.785	89.27855
1021.951	71.40178
1022.117	79.35724
1022.283	82.02382
1022.449	81.01453
1022.615	89.16902
1022.781	74.39404
1022.946	89.36974
1023.112	92.77333
1023.278	77.53615
1023.444	71.53407
1023.61	99.3543
1023.775	79.2438
1023.941	74.7412
1024.107	72.77508
1024.273	96.2078
1024.438	93.89753
1024.604	85.28615
1024.77	76.52119
1024.935	42.2525
1025.101	77.78711
1025.267	84.47428
1025.432	75.77738
1025.598	88.08043
1025.763	87.09485
1025.929	79.24833
1026.095	66.39558
1026.26	74.65119
1026.426	79.70424
1026.591	68.73885
1026.757	86.95702
1026.922	71.42897
1027.087	55.56409
1027.253	67.18967
1027.418	94.78349
1027.584	79.45041
1027.749	63.39028
1027.914	83.81437
1028.08	61.6927
1028.245	57.79037
1028.41	74.23104
1028.576	60.90353
1028.741	77.55384
1028.906	68.39637
1029.072	68.98448
1029.237	73.32634
1029.402	74.87869
1029.567	49.52448
1029.732	61.92684
1029.898	66.96557
1030.063	83.49707
1030.228	57.58768
1030.393	87.18355
1030.558	47.06286
1030.723	75.34409
1030.888	61.72094
1031.053	74.91323
1031.218	39.45524
1031.383	68.74723
1031.548	54.77867
1031.713	52.89524
1031.878	52.99483
1032.043	77.13092
1032.208	61.03003
1032.373	69.20334
1032.538	51.65102
1032.703	45.29274
1032.868	71.55507
1033.033	68.11865
1033.198	58.48962
1033.362	57.12906
1033.527	63.95403
1033.692	58.6797
1033.857	49.41617
1034.021	52.20215
1034.186	89.09305
1034.351	56.89852
1034.516	66.73816
1034.68	52.42951
1034.845	61.3821
1035.01	50.981
1035.174	56.80917
1035.339	44.28429
1035.504	50.88056
1035.668	60.70546
1035.833	63.95794
1035.997	66.08482
1036.162	48.30295
1036.326	44.38925
1036.491	56.69138
1036.655	51.55644
1036.82	69.99221
1036.984	60.02873
1037.149	51.54758
1037.313	63.05692
1037.478	63.37892
1037.642	46.74328
1037.807	53.79481
1037.971	39.58898
1038.135	53.66524
1038.3	49.77068
1038.464	36.5641
1038.628	45.27667
1038.792	47.95955
1038.957	37.23387
1039.121	57.34697
1039.285	59.47536
1039.449	47.29564
1039.614	42.49097
1039.778	41.94494
1039.942	33.43501
1040.106	53.34297
1040.27	41.82101
1040.434	66.07927
1040.599	44.51408
1040.763	43.49177
1040.927	33.10163
1041.091	46.97376
1041.255	40.04106
1041.419	49.74787
1041.583	35.10934
1041.747	52.55343
1041.911	52.67541
1042.075	38.14222
1042.239	35.00241
1042.403	60.05761
1042.567	34.55338
1042.731	55.12931
1042.894	32.883
1043.058	59.15702
1043.222	39.58459
1043.386	53.22108
1043.55	48.08336
1043.714	53.24142
1043.877	66.42269
1044.041	42.94448
1044.205	38.47521
1044.369	48.2008
1044.532	45.07632
1044.696	40.70934
1044.86	44.51305
1045.023	37.91837
1045.187	33.43565
1045.351	47.63116
1045.514	42.95499
1045.678	34.10465
1045.841	42.27702
