Data from 3_57 pm cloudy_Subt2__6__16-00-08-198.txt Node

Date: Tue Oct 07 16:00:08 EDT 2025
User: brett
Spectrometer: USB4F03499
Trigger mode: 4
Integration Time (sec): 1.000000E-2
Scans to average: 10
Electric dark correction enabled: true
Nonlinearity correction enabled: true
Boxcar width: 0
XAxis mode: Wavelengths
Number of Pixels in Spectrum: 3648
>>>>>Begin Spectral Data<<<<<
345.386	-12.98699
345.605	-12.98699
345.824	-12.98699
346.044	-3.91895
346.263	-16.90616
346.482	-12.19891
346.701	-3.35658
346.92	6.49289
347.139	12.98125
347.358	-6.71426
347.577	18.13087
347.796	-8.95493
348.015	4.5877
348.234	-7.38693
348.453	10.29923
348.672	-15.55682
348.891	1.67876
349.11	-4.58735
349.329	137.3492
349.548	191.0819
349.767	183.59522
349.986	209.04598
350.205	220.18733
350.424	192.90811
350.643	190.79717
350.862	208.34845
351.08	198.80157
351.299	209.17318
351.518	205.09031
351.737	213.45838
351.956	211.71194
352.174	206.22417
352.393	214.88202
352.612	214.05505
352.831	214.96408
353.049	226.37953
353.268	215.79196
353.487	226.74139
353.705	224.32669
353.924	229.12412
354.143	225.81319
354.361	227.88096
354.58	225.72074
354.798	243.55069
355.017	224.95519
355.236	237.09347
355.454	228.27475
355.673	250.54279
355.891	248.31367
356.11	237.87423
356.328	239.55215
356.547	240.97833
356.765	243.08115
356.984	256.14997
357.202	262.91988
357.42	271.79292
357.639	248.79514
357.857	262.34951
358.076	252.28835
358.294	238.95854
358.512	263.57088
358.731	255.18292
358.949	249.22584
359.167	273.11185
359.386	267.716
359.604	251.84729
359.822	256.20449
360.04	282.78712
360.259	281.13304
360.477	271.74519
360.695	269.39778
360.913	272.75461
361.131	275.58788
361.35	273.9675
361.568	264.0842
361.786	271.14203
362.004	276.30228
362.222	276.74422
362.44	264.12019
362.658	280.13907
362.876	265.03909
363.094	261.67912
363.312	267.33537
363.53	266.07878
363.749	286.50079
363.967	271.98863
364.184	269.22257
364.402	278.82211
364.62	283.8651
364.838	287.67738
365.056	289.19792
365.274	313.41853
365.492	282.94676
365.71	283.578
365.928	296.89851
366.146	283.69092
366.364	308.48112
366.581	301.25101
366.799	316.29115
367.017	307.40696
367.235	324.68777
367.453	325.47725
367.67	334.97378
367.888	322.30408
368.106	358.03587
368.323	333.66362
368.541	342.32344
368.759	355.32594
368.977	358.62521
369.194	347.16758
369.412	378.1599
369.629	357.17044
369.847	363.78993
370.065	388.15382
370.282	389.70508
370.5	387.30217
370.717	383.50069
370.935	399.68338
371.152	397.77191
371.37	413.61111
371.588	415.92837
371.805	428.03006
372.022	425.82487
372.24	425.89842
372.457	414.80878
372.675	426.51833
372.892	414.32686
373.11	403.90603
373.327	430.64253
373.544	440.85748
373.762	445.67109
373.979	436.29722
374.196	446.21432
374.414	449.16211
374.631	447.92263
374.848	451.56185
375.066	432.02732
375.283	437.37313
375.5	438.95438
375.717	444.14988
375.935	466.4367
376.152	466.75281
376.369	453.88308
376.586	457.62797
376.803	449.80885
377.02	462.6014
377.238	465.35282
377.455	461.69997
377.672	473.96992
377.889	448.37713
378.106	460.85948
378.323	470.03403
378.54	462.47222
378.757	477.01948
378.974	467.50727
379.191	462.74507
379.408	482.50617
379.625	478.50958
379.842	461.65689
380.059	474.35243
380.276	485.7957
380.493	475.08128
380.71	489.56664
380.927	479.35252
381.143	473.90548
381.36	501.1606
381.577	501.60101
381.794	488.39097
382.011	479.72489
382.228	515.30647
382.444	512.40977
382.661	495.63675
382.878	512.11147
383.095	505.42306
383.311	491.17822
383.528	522.12469
383.745	514.33632
383.962	535.69124
384.178	526.29286
384.395	537.2602
384.612	547.53716
384.828	510.60682
385.045	535.3275
385.261	541.20747
385.478	545.4037
385.695	518.69385
385.911	546.89342
386.128	543.34015
386.344	542.70953
386.561	542.8648
386.777	553.71297
386.994	551.7044
387.21	530.8851
387.427	560.0974
387.643	539.26754
387.86	552.41997
388.076	537.0653
388.292	549.61161
388.509	526.54721
388.725	537.26679
388.942	565.57113
389.158	538.27986
389.374	565.60435
389.591	542.32323
389.807	528.94956
390.023	579.82199
390.239	573.36139
390.456	587.50848
390.672	564.73484
390.888	563.28282
391.104	575.83508
391.321	586.60808
391.537	595.41365
391.753	579.10848
391.969	618.24927
392.185	621.20342
392.401	621.7921
392.618	610.27492
392.834	633.86941
393.05	639.92298
393.266	638.59201
393.482	660.76757
393.698	633.1856
393.914	649.1722
394.13	662.36095
394.346	666.36905
394.562	662.3325
394.778	670.75016
394.994	682.60288
395.21	686.45326
395.426	697.75667
395.642	710.31722
395.858	734.20854
396.073	701.31312
396.289	712.0193
396.505	741.44192
396.721	725.6602
396.937	750.03046
397.153	745.9018
397.369	737.87948
397.584	762.56633
397.8	756.05223
398.016	784.17534
398.232	795.42074
398.447	778.63321
398.663	795.95553
398.879	792.09998
399.094	805.91384
399.31	831.86519
399.526	814.80939
399.741	830.18286
399.957	837.81109
400.173	837.02764
400.388	839.11287
400.604	853.46998
400.82	884.39596
401.035	914.49511
401.251	929.58661
401.466	893.89183
401.682	945.14181
401.897	980.70004
402.113	984.2198
402.328	985.87968
402.544	1005.90961
402.759	1008.10747
402.974	1056.46555
403.19	1070.25979
403.405	1146.89149
403.621	1197.87447
403.836	1177.02536
404.051	1253.35231
404.267	1252.55396
404.482	1241.89037
404.697	1253.65408
404.913	1296.98427
405.128	1368.13286
405.343	1347.50187
405.559	1346.36081
405.774	1399.86442
405.989	1465.43248
406.204	1464.04854
406.42	1492.76356
406.635	1503.4855
406.85	1516.30058
407.065	1527.13223
407.28	1618.5351
407.495	1639.03326
407.71	1588.74768
407.926	1603.78568
408.141	1740.05219
408.356	1711.38221
408.571	1717.25501
408.786	1707.20383
409.001	1736.73848
409.216	1817.74608
409.431	1825.74264
409.646	1808.99503
409.861	1803.52156
410.076	1825.43016
410.291	1838.60654
410.506	1901.69195
410.721	1852.18379
410.936	1898.30453
411.15	1892.32516
411.365	1907.77272
411.58	1936.88575
411.795	1932.25603
412.01	2008.39189
412.225	1999.03977
412.439	1953.06026
412.654	2006.49986
412.869	2005.76717
413.084	2010.86375
413.299	2032.95618
413.513	1985.07367
413.728	2004.94056
413.943	2086.55481
414.157	2086.71171
414.372	2111.15662
414.587	2140.91951
414.801	2245.19336
415.016	2198.2477
415.231	2213.43703
415.445	2220.98357
415.66	2251.49648
415.874	2293.52082
416.089	2251.20639
416.304	2360.84354
416.518	2332.54811
416.733	2340.91297
416.947	2304.50812
417.162	2327.29363
417.376	2392.89063
417.59	2448.01193
417.805	2467.27399
418.019	2434.29801
418.234	2414.25898
418.448	2372.99841
418.663	2466.11883
418.877	2462.93048
419.091	2488.13702
419.306	2464.36765
419.52	2515.4192
419.734	2454.31038
419.949	2597.33232
420.163	2632.53486
420.377	2531.85535
420.591	2579.35322
420.806	2591.84888
421.02	2536.11463
421.234	2639.86576
421.448	2614.52228
421.663	2652.43178
421.877	2612.44326
422.091	2577.26028
422.305	2588.55001
422.519	2613.73995
422.733	2720.30738
422.947	2634.25698
423.161	2641.40005
423.376	2669.65184
423.59	2710.90587
423.804	2720.79455
424.018	2691.7046
424.232	2710.58543
424.446	2815.01766
424.66	2742.03915
424.874	2737.50274
425.088	2663.52345
425.302	2685.83934
425.515	2818.61249
425.729	2856.92971
425.943	2847.1886
426.157	2845.88459
426.371	2813.48175
426.585	2831.41313
426.799	2830.55473
427.013	2961.10629
427.226	2962.39675
427.44	2823.7334
427.654	2828.00301
427.868	2845.04118
428.081	2885.01085
428.295	2841.19315
428.509	2871.22427
428.723	2837.75962
428.936	2882.04781
429.15	2793.53816
429.364	2891.19891
429.577	2728.2781
429.791	2820.29797
430.005	2976.86186
430.218	2897.66065
430.432	2776.7791
430.645	2821.60319
430.859	2868.88777
431.073	2881.06514
431.286	2951.37593
431.5	2980.67801
431.713	2818.94927
431.927	2804.03505
432.14	2888.1004
432.354	2866.58059
432.567	2858.8569
432.781	2927.51135
432.994	2946.91488
433.207	3009.27422
433.421	3015.80936
433.634	2962.62046
433.848	3016.30161
434.061	2955.94537
434.274	2841.74068
434.488	2882.06813
434.701	2838.55076
434.914	2895.22234
435.127	2982.79052
435.341	3001.92156
435.554	2992.02206
435.767	3117.8709
435.98	3128.14225
436.194	2952.27384
436.407	2983.64541
436.62	3246.32734
436.833	3187.75039
437.046	3110.76764
437.259	3020.03662
437.473	3178.31145
437.686	3240.18784
437.899	3131.04327
438.112	3205.30634
438.325	3147.72539
438.538	3190.33222
438.751	3394.71185
438.964	3258.1811
439.177	3267.16065
439.39	3264.1802
439.603	3489.32765
439.816	3355.64735
440.029	3564.62906
440.242	3656.17588
440.455	3705.81879
440.668	3632.82671
440.881	3494.57881
441.094	3453.85846
441.306	3656.13492
441.519	3828.28834
441.732	3826.70592
441.945	3827.87361
442.158	3715.53215
442.37	3617.07512
442.583	3895.804
442.796	3999.74441
443.009	3957.04576
443.222	3791.18918
443.434	3677.97396
443.647	3999.19156
443.86	4157.81799
444.072	4194.99472
444.285	4101.33396
444.498	4175.75564
444.71	4050.74659
444.923	4110.62192
445.136	4066.06097
445.348	3988.01968
445.561	4050.12974
445.773	4044.57999
445.986	3864.04224
446.198	4230.32069
446.411	4243.4279
446.623	4307.66779
446.836	4286.71339
447.048	4282.72108
447.261	4454.07108
447.473	4454.39684
447.686	4277.72731
447.898	4328.12456
448.11	4579.59276
448.323	4667.11443
448.535	4571.42129
448.748	4312.45596
448.96	4378.98288
449.172	4371.61558
449.385	4254.68153
449.597	4507.31612
449.809	4539.39773
450.021	4628.65275
450.234	4713.02393
450.446	4448.11481
450.658	4491.76293
450.87	4532.48491
451.083	4626.61278
451.295	4682.40737
451.507	4683.28636
451.719	4564.90186
451.931	4742.08174
452.143	4720.2492
452.356	4674.1427
452.568	4724.84131
452.78	4729.37207
452.992	4807.7023
453.204	4992.56393
453.416	4748.12083
453.628	4592.48644
453.84	4709.66412
454.052	4742.79337
454.264	4918.48551
454.476	4887.65575
454.688	5130.50678
454.9	5145.16106
455.112	4849.562
455.324	4809.36566
455.536	4938.6299
455.747	5096.67257
455.959	5017.21445
456.171	5113.63714
456.383	4967.283
456.595	4852.9005
456.807	4897.17348
457.018	4863.0115
457.23	5065.00115
457.442	4974.41739
457.654	5122.77644
457.865	5056.69373
458.077	4895.88554
458.289	4936.325
458.501	5017.49927
458.712	5294.45886
458.924	5408.42364
459.136	5158.75916
459.347	5048.9995
459.559	5132.70254
459.77	5343.00103
459.982	5424.95825
460.194	5392.61576
460.405	5120.81614
460.617	5137.5982
460.828	5370.48323
461.04	5347.30233
461.251	5279.8841
461.463	5655.73283
461.674	5588.22698
461.886	5470.88933
462.097	5304.71742
462.309	5480.30023
462.52	5325.70167
462.731	5709.28
462.943	5363.33706
463.154	5253.2205
463.366	5379.4763
463.577	5527.55987
463.788	5747.29453
464	5724.90531
464.211	5773.77888
464.422	6059.36018
464.634	5943.37649
464.845	5906.51326
465.056	6027.2252
465.267	5962.40777
465.478	5697.40909
465.69	5956.26243
465.901	5943.21471
466.112	5968.20099
466.323	6040.67886
466.534	6178.27712
466.745	6203.84357
466.957	6195.19348
467.168	6140.4301
467.379	6167.03939
467.59	6010.47561
467.801	5855.81874
468.012	6147.93236
468.223	6235.66537
468.434	6135.33686
468.645	6520.55029
468.856	6627.17464
469.067	6406.78656
469.278	6427.71262
469.489	6553.1736
469.7	6281.14217
469.911	6204.78928
470.122	6730.93433
470.333	6883.43282
470.543	6501.00869
470.754	6672.28423
470.965	6711.72796
471.176	6754.37213
471.387	6992.68284
471.598	6813.60275
471.808	6760.97859
472.019	6906.07726
472.23	6871.94132
472.441	6713.53769
472.651	6886.28349
472.862	6816.14868
473.073	7163.16001
473.283	7019.70692
473.494	6929.27198
473.705	6983.44371
473.915	7027.6551
474.126	7325.04543
474.337	7289.94122
474.547	7461.17383
474.758	7579.20924
474.968	7456.46496
475.179	7514.84891
475.389	7413.80657
475.6	7570.45102
475.81	7645.97025
476.021	7831.59373
476.231	7908.5083
476.442	7820.17202
476.652	7621.38302
476.863	7801.81675
477.073	7710.62362
477.284	7967.12383
477.494	7980.84141
477.704	8353.07706
477.915	8511.74132
478.125	8081.34599
478.335	8297.82675
478.546	8602.9549
478.756	8446.32814
478.966	8685.10706
479.177	8646.84051
479.387	8757.18871
479.597	8756.95388
479.807	8821.69637
480.018	8707.84601
480.228	8919.75603
480.438	8991.63538
480.648	9160.63733
480.858	9178.70517
481.068	8901.17307
481.279	9205.72621
481.489	9608.94694
481.699	9516.02711
481.909	9465.42051
482.119	10058.60397
482.329	9973.53595
482.539	9938.9934
482.749	9747.43739
482.959	10046.73689
483.169	10356.53218
483.379	10292.07602
483.589	10480.89052
483.799	10341.78217
484.009	10294.14849
484.219	10392.33452
484.429	10641.11813
484.639	10430.05613
484.849	10705.54536
485.059	10929.49313
485.268	10975.50517
485.478	11084.83771
485.688	10802.14361
485.898	10890.08057
486.108	11070.68535
486.317	11202.91539
486.527	11279.55436
486.737	11543.22213
486.947	11524.33528
487.156	11665.39763
487.366	11615.38495
487.576	11350.1841
487.785	11465.36241
487.995	11457.12412
488.205	11616.45628
488.414	11727.60118
488.624	11725.12539
488.834	11751.25947
489.043	11620.528
489.253	11606.66816
489.462	11827.24646
489.672	12051.50206
489.882	12102.58634
490.091	12264.00392
490.301	12063.22509
490.51	12180.94073
490.72	12283.09621
490.929	12405.1159
491.138	12622.69301
491.348	12375.55001
491.557	12452.82599
491.767	12575.24285
491.976	12601.23649
492.185	12581.14126
492.395	12568.29286
492.604	12711.46658
492.813	12734.4548
493.023	12980.11356
493.232	12843.96545
493.441	12820.19918
493.651	13034.17806
493.86	12740.75179
494.069	13000.30106
494.278	13109.11638
494.488	13152.23401
494.697	13194.93562
494.906	13103.43546
495.115	13335.82644
495.324	13262.82992
495.533	13451.9574
495.743	13524.97594
495.952	13786.54086
496.161	13682.9235
496.37	13772.66254
496.579	13869.22894
496.788	14001.71598
496.997	14164.41645
497.206	13977.41839
497.415	14052.0473
497.624	14187.97001
497.833	14314.85019
498.042	14302.86197
498.251	14441.71901
498.46	14523.47888
498.669	14486.43383
498.878	14432.47462
499.087	14515.02295
499.296	14913.22427
499.504	14774.54074
499.713	14770.44365
499.922	14858.64744
500.131	14880.11487
500.34	14970.83384
500.549	14998.15991
500.757	14854.93607
500.966	15098.65867
501.175	15023.84508
501.384	15261.9238
501.592	15127.95623
501.801	15155.91717
502.01	15236.83379
502.218	15253.38822
502.427	15303.22417
502.636	15293.79095
502.844	15384.28004
503.053	15273.64846
503.262	15320.80103
503.47	15273.05604
503.679	15404.4056
503.887	15344.74137
504.096	15393.81428
504.304	15412.3064
504.513	15538.39809
504.721	15477.37018
504.93	15418.0599
505.138	15590.18007
505.347	15510.58135
505.555	15495.98092
505.764	15572.38065
505.972	15637.28316
506.18	15464.65335
506.389	15475.86582
506.597	15495.1378
506.806	15587.50614
507.014	15682.19504
507.222	15533.92218
507.431	15649.72254
507.639	15581.05271
507.847	15742.45872
508.055	15709.07754
508.264	15691.33239
508.472	15756.22312
508.68	15767.58035
508.888	15889.98025
509.096	15851.29839
509.305	15858.18575
509.513	15819.0408
509.721	15859.89959
509.929	15860.70336
510.137	15864.14448
510.345	15949.87808
510.553	15877.72185
510.762	15940.10519
510.97	15894.33864
511.178	16071.093
511.386	16160.68473
511.594	16104.31281
511.802	16156.90258
512.01	16133.71584
512.218	16177.74549
512.426	16369.14499
512.634	16276.65011
512.842	16388.35432
513.049	16308.78072
513.257	16348.02887
513.465	16439.49502
513.673	16469.34906
513.881	16442.60243
514.089	16496.5711
514.297	16559.9879
514.504	16560.92475
514.712	16665.44275
514.92	16715.72027
515.128	16809.54325
515.336	16769.42086
515.543	16743.18806
515.751	16833.28986
515.959	16771.72178
516.166	16605.01742
516.374	16735.77282
516.582	16855.05322
516.789	16821.23533
516.997	16882.35882
517.205	16790.62144
517.412	16880.56033
517.62	16838.05644
517.827	16850.55484
518.035	16815.66523
518.243	16834.23084
518.45	16696.21
518.658	16653.1331
518.865	16731.87845
519.073	16803.58347
519.28	16591.339
519.488	16637.09858
519.695	16504.08929
519.902	16564.66622
520.11	16553.1377
520.317	16740.36642
520.525	16592.88166
520.732	16503.13657
520.939	16679.09521
521.147	16476.31367
521.354	16540.18563
521.561	16550.75193
521.769	16576.95794
521.976	16469.66273
522.183	16627.76374
522.391	16480.2142
522.598	16621.2303
522.805	16537.07731
523.012	16541.6494
523.219	16639.81077
523.427	16741.79636
523.634	16746.21869
523.841	16755.38766
524.048	16678.74048
524.255	16868.79
524.462	16804.10256
524.669	16659.15872
524.877	16845.85473
525.084	16735.34495
525.291	16730.49374
525.498	16866.09458
525.705	16891.87988
525.912	17027.76575
526.119	16864.6336
526.326	16927.68373
526.533	17019.57531
526.74	17124.94902
526.947	17063.11763
527.153	17137.95079
527.36	17180.8678
527.567	17158.99772
527.774	17125.32667
527.981	17102.87029
528.188	17180.07411
528.395	17296.12239
528.602	17242.89813
528.808	17206.32865
529.015	17174.70024
529.222	17446.97482
529.429	17173.6745
529.635	17400.20692
529.842	17364.07814
530.049	17302.83027
530.256	17331.43482
530.462	17520.25604
530.669	17498.74791
530.876	17494.99197
531.082	17483.42571
531.289	17564.3038
531.495	17565.72094
531.702	17626.34721
531.909	17623.61043
532.115	17757.51873
532.322	17589.66311
532.528	17701.09547
532.735	17723.16476
532.941	17716.85381
533.148	17649.25781
533.354	17676.30269
533.561	17817.53994
533.767	17707.46483
533.974	17672.5466
534.18	17786.44609
534.387	17712.34307
534.593	17723.52656
534.799	17768.55005
535.006	17809.29781
535.212	17713.41496
535.418	17835.08226
535.625	17928.00157
535.831	17816.82011
536.037	17817.52914
536.244	17825.11525
536.45	17592.72505
536.656	17721.24489
536.862	17857.27336
537.068	17940.58559
537.275	17869.64663
537.481	17935.6417
537.687	17988.32097
537.893	18041.1665
538.099	18039.86074
538.305	17958.19544
538.512	18030.18369
538.718	17996.05506
538.924	17991.91451
539.13	17955.24129
539.336	18029.97026
539.542	17987.85905
539.748	18133.13325
539.954	17985.28143
540.16	18141.8793
540.366	18102.76423
540.572	18061.90285
540.778	18040.3454
540.984	18050.96479
541.19	18000.61346
541.396	17978.1209
541.602	18084.96454
541.807	17938.85556
542.013	18058.64437
542.219	17840.68868
542.425	17907.00739
542.631	17845.79099
542.837	17807.92576
543.042	17882.18057
543.248	17860.7668
543.454	17796.1431
543.66	17876.09844
543.865	17717.22855
544.071	17868.81627
544.277	17718.71015
544.483	17745.83486
544.688	17750.31383
544.894	17888.38215
545.1	17912.02503
545.305	17718.78281
545.511	17862.02262
545.716	17821.69753
545.922	17738.20804
546.128	17769.21592
546.333	17795.23803
546.539	17857.90122
546.744	17755.61036
546.95	17733.88045
547.155	17703.24404
547.361	17808.15845
547.566	17583.46072
547.772	17757.47166
547.977	17723.46691
548.182	17606.81055
548.388	17704.17377
548.593	17695.31219
548.799	17589.15671
549.004	17582.51213
549.209	17690.5298
549.415	17794.78003
549.62	17629.03477
549.825	17688.5712
550.031	17613.09505
550.236	17721.56665
550.441	17819.87559
550.646	17751.08422
550.852	17809.80823
551.057	17696.41218
551.262	17798.07503
551.467	17847.7451
551.672	17705.68261
551.878	17884.1783
552.083	17709.66822
552.288	17802.57288
552.493	17754.52809
552.698	17791.57275
552.903	17768.77681
553.108	17920.5302
553.313	17881.20369
553.518	17780.08659
553.723	17886.48623
553.928	17934.11153
554.133	17919.81511
554.338	17929.37933
554.543	18006.12854
554.748	17896.61696
554.953	17999.16645
555.158	17990.10476
555.363	17955.40371
555.568	17823.11779
555.773	18116.07902
555.978	18100.4823
556.182	17964.59117
556.387	17970.93086
556.592	18002.18276
556.797	18070.75436
557.002	18085.6426
557.206	17994.99932
557.411	17997.34514
557.616	17880.56157
557.821	18149.58111
558.025	18102.16621
558.23	18010.73008
558.435	18059.78209
558.64	18042.67788
558.844	18039.21731
559.049	18032.5801
559.253	18127.16705
559.458	17997.03097
559.663	18051.06301
559.867	17945.46298
560.072	17913.069
560.276	17950.2951
560.481	17923.94125
560.685	17982.33852
560.89	17895.70962
561.094	17886.56667
561.299	17768.51242
561.503	17626.18811
561.708	17884.33414
561.912	17767.92888
562.117	17780.1305
562.321	17724.56968
562.525	17881.26767
562.73	17817.43818
562.934	17768.84556
563.139	17716.25651
563.343	17786.92724
563.547	17693.48441
563.752	17782.15658
563.956	17730.95699
564.16	17694.4222
564.364	17646.46234
564.569	17700.51255
564.773	17728.18504
564.977	17652.31663
565.181	17740.30024
565.385	17578.38728
565.59	17707.01284
565.794	17620.78145
565.998	17632.82978
566.202	17573.64839
566.406	17686.95709
566.61	17655.70445
566.814	17573.36858
567.018	17538.55237
567.222	17601.33467
567.426	17403.89353
567.63	17500.58146
567.834	17453.47532
568.038	17513.58864
568.242	17399.53169
568.446	17444.96455
568.65	17424.13784
568.854	17437.41396
569.058	17484.80902
569.262	17457.35733
569.466	17416.58134
569.67	17400.35682
569.874	17308.44648
570.078	17394.24519
570.281	17319.07066
570.485	17337.88393
570.689	17283.74958
570.893	17145.25675
571.097	17246.22017
571.3	17178.76379
571.504	17195.91654
571.708	17107.46827
571.912	17143.63829
572.115	17103.60772
572.319	16881.56963
572.523	17072.34521
572.726	17023.46126
572.93	16982.40336
573.133	17057.794
573.337	16997.63544
573.541	16974.95411
573.744	16867.82752
573.948	16887.1326
574.151	16868.54171
574.355	16852.53048
574.558	16855.57672
574.762	16955.2824
574.965	16732.92588
575.169	16867.0727
575.372	16813.33423
575.576	16756.84531
575.779	16770.51574
575.983	16804.2245
576.186	16695.46291
576.389	16675.73866
576.593	16639.86565
576.796	16742.69333
577	16539.78506
577.203	16677.65791
577.406	16694.13159
577.609	16505.01792
577.813	16634.12582
578.016	16580.3418
578.219	16599.16456
578.423	16463.19815
578.626	16512.81666
578.829	16442.16569
579.032	16464.07708
579.235	16606.5191
579.438	16537.39727
579.642	16467.56181
579.845	16418.20634
580.048	16472.96724
580.251	16282.49776
580.454	16479.55584
580.657	16355.38797
580.86	16414.70705
581.063	16239.7701
581.266	16329.05107
581.469	16395.06683
581.672	16346.43938
581.875	16378.12947
582.078	16300.96746
582.281	16321.34979
582.484	16274.20684
582.687	16448.88054
582.89	16387.23215
583.093	16254.60002
583.296	16252.81496
583.499	16515.31726
583.702	16378.87702
583.904	16265.91201
584.107	16344.74405
584.31	16327.01772
584.513	16298.05915
584.716	16359.97873
584.918	16326.18407
585.121	16390.61614
585.324	16322.01719
585.527	16292.03071
585.729	16462.39962
585.932	16370.70856
586.135	16370.64329
586.337	16366.03396
586.54	16412.33961
586.743	16352.66047
586.945	16320.04283
587.148	16314.14527
587.35	16321.61154
587.553	16317.06447
587.755	16358.53998
587.958	16320.09585
588.161	16263.82033
588.363	16293.42977
588.566	16248.41298
588.768	16402.18553
588.971	16299.65214
589.173	16239.24817
589.375	16209.60021
589.578	16197.94924
589.78	16136.83017
589.983	16108.34472
590.185	16176.63899
590.387	15951.47225
590.59	15942.52914
590.792	15842.57246
590.994	15661.21125
591.197	15680.72095
591.399	15549.6135
591.601	15553.72013
591.803	15350.75926
592.006	15369.17173
592.208	15336.15791
592.41	15271.90964
592.612	15208.29962
592.815	15126.51548
593.017	15149.5866
593.219	14936.52566
593.421	14872.27669
593.623	14806.47504
593.825	14832.61841
594.027	14754.98803
594.229	14731.13238
594.432	14617.64736
594.634	14653.46288
594.836	14561.25587
595.038	14624.04206
595.24	14516.17162
595.442	14510.78498
595.644	14441.74462
595.846	14343.10996
596.048	14401.29571
596.249	14229.82342
596.451	14285.91827
596.653	14228.02145
596.855	14144.59717
597.057	14096.20693
597.259	14116.56278
597.461	14095.49749
597.663	14059.88865
597.864	13977.66623
598.066	14063.4567
598.268	14015.52851
598.47	13976.46123
598.671	13884.92594
598.873	13957.27289
599.075	13944.74173
599.277	14035.00904
599.478	13949.24787
599.68	14008.56884
599.882	14036.834
600.083	14026.51427
600.285	13963.18782
600.487	13959.03471
600.688	13968.35687
600.89	14085.77974
601.091	14100.6085
601.293	14083.06446
601.494	14118.78242
601.696	14133.3843
601.898	14188.41428
602.099	14248.17578
602.301	14294.07341
602.502	14325.5883
602.703	14381.64818
602.905	14286.99058
603.106	14480.60572
603.308	14345.67799
603.509	14470.28659
603.711	14342.90402
603.912	14385.26246
604.113	14394.7347
604.315	14424.24132
604.516	14504.83627
604.717	14402.40012
604.919	14491.87182
605.12	14423.31201
605.321	14629.55236
605.522	14595.30543
605.724	14579.9059
605.925	14540.68665
606.126	14746.03931
606.327	14755.82476
606.528	14768.78068
606.729	14717.27191
606.931	14840.85626
607.132	14936.31875
607.333	14668.91747
607.534	14826.29539
607.735	14893.42579
607.936	14878.32952
608.137	14938.39425
608.338	14970.46863
608.539	14924.43292
608.74	14911.00994
608.941	14906.44614
609.142	14960.86624
609.343	15029.9678
609.544	15048.80673
609.745	14984.89561
609.946	15099.02712
610.147	15057.1972
610.348	15012.87761
610.549	15014.99573
610.75	15125.02941
610.95	15028.92552
611.151	15033.47453
611.352	15045.52349
611.553	15066.51456
611.754	15023.37787
611.954	15199.66965
612.155	14977.98064
612.356	15110.86332
612.557	15012.4237
612.757	15172.29628
612.958	15003.14801
613.159	15091.33358
613.359	15012.86882
613.56	15077.9313
613.761	15083.9274
613.961	15008.00142
614.162	14909.9191
614.362	14968.69905
614.563	15047.52475
614.764	15040.97105
614.964	14930.14782
615.165	14976.18902
615.365	14946.33617
615.566	14928.59264
615.766	14957.94888
615.967	15009.72423
616.167	14820.92328
616.368	14797.66707
616.568	14898.71467
616.768	14820.25183
616.969	14901.51947
617.169	14860.43704
617.37	14686.85782
617.57	14804.09499
617.77	14767.68441
617.971	14713.82563
618.171	14685.99051
618.371	14711.86946
618.571	14634.91726
618.772	14726.85625
618.972	14670.90803
619.172	14625.81698
619.372	14519.43176
619.573	14597.8639
619.773	14602.84702
619.973	14473.28786
620.173	14556.85042
620.373	14555.90126
620.573	14506.63265
620.774	14551.00224
620.974	14464.45145
621.174	14409.07316
621.374	14479.76588
621.574	14511.04832
621.774	14440.4525
621.974	14432.37527
622.174	14403.89801
622.374	14435.26021
622.574	14420.79905
622.774	14414.56754
622.974	14334.4367
623.174	14462.44823
623.374	14418.00606
623.574	14448.30536
623.774	14401.1177
623.973	14421.38045
624.173	14395.78
624.373	14460.53044
624.573	14335.55557
624.773	14326.57566
624.973	14333.79181
625.172	14331.46829
625.372	14263.77457
625.572	14237.89166
625.772	14326.31709
625.971	14203.48346
626.171	14239.23822
626.371	14319.17882
626.57	14110.95586
626.77	14350.56153
626.97	14164.20402
627.169	14173.09157
627.369	14179.50905
627.569	14211.16585
627.768	14056.74165
627.968	14100.40202
628.167	14095.42031
628.367	14086.66968
628.566	14063.94481
628.766	14077.8835
628.965	14037.65743
629.165	14115.37958
629.364	13980.32018
629.564	13953.77425
629.763	13946.69871
629.963	13926.5457
630.162	13947.53275
630.362	13875.76448
630.561	13845.57738
630.76	13822.90327
630.96	13725.48219
631.159	13796.06466
631.358	13768.39371
631.558	13700.11063
631.757	13682.65673
631.956	13678.64378
632.155	13651.66936
632.355	13577.46839
632.554	13566.60897
632.753	13484.65579
632.952	13472.22168
633.152	13494.14193
633.351	13488.61586
633.55	13495.65265
633.749	13434.77685
633.948	13498.9673
634.147	13416.91367
634.346	13316.9964
634.545	13347.39751
634.744	13291.06063
634.944	13218.59784
635.143	13295.6277
635.342	13277.3644
635.541	13307.96584
635.74	13280.03243
635.939	13181.80406
636.138	13176.98222
636.336	13158.55057
636.535	13128.92186
636.734	13272.88381
636.933	13270.12791
637.132	13207.1586
637.331	13111.69088
637.53	13196.40931
637.729	13126.35604
637.928	13193.32905
638.126	13203.36198
638.325	13087.02489
638.524	13115.76895
638.723	13033.4536
638.921	13054.65329
639.12	13134.16026
639.319	13125.41252
639.518	13158.53256
639.716	13086.31432
639.915	13089.10536
640.114	13076.09221
640.312	13161.06705
640.511	13149.94583
640.71	13204.54526
640.908	13138.73716
641.107	13092.99335
641.305	13066.61534
641.504	13053.74063
641.702	13030.73163
641.901	13081.10163
642.099	13058.41362
642.298	12985.7171
642.496	13074.47681
642.695	13000.26931
642.893	13009.35615
643.092	13065.6574
643.29	13010.95321
643.489	12975.02765
643.687	13013.39549
643.885	12946.01387
644.084	13031.52334
644.282	12999.84852
644.48	13045.92854
644.679	12987.27059
644.877	12935.37847
645.075	12974.17724
645.274	12937.72088
645.472	12894.50101
645.67	12916.01972
645.868	12894.01849
646.067	12849.52257
646.265	12908.69301
646.463	12895.49495
646.661	12767.22728
646.859	12868.67406
647.057	12790.4878
647.256	12800.38667
647.454	12823.77564
647.652	12846.84219
647.85	12745.38397
648.048	12744.61658
648.246	12704.98654
648.444	12569.21814
648.642	12625.56804
648.84	12551.46937
649.038	12454.57879
649.236	12437.77213
649.434	12455.55667
649.632	12367.4685
649.83	12407.06942
650.028	12228.04754
650.226	12255.5155
650.423	12172.39523
650.621	12189.44468
650.819	12064.22647
651.017	12034.92009
651.215	12098.59351
651.413	12040.9194
651.61	11915.95353
651.808	11894.35771
652.006	11904.44733
652.204	11871.09335
652.401	11871.51414
652.599	11742.42014
652.797	11744.9718
652.995	11714.01931
653.192	11544.95346
653.39	11702.94547
653.588	11749.12223
653.785	11563.15082
653.983	11562.19624
654.18	11597.90939
654.378	11525.66464
654.576	11582.19179
654.773	11463.35722
654.971	11501.79272
655.168	11422.52191
655.366	11428.67472
655.563	11414.71659
655.761	11380.56068
655.958	11417.90131
656.156	11360.29792
656.353	11304.27261
656.55	11316.90437
656.748	11290.83362
656.945	11251.84042
657.143	11201.97479
657.34	11210.26507
657.537	11180.13058
657.735	11120.78617
657.932	11059.46165
658.129	11032.08207
658.326	10965.10746
658.524	11100.81143
658.721	10976.83834
658.918	10920.7598
659.115	10836.11919
659.313	10898.19976
659.51	10789.76485
659.707	10903.85367
659.904	10815.19532
660.101	10835.62743
660.298	10858.96095
660.496	10790.2841
660.693	10792.30183
660.89	10752.3574
661.087	10775.06434
661.284	10757.44095
661.481	10769.36194
661.678	10823.60999
661.875	10792.54691
662.072	10818.17541
662.269	10856.21744
662.466	10866.26603
662.663	10808.74365
662.86	10840.1923
663.057	10805.26035
663.254	10881.64266
663.45	10888.92203
663.647	10784.04085
663.844	10863.96295
664.041	10796.84014
664.238	10886.71149
664.435	10824.89006
664.631	10818.75571
664.828	10851.52647
665.025	10878.07487
665.222	10842.92302
665.419	10890.79619
665.615	10939.83075
665.812	10859.85036
666.009	10963.52262
666.205	10965.88671
666.402	10906.37063
666.599	10912.14189
666.795	10973.1819
666.992	10993.94795
667.188	10992.53733
667.385	10990.36804
667.582	11161.31433
667.778	11046.84295
667.975	11099.01046
668.171	11046.79441
668.368	11040.37757
668.564	11097.10711
668.761	11105.07477
668.957	11096.16885
669.154	11064.73936
669.35	11068.59163
669.547	11010.53224
669.743	11138.28838
669.939	11126.91631
670.136	11137.06094
670.332	11131.29819
670.528	11068.56576
670.725	11112.74687
670.921	11157.25063
671.117	11095.01247
671.314	11101.81969
671.51	11135.75522
671.706	11147.09328
671.902	11132.12576
672.099	11146.00493
672.295	11008.28027
672.491	11035.95552
672.687	11048.59526
672.883	10988.96903
673.08	11078.94516
673.276	11075.60948
673.472	11043.53645
673.668	10979.59341
673.864	11043.22301
674.06	10977.85561
674.256	11018.76404
674.452	10855.84983
674.648	10943.29293
674.844	10928.95715
675.04	11093.46876
675.236	10941.14724
675.432	10857.26128
675.628	10853.16467
675.824	10854.91455
676.02	10888.36442
676.216	10889.93128
676.412	10872.35675
676.608	10845.73058
676.804	10761.08784
676.999	10835.52564
677.195	10681.16757
677.391	10781.89378
677.587	10732.24292
677.783	10776.2404
677.978	10740.78559
678.174	10748.86088
678.37	10719.65386
678.566	10740.67366
678.761	10702.01823
678.957	10622.33224
679.153	10665.13787
679.348	10628.60668
679.544	10699.12846
679.74	10685.94927
679.935	10615.22039
680.131	10597.8865
680.327	10642.4164
680.522	10522.8797
680.718	10625.11609
680.913	10554.47936
681.109	10476.46412
681.304	10520.85835
681.5	10549.45242
681.695	10513.69221
681.891	10497.03282
682.086	10500.63819
682.282	10456.56151
682.477	10514.96608
682.672	10408.45173
682.868	10461.75381
683.063	10386.32488
683.259	10497.53184
683.454	10429.5142
683.649	10332.96405
683.845	10358.0015
684.04	10382.1595
684.235	10355.92874
684.43	10363.05651
684.626	10296.86192
684.821	10385.54784
685.016	10309.39507
685.211	10372.57188
685.407	10237.40804
685.602	10216.70213
685.797	10230.63036
685.992	10200.05326
686.187	10307.08554
686.382	10248.76668
686.577	10166.03858
686.773	10228.11444
686.968	10166.9447
687.163	10209.32957
687.358	10127.09365
687.553	10142.67141
687.748	10114.68494
687.943	10088.12245
688.138	10022.53328
688.333	10059.45435
688.528	9968.97297
688.723	9974.40128
688.918	9873.85906
689.112	9767.29577
689.307	9779.2011
689.502	9634.88558
689.697	9635.78452
689.892	9710.52037
690.087	9516.76944
690.282	9551.97359
690.476	9440.68264
690.671	9447.30094
690.866	9326.45299
691.061	9331.98465
691.255	9218.67234
691.45	9221.18909
691.645	9152.95011
691.84	9130.55194
692.034	9088.40243
692.229	9039.52693
692.424	8974.64671
692.618	8920.6965
692.813	8923.50822
693.007	8885.56168
693.202	8831.42053
693.397	8864.61458
693.591	8753.57083
693.786	8803.02146
693.98	8668.39904
694.175	8765.51633
694.369	8595.33307
694.564	8641.36264
694.758	8590.52998
694.953	8574.01316
695.147	8572.04704
695.342	8480.14792
695.536	8413.55391
695.73	8387.61821
695.925	8355.44071
696.119	8340.96041
696.313	8237.5781
696.508	8207.19214
696.702	8221.94796
696.896	8116.44144
697.091	8150.162
697.285	8152.02333
697.479	8136.20511
697.673	8094.49129
697.868	8082.99798
698.062	8136.40539
698.256	8039.02778
698.45	8062.20975
698.644	8039.23766
698.839	8050.33489
699.033	8011.68955
699.227	8108.31164
699.421	8029.31337
699.615	8073.81944
699.809	8079.38638
700.003	8151.16205
700.197	8116.57976
700.391	8151.88923
700.585	8041.70733
700.779	8121.57324
700.973	8127.99409
701.167	8131.00674
701.361	8135.9681
701.555	8175.18171
701.749	8091.95877
701.943	8132.80696
702.137	8091.07342
702.331	8033.84831
702.525	8069.28354
702.718	8040.46437
702.912	8027.87942
703.106	8044.74249
703.3	7986.12638
703.494	8024.73026
703.687	8036.24363
703.881	8036.80497
704.075	8042.9372
704.269	7934.53267
704.462	8056.50153
704.656	8032.66443
704.85	8007.3001
705.043	8008.23429
705.237	7972.85684
705.431	8042.70075
705.624	7975.23954
705.818	8055.14399
706.012	8070.92184
706.205	8072.44716
706.399	7976.69422
706.592	8064.42188
706.786	8013.47971
706.979	8111.06628
707.173	8024.10986
707.366	8078.32638
707.56	8089.32945
707.753	8049.48689
707.947	8077.81777
708.14	8054.77061
708.333	8031.45556
708.527	8085.18776
708.72	8049.4076
708.914	8112.0592
709.107	8073.90649
709.3	8082.36061
709.494	8041.74632
709.687	7995.77512
709.88	8119.83729
710.073	8127.8954
710.267	8139.46083
710.46	8088.49244
710.653	8151.10866
710.846	8144.86951
711.04	8175.98442
711.233	8142.89954
711.426	8139.23362
711.619	8133.5028
711.812	8177.69644
712.005	8247.09711
712.198	8183.28818
712.391	8227.57554
712.585	8219.96514
712.778	8186.52764
712.971	8264.05921
713.164	8252.62294
713.357	8271.78482
713.55	8295.15898
713.743	8262.17162
713.936	8329.20134
714.129	8315.83033
714.322	8281.30734
714.514	8355.18595
714.707	8311.09317
714.9	8297.72336
715.093	8358.59064
715.286	8313.97417
715.479	8339.28255
715.672	8401.10784
715.864	8386.49628
716.057	8317.63812
716.25	8333.04331
716.443	8406.28452
716.636	8280.44384
716.828	8405.88242
717.021	8332.58732
717.214	8386.81996
717.406	8405.2751
717.599	8366.6862
717.792	8313.97101
717.984	8225.05819
718.177	8257.68223
718.37	8224.32792
718.562	8209.8221
718.755	8154.87351
718.947	8072.3202
719.14	8060.37372
719.333	7976.96941
719.525	7869.06255
719.718	7799.53259
719.91	7783.58729
720.103	7719.10614
720.295	7610.33315
720.487	7543.45408
720.68	7480.05997
720.872	7388.70286
721.065	7251.48006
721.257	7261.38964
721.449	7083.6886
721.642	7022.06661
721.834	6919.65295
722.026	6908.56363
722.219	6747.42065
722.411	6679.44919
722.603	6645.9577
722.796	6614.54985
722.988	6504.71518
723.18	6445.28791
723.372	6391.09458
723.565	6363.30132
723.757	6294.12288
723.949	6266.60543
724.141	6246.59076
724.333	6221.35436
724.525	6149.23866
724.717	6127.77708
724.91	6103.55611
725.102	6064.99938
725.294	6029.67857
725.486	5963.81774
725.678	5936.16318
725.87	5933.95053
726.062	5837.54061
726.254	5814.84913
726.446	5752.49144
726.638	5762.93404
726.83	5666.67692
727.022	5663.14278
727.213	5612.94474
727.405	5657.9178
727.597	5558.658
727.789	5597.01136
727.981	5530.22969
728.173	5546.82004
728.365	5479.71854
728.556	5520.45611
728.748	5434.8327
728.94	5495.99744
729.132	5452.03824
729.324	5443.67255
729.515	5399.1486
729.707	5411.44457
729.899	5414.16395
730.09	5454.11982
730.282	5415.72795
730.474	5460.52908
730.665	5431.31152
730.857	5447.71637
731.049	5413.88641
731.24	5453.71453
731.432	5435.9812
731.623	5457.54029
731.815	5447.92625
732.006	5413.86208
732.198	5409.74882
732.389	5405.16214
732.581	5393.29204
732.772	5391.58293
732.964	5369.45083
733.155	5390.11441
733.347	5432.1428
733.538	5409.21989
733.729	5390.5313
733.921	5439.76765
734.112	5408.71101
734.304	5491.20261
734.495	5493.78325
734.686	5469.47024
734.877	5517.10983
735.069	5487.55305
735.26	5530.51228
735.451	5567.72784
735.643	5572.01485
735.834	5685.19679
736.025	5656.33014
736.216	5672.73051
736.407	5694.14444
736.599	5749.53312
736.79	5800.42436
736.981	5847.72782
737.172	5869.15304
737.363	5924.77037
737.554	5941.30076
737.745	5925.24521
737.936	6021.77307
738.127	6104.94156
738.318	6014.32488
738.509	6178.13203
738.7	6188.80901
738.891	6203.45428
739.082	6219.75108
739.273	6252.72595
739.464	6295.16227
739.655	6357.19328
739.846	6339.23616
740.037	6432.23496
740.228	6452.00002
740.419	6517.60518
740.609	6521.24467
740.8	6548.6058
740.991	6573.75799
741.182	6603.35755
741.373	6674.52785
741.563	6660.0487
741.754	6673.45338
741.945	6752.40851
742.136	6760.06417
742.326	6868.04249
742.517	6842.30335
742.708	6873.3939
742.898	6950.69439
743.089	6932.14768
743.28	6981.59736
743.47	6979.16436
743.661	6999.96102
743.851	7016.33595
744.042	7012.20847
744.233	7073.85645
744.423	7094.79897
744.614	7062.38028
744.804	7115.4501
744.995	7098.72875
745.185	6997.65249
745.376	7235.24631
745.566	7236.27103
745.756	7241.92509
745.947	7272.31217
746.137	7292.06736
746.328	7313.21058
746.518	7362.87289
746.708	7300.98842
746.899	7398.93885
747.089	7359.12264
747.279	7356.06071
747.47	7407.70731
747.66	7421.06964
747.85	7425.22124
748.04	7434.34418
748.231	7459.45953
748.421	7492.97255
748.611	7466.93011
748.801	7489.55246
748.991	7480.82328
749.182	7518.61426
749.372	7522.375
749.562	7542.18443
749.752	7532.05612
749.942	7543.73247
750.132	7568.26561
750.322	7610.11676
750.512	7571.61213
750.702	7588.74483
750.892	7579.06814
751.082	7610.44336
751.272	7577.23383
751.462	7645.47501
751.652	7606.57141
751.842	7617.41757
752.032	7603.80817
752.222	7658.60727
752.412	7619.30896
752.602	7605.52304
752.792	7649.21076
752.981	7625.24996
753.171	7565.7543
753.361	7641.87682
753.551	7612.03391
753.741	7571.89702
753.93	7586.18775
754.12	7573.14017
754.31	7580.24576
754.5	7550.99008
754.689	7524.44903
754.879	7539.73034
755.069	7466.54976
755.258	7579.9918
755.448	7495.00598
755.638	7523.03475
755.827	7534.19506
756.017	7529.28485
756.206	7473.2576
756.396	7509.9424
756.586	7470.82911
756.775	7560.06879
756.965	7498.83179
757.154	7504.91398
757.344	7426.61985
757.533	7454.33503
757.723	7430.07372
757.912	7428.2994
758.101	7375.58962
758.291	7434.00842
758.48	7365.94374
758.67	7372.79102
758.859	7339.56787
759.048	7415.07978
759.238	7352.20169
759.427	7406.61245
759.616	7344.18324
759.806	7311.77769
759.995	7353.30674
760.184	7301.72855
760.373	7244.73603
760.563	7322.75827
760.752	7237.69975
760.941	7242.35018
761.13	7147.67883
761.319	7083.97753
761.509	7012.05913
761.698	6983.13952
761.887	6891.5193
762.076	6791.36628
762.265	6698.37802
762.454	6685.73928
762.643	6505.33443
762.832	6386.86679
763.021	6315.89207
763.21	6168.9626
763.399	6067.07422
763.588	5986.23757
763.777	5903.09199
763.966	5756.20045
764.155	5658.60496
764.344	5550.54913
764.533	5451.46998
764.722	5352.35619
764.911	5234.31701
765.1	5160.12943
765.288	5043.95381
765.477	5013.04376
765.666	4888.5292
765.855	4835.59584
766.044	4726.87466
766.232	4628.28037
766.421	4540.38862
766.61	4480.08457
766.799	4405.68866
766.987	4330.51905
767.176	4256.42349
767.365	4163.76011
767.553	4153.31189
767.742	4117.73305
767.931	4037.58769
768.119	4034.76147
768.308	3927.91828
768.497	3906.60826
768.685	3930.66053
768.874	3897.09708
769.062	3849.13754
769.251	3833.84968
769.439	3791.90594
769.628	3806.27755
769.816	3815.81681
770.005	3891.67327
770.193	3895.84045
770.382	3963.64463
770.57	3923.82695
770.758	4044.37017
770.947	4115.2807
771.135	4127.50429
771.323	4161.94325
771.512	4275.00963
771.7	4297.00077
771.888	4356.42312
772.077	4335.01774
772.265	4454.3966
772.453	4503.83293
772.642	4554.75832
772.83	4618.07344
773.018	4674.38133
773.206	4682.38001
773.394	4747.74176
773.583	4817.08381
773.771	4914.18679
773.959	4975.72641
774.147	5095.25662
774.335	5139.17918
774.523	5145.17716
774.711	5274.12217
774.899	5299.52623
775.087	5362.43668
775.275	5403.70894
775.463	5463.40933
775.651	5523.87231
775.839	5572.04148
776.027	5621.26848
776.215	5615.75623
776.403	5699.26576
776.591	5740.87019
776.779	5813.57243
776.967	5779.81467
777.155	5864.55983
777.343	5824.19511
777.531	5936.43547
777.718	5881.32838
777.906	5960.37891
778.094	5982.82286
778.282	5997.02911
778.47	6000.07862
778.657	6057.39636
778.845	5990.13851
779.033	6017.32235
779.22	5998.0675
779.408	6082.75525
779.596	6072.49435
779.783	6091.12797
779.971	6035.15573
780.159	6107.39982
780.346	6080.08983
780.534	6101.7832
780.722	6083.85931
780.909	6075.95097
781.097	6057.05858
781.284	6034.29426
781.472	6076.50058
781.659	6055.89012
781.847	6027.25767
782.034	6094.77762
782.222	6011.44149
782.409	6057.39636
782.597	6009.11353
782.784	5998.45708
782.971	6016.81512
783.159	6011.14269
783.346	6039.60017
783.533	5998.90525
783.721	5972.42975
783.908	5973.77391
784.095	5914.41418
784.283	5966.99914
784.47	5951.9978
784.657	5968.71535
784.844	5892.77961
785.032	5893.20565
785.219	5894.5402
785.406	5908.35245
785.593	5872.52795
785.78	5890.94566
785.968	5836.39821
786.155	5858.34006
786.342	5840.87652
786.529	5858.59435
786.716	5791.31637
786.903	5841.95561
787.09	5779.34636
787.277	5830.49696
787.464	5775.57719
787.651	5809.39845
787.838	5699.80149
788.025	5766.48843
788.212	5669.81952
788.399	5709.45585
788.586	5688.11631
788.773	5726.67478
788.96	5665.97192
789.147	5658.26843
789.334	5599.9525
789.521	5653.89896
789.707	5590.78957
789.894	5627.80332
790.081	5563.44236
790.268	5540.67709
790.455	5526.24054
790.641	5550.48693
790.828	5496.54195
791.015	5438.46081
791.202	5476.97335
791.388	5429.35003
791.575	5363.81418
791.762	5337.05984
791.948	5360.36823
792.135	5367.04192
792.322	5316.13208
792.508	5344.73816
792.695	5302.94948
792.881	5275.31924
793.068	5231.731
793.254	5217.06645
793.441	5190.36874
793.627	5148.32699
793.814	5137.92455
794	5153.68508
794.187	5088.07558
794.373	5112.58466
794.56	5055.79179
794.746	5083.59456
794.933	5026.43505
795.119	5026.35678
795.305	5037.79275
795.492	4996.7765
795.678	4981.20673
795.864	5012.30104
796.051	4944.13454
796.237	4912.93532
796.423	4904.4281
796.61	4944.19086
796.796	4866.63114
796.982	4938.05878
797.168	4887.98291
797.355	4901.27037
797.541	4880.2205
797.727	4878.76564
797.913	4823.90962
798.099	4861.18338
798.285	4773.74694
798.471	4797.51812
798.658	4757.72734
798.844	4821.18137
799.03	4741.94093
799.216	4797.405
799.402	4791.19687
799.588	4769.9639
799.774	4767.77536
799.96	4759.34961
800.146	4692.05888
800.332	4776.40622
800.518	4715.87143
800.704	4746.72453
800.89	4730.93884
801.075	4737.33534
801.261	4685.10834
801.447	4672.91879
801.633	4693.30066
801.819	4728.91348
802.005	4676.76832
802.19	4723.26521
802.376	4673.4697
802.562	4702.62271
802.748	4658.78247
802.934	4686.374
803.119	4616.44141
803.305	4641.51326
803.491	4677.37619
803.676	4636.15458
803.862	4650.46513
804.048	4656.32716
804.233	4584.90048
804.419	4611.35458
804.605	4572.90389
804.79	4580.59176
804.976	4544.99661
805.161	4573.3204
805.347	4563.86696
805.532	4552.7778
805.718	4554.35101
805.903	4533.05592
806.089	4537.03032
806.274	4530.92104
806.46	4523.69879
806.645	4527.45152
806.831	4521.96437
807.016	4522.02725
807.201	4527.18326
807.387	4541.88865
807.572	4483.0682
807.757	4498.20742
807.943	4489.93028
808.128	4521.54424
808.313	4467.98481
808.499	4502.74638
808.684	4497.01515
808.869	4464.48311
809.054	4465.62754
809.24	4562.29905
809.425	4442.60688
809.61	4477.74251
809.795	4455.26744
809.98	4482.17315
810.165	4496.9408
810.35	4429.226
810.536	4462.46814
810.721	4426.39996
810.906	4403.77504
811.091	4474.82009
811.276	4423.36233
811.461	4447.71151
811.646	4427.6646
811.831	4417.30657
812.016	4371.12388
812.201	4376.26347
812.386	4379.20877
812.571	4383.65876
812.756	4286.92078
812.941	4377.73695
813.125	4335.09017
813.31	4326.28646
813.495	4285.95276
813.68	4262.27409
813.865	4276.7308
814.05	4279.76456
814.234	4241.72487
814.419	4230.41811
814.604	4194.59858
814.789	4183.79231
814.973	4154.52457
815.158	4133.4946
815.343	4070.93142
815.528	4082.43654
815.712	4033.72909
815.897	4023.66234
816.081	3955.96944
816.266	3934.09742
816.451	3922.54833
816.635	3867.28497
816.82	3815.37863
817.004	3808.96782
817.189	3761.73728
817.374	3732.42283
817.558	3684.75033
817.743	3607.50884
817.927	3597.90959
818.111	3577.79034
818.296	3506.02744
818.48	3464.91973
818.665	3427.81897
818.849	3409.44331
819.034	3351.49656
819.218	3330.91282
819.402	3276.15013
819.587	3223.01142
819.771	3191.22032
819.955	3147.34511
820.14	3136.8718
820.324	3062.03382
820.508	3025.26215
820.692	3033.93165
820.877	2953.63927
821.061	2925.39844
821.245	2913.91071
821.429	2895.5309
821.613	2839.10716
821.798	2803.73119
821.982	2796.77761
822.166	2795.30409
822.35	2761.31258
822.534	2774.20025
822.718	2755.67338
822.902	2720.61299
823.086	2719.76933
823.27	2686.36434
823.454	2664.4462
823.638	2708.70084
823.822	2660.46966
824.006	2634.36326
824.19	2658.18515
824.374	2680.06278
824.558	2586.42972
824.742	2615.62734
824.926	2586.65226
825.11	2560.95146
825.294	2543.51807
825.477	2563.00777
825.661	2538.36028
825.845	2548.39619
826.029	2531.77819
826.213	2522.03513
826.396	2527.85902
826.58	2537.54002
826.764	2533.11009
826.948	2524.5404
827.131	2518.44655
827.315	2544.59126
827.499	2555.70673
827.682	2524.41225
827.866	2538.36858
828.05	2556.11697
828.233	2536.64094
828.417	2556.69864
828.6	2584.00751
828.784	2590.6618
828.967	2551.4249
829.151	2614.1496
829.335	2579.1055
829.518	2620.67491
829.701	2573.3122
829.885	2601.9255
830.068	2622.65925
830.252	2596.24832
830.435	2593.77864
830.619	2621.16094
830.802	2591.96228
830.985	2590.20329
831.169	2608.40974
831.352	2593.65345
831.535	2585.98962
831.719	2575.74217
831.902	2579.11031
832.085	2581.21116
832.269	2590.90213
832.452	2562.8474
832.635	2574.67017
832.818	2580.24273
833.002	2554.61035
833.185	2615.25673
833.368	2589.71507
833.551	2578.44028
833.734	2569.17788
833.917	2575.72968
834.1	2573.16277
834.284	2583.03273
834.467	2577.97976
834.65	2597.55304
834.833	2569.35663
835.016	2588.98261
835.199	2534.66109
835.382	2559.83973
835.565	2525.6588
835.748	2569.84757
835.931	2559.63837
836.114	2562.3984
836.297	2584.93212
836.479	2553.36399
836.662	2525.3442
836.845	2567.07261
837.028	2538.51025
837.211	2529.56376
837.394	2527.01246
837.577	2544.10628
837.759	2560.19748
837.942	2560.98204
838.125	2557.53291
838.308	2583.05367
838.49	2534.93345
838.673	2610.89849
838.856	2534.43639
839.039	2603.02303
839.221	2573.0952
839.404	2574.93311
839.587	2589.98777
839.769	2601.48254
839.952	2577.96403
840.134	2572.50955
840.317	2569.37556
840.499	2593.11536
840.682	2565.69177
840.865	2613.24569
841.047	2617.56213
841.23	2636.95954
841.412	2619.87362
841.595	2623.03853
841.777	2614.37943
841.959	2650.37406
842.142	2625.2666
842.324	2639.35163
842.507	2639.49469
842.689	2660.88537
842.871	2652.55199
843.054	2678.6509
843.236	2673.01707
843.418	2683.26035
843.601	2687.18527
843.783	2659.31317
843.965	2701.57055
844.147	2719.98533
844.33	2683.89572
844.512	2711.24129
844.694	2695.1522
844.876	2730.62055
845.059	2718.40354
845.241	2720.00733
845.423	2672.88911
845.605	2734.56133
845.787	2722.00442
845.969	2723.42047
846.151	2703.93583
846.333	2727.81219
846.515	2687.28534
846.697	2729.27338
846.879	2714.68232
847.061	2725.58564
847.243	2693.33394
847.425	2717.56782
847.607	2712.68058
847.789	2725.24118
847.971	2714.84322
848.153	2719.05941
848.335	2685.23849
848.517	2706.01972
848.699	2713.58647
848.881	2732.71569
849.062	2717.44265
849.244	2698.5636
849.426	2699.97937
849.608	2723.86687
849.789	2695.26572
849.971	2699.06435
850.153	2678.46862
850.335	2709.29715
850.516	2704.52936
850.698	2707.88396
850.88	2695.32806
851.061	2670.19209
851.243	2640.93547
851.425	2701.88526
851.606	2640.4501
851.788	2678.81279
851.969	2635.15433
852.151	2644.61501
852.333	2614.12909
852.514	2627.61178
852.696	2636.12044
852.877	2620.29657
853.059	2598.08246
853.24	2623.87779
853.422	2608.4556
853.603	2616.65076
853.784	2579.97809
853.966	2596.61606
854.147	2572.94802
854.329	2570.54506
854.51	2551.64945
854.691	2560.89049
854.873	2549.04517
855.054	2516.92132
855.235	2529.84316
855.416	2528.15122
855.598	2494.19726
855.779	2517.94125
855.96	2498.22033
856.141	2487.95098
856.323	2470.36689
856.504	2481.07681
856.685	2418.51389
856.866	2435.36733
857.047	2439.33711
857.228	2404.08943
857.409	2381.61816
857.591	2400.83529
857.772	2381.74263
857.953	2372.54796
858.134	2362.16617
858.315	2334.29593
858.496	2336.91276
858.677	2326.63724
858.858	2318.59814
859.039	2311.62486
859.22	2314.09348
859.401	2295.35703
859.582	2273.87277
859.762	2307.88177
859.943	2300.24468
860.124	2287.74714
860.305	2251.21666
860.486	2288.44715
860.667	2278.92946
860.848	2277.24741
861.028	2267.59411
861.209	2272.95686
861.39	2247.03952
861.571	2286.54302
861.751	2263.9188
861.932	2285.65641
862.113	2226.2918
862.293	2239.41193
862.474	2220.31953
862.655	2241.85369
862.835	2232.67687
863.016	2238.71685
863.197	2227.1661
863.377	2220.25245
863.558	2228.31321
863.738	2225.95603
863.919	2194.64984
864.099	2249.67475
864.28	2191.8495
864.46	2221.12957
864.641	2213.03286
864.821	2211.38987
865.002	2195.01602
865.182	2220.41969
865.363	2220.11917
865.543	2205.4621
865.723	2196.14467
865.904	2236.07808
866.084	2216.63932
866.264	2207.8081
866.445	2177.72475
866.625	2190.77703
866.805	2182.46886
866.986	2190.16269
867.166	2180.88856
867.346	2190.71278
867.526	2155.44687
867.707	2158.07948
867.887	2145.86292
868.067	2158.91579
868.247	2135.69464
868.427	2154.16293
868.607	2104.9321
868.788	2135.41699
868.968	2116.74073
869.148	2109.11578
869.328	2098.60306
869.508	2086.78555
869.688	2073.36989
869.868	2093.76206
870.048	2056.30099
870.228	2078.82807
870.408	2026.60579
870.588	2056.95342
870.768	2040.13468
870.948	2017.53205
871.128	2034.35733
871.307	2036.77564
871.487	1991.1318
871.667	2007.80557
871.847	2001.16015
872.027	2017.58414
872.207	1990.92718
872.387	1997.47902
872.566	1984.50103
872.746	1992.85271
872.926	1984.46321
873.106	1973.74613
873.285	1946.10541
873.465	1956.71095
873.645	1936.12077
873.824	1942.31307
874.004	1926.82536
874.184	1945.76719
874.363	1918.38891
874.543	1924.81085
874.723	1898.03021
874.902	1915.98172
875.082	1914.60559
875.261	1911.10568
875.441	1904.3746
875.62	1879.83845
875.8	1867.15871
875.979	1887.05975
876.159	1868.92611
876.338	1891.91949
876.518	1867.47768
876.697	1866.05261
876.876	1889.10096
877.056	1884.46025
877.235	1887.19116
877.415	1883.85681
877.594	1872.5602
877.773	1858.60436
877.953	1847.90609
878.132	1849.9262
878.311	1856.69651
878.49	1838.54763
878.67	1835.01358
878.849	1855.84518
879.028	1836.13828
879.207	1812.48988
879.387	1820.28374
879.566	1835.40481
879.745	1818.60929
879.924	1818.74264
880.103	1801.82301
880.282	1822.14538
880.461	1798.62219
880.64	1780.71161
880.819	1785.82007
880.998	1783.311
881.178	1759.52344
881.357	1797.6562
881.536	1780.63802
881.715	1783.90039
881.893	1720.24794
882.072	1742.89909
882.251	1755.37337
882.43	1764.43029
882.609	1728.17073
882.788	1722.17073
882.967	1707.43429
883.146	1759.70506
883.325	1713.43234
883.503	1714.78829
883.682	1671.57105
883.861	1696.15586
884.04	1679.96788
884.219	1716.04821
884.397	1700.66833
884.576	1714.13802
884.755	1686.39722
884.933	1687.90954
885.112	1673.85722
885.291	1674.38672
885.469	1676.44977
885.648	1669.14338
885.827	1672.41001
886.005	1659.54943
886.184	1648.21744
886.363	1649.51536
886.541	1632.84839
886.72	1639.43006
886.898	1658.65952
887.077	1659.65312
887.255	1622.70577
887.434	1608.83769
887.612	1612.29796
887.791	1616.56906
887.969	1602.08454
888.147	1606.7219
888.326	1597.96903
888.504	1591.20694
888.682	1601.06417
888.861	1615.73252
889.039	1602.81523
889.218	1573.25076
889.396	1592.92131
889.574	1596.0642
889.752	1591.47323
889.931	1586.78877
890.109	1578.60014
890.287	1570.11802
890.465	1578.17074
890.643	1587.19059
890.822	1558.71488
891	1602.23681
891.178	1573.92795
891.356	1558.60722
891.534	1555.18351
891.712	1585.37415
891.89	1549.13416
892.068	1557.24467
892.247	1544.39309
892.425	1564.06629
892.603	1538.25913
892.781	1560.77447
892.959	1518.44216
893.137	1545.24977
893.314	1537.98365
893.492	1511.66032
893.67	1527.56194
893.848	1551.96795
894.026	1557.81936
894.204	1506.66297
894.382	1514.01705
894.56	1515.63065
894.738	1495.93003
894.915	1506.51462
895.093	1508.25418
895.271	1486.92802
895.449	1472.0981
895.626	1489.01162
895.804	1478.84159
895.982	1479.15321
896.16	1456.78384
896.337	1469.53254
896.515	1451.39063
896.693	1423.08438
896.87	1406.18576
897.048	1420.20008
897.225	1390.42136
897.403	1403.34952
897.581	1397.89591
897.758	1384.86894
897.936	1368.25032
898.113	1338.23286
898.291	1344.05193
898.468	1341.54869
898.646	1313.02219
898.823	1305.91819
899.001	1278.28944
899.178	1269.08324
899.356	1261.62615
899.533	1226.6426
899.71	1206.23239
899.888	1209.56955
900.065	1190.82414
900.242	1164.89666
900.42	1166.39108
900.597	1153.15909
900.774	1135.94582
900.952	1121.35244
901.129	1079.27233
901.306	1066.62712
901.483	1038.37173
901.661	1047.09772
901.838	1025.91246
902.015	1009.34179
902.192	986.31698
902.369	971.28828
902.546	948.06182
902.723	945.5705
902.901	920.87444
903.078	907.14762
903.255	884.55846
903.432	895.96542
903.609	883.67189
903.786	854.66605
903.963	843.16106
904.14	836.0265
904.317	799.55787
904.494	829.86956
904.671	812.56514
904.848	789.87915
905.024	805.09247
905.201	800.10112
905.378	781.56893
905.555	786.95569
905.732	798.61363
905.909	765.02655
906.086	776.66103
906.262	779.7601
906.439	749.18594
906.616	778.2399
906.793	764.26309
906.969	766.66213
907.146	761.80338
907.323	778.16089
907.5	778.36542
907.676	787.3713
907.853	791.33641
908.03	805.72981
908.206	804.65387
908.383	788.63955
908.559	809.02308
908.736	817.27301
908.912	783.68457
909.089	803.96806
909.266	782.46017
909.442	806.19063
909.619	820.40034
909.795	801.31577
909.972	798.99552
910.148	816.62909
910.324	802.68728
910.501	794.11149
910.677	796.54122
910.854	805.11585
911.03	808.02493
911.206	808.76108
911.383	778.11691
911.559	790.71207
911.735	771.05797
911.912	780.92781
912.088	779.29029
912.264	769.58697
912.44	767.65088
912.617	758.94335
912.793	750.78723
912.969	769.29956
913.145	741.78019
913.321	751.84569
913.498	734.78315
913.674	726.7833
913.85	722.51596
914.026	711.64842
914.202	709.96179
914.378	727.4535
914.554	685.29172
914.73	684.69805
914.906	672.58224
915.082	671.40407
915.258	662.84864
915.434	658.50474
915.61	644.93559
915.786	652.21973
915.962	631.62836
916.138	619.11998
916.314	608.70837
916.49	608.9871
916.665	596.10035
916.841	595.54705
917.017	581.36238
917.193	602.60326
917.369	570.24287
917.545	605.67725
917.72	561.45537
917.896	583.41489
918.072	575.15216
918.247	575.48586
918.423	558.36222
918.599	579.37634
918.775	551.25274
918.95	542.84115
919.126	549.71625
919.301	552.15799
919.477	520.28158
919.653	552.97762
919.828	541.56874
920.004	547.34589
920.179	543.72031
920.355	541.36152
920.53	516.11925
920.706	527.70837
920.881	539.81341
921.057	530.04707
921.232	523.96774
921.408	545.4334
921.583	539.0848
921.759	528.31654
921.934	518.30551
922.109	522.00328
922.285	515.35205
922.46	516.52181
922.635	526.79778
922.811	527.39456
922.986	536.32385
923.161	532.60195
923.336	550.17331
923.512	524.41741
923.687	545.12767
923.862	535.78091
924.037	540.89137
924.212	560.31746
924.388	555.00116
924.563	556.76226
924.738	562.30772
924.913	578.57088
925.088	561.86819
925.263	574.67362
925.438	559.71932
925.613	572.36655
925.788	563.97244
925.963	578.51121
926.138	578.10952
926.313	585.44032
926.488	574.10945
926.663	581.98193
926.838	575.26579
927.013	576.69142
927.188	581.4932
927.363	581.23156
927.538	575.70891
927.713	559.56416
927.888	581.58991
928.062	598.42906
928.237	570.60686
928.412	584.78128
928.587	568.89111
928.761	608.17266
928.936	589.67754
929.111	568.09451
929.286	591.51513
929.46	567.83273
929.635	566.42523
929.81	547.88882
929.984	555.54728
930.159	572.04721
930.334	538.55647
930.508	533.37575
930.683	527.79468
930.857	525.5993
931.032	490.75041
931.206	508.6402
931.381	488.78908
931.556	477.4323
931.73	492.22617
931.904	472.35
932.079	464.08126
932.253	454.25867
932.428	445.53632
932.602	442.87831
932.777	411.38168
932.951	424.67608
933.125	402.23791
933.3	414.83379
933.474	405.02497
933.648	388.20128
933.823	369.54374
933.997	354.89182
934.171	364.03503
934.345	335.26728
934.52	337.28535
934.694	327.76332
934.868	293.79765
935.042	310.40129
935.217	275.65355
935.391	286.93996
935.565	266.34325
935.739	264.87859
935.913	242.91745
936.087	261.65419
936.261	218.2134
936.435	217.50451
936.609	211.86834
936.783	202.11216
936.957	196.58156
937.131	188.10366
937.305	170.88966
937.479	176.31506
937.653	160.23829
937.827	151.60135
938.001	134.7505
938.175	124.03286
938.349	135.11687
938.523	113.69946
938.697	123.72766
938.87	112.79397
939.044	123.75346
939.218	110.26406
939.392	115.93634
939.566	99.42428
939.739	92.74932
939.913	98.1072
940.087	94.53763
940.261	94.88461
940.434	73.87074
940.608	90.85325
940.782	89.484
940.955	88.64895
941.129	75.5458
941.302	92.19708
941.476	68.7378
941.65	77.24403
941.823	74.5444
941.997	76.98089
942.17	87.72622
942.344	82.36706
942.517	75.53603
942.691	74.10131
942.864	92.75285
943.038	89.53099
943.211	73.55691
943.385	84.93901
943.558	84.83419
943.731	79.1078
943.905	71.62853
944.078	86.94974
944.251	86.93155
944.425	101.92226
944.598	83.02341
944.771	108.85746
944.945	86.94742
945.118	70.94915
945.291	99.3007
945.464	91.62628
945.638	92.39283
945.811	94.74671
945.984	84.25689
946.157	92.83901
946.33	108.26713
946.503	90.07185
946.677	70.52181
946.85	99.76871
947.023	76.32561
947.196	94.62186
947.369	116.31359
947.542	102.22547
947.715	105.90568
947.888	90.1632
948.061	107.92394
948.234	91.94176
948.407	95.30519
948.58	89.95616
948.753	105.6975
948.926	93.16126
949.099	100.00051
949.271	86.70675
949.444	79.19682
949.617	86.94345
949.79	90.2854
949.963	99.67573
950.136	74.52144
950.308	83.25924
950.481	86.64004
950.654	84.89769
950.827	92.7532
950.999	89.93941
951.172	110.83928
951.345	72.31799
951.517	83.58672
951.69	89.51496
951.863	81.00683
952.035	95.87459
952.208	91.16407
952.381	74.44214
952.553	68.95294
952.726	90.10274
952.898	89.06659
953.071	89.9678
953.243	78.98211
953.416	69.65904
953.588	93.95693
953.761	81.46678
953.933	81.47887
954.106	72.07578
954.278	78.11303
954.45	75.10907
954.623	90.64217
954.795	84.24888
954.967	82.59467
955.14	92.99724
955.312	79.44587
955.484	74.1864
955.657	89.4874
955.829	81.4736
956.001	71.95788
956.173	70.94915
956.346	84.91607
956.518	75.88438
956.69	91.6214
956.862	100.34888
957.034	67.61393
957.207	87.37684
957.379	88.39809
957.551	71.74068
957.723	104.21748
957.895	88.61385
958.067	83.13025
958.239	92.30866
958.411	90.16595
958.583	88.73116
958.755	89.49862
958.927	80.57736
959.099	93.74488
959.271	85.27381
959.443	89.61564
959.615	80.80888
959.787	82.70596
959.959	89.401
960.13	85.82657
960.302	70.964
960.474	83.45008
960.646	83.01647
960.818	92.95656
960.99	95.33383
961.161	87.72422
961.333	92.6293
961.505	86.36482
961.677	91.38023
961.848	76.42617
962.02	91.29123
962.192	90.82839
962.363	84.69486
962.535	99.64695
962.707	91.85046
962.878	97.2229
963.05	102.24567
963.221	95.64347
963.393	97.16384
963.564	106.32389
963.736	77.65333
963.907	105.82191
964.079	92.83126
964.25	104.54089
964.422	82.89859
964.593	97.95918
964.765	84.58489
964.936	98.94702
965.108	108.05681
965.279	101.4436
965.45	104.45635
965.622	106.90929
965.793	107.0273
965.964	103.682
966.136	99.24235
966.307	94.53188
966.478	97.19666
966.65	98.42839
966.821	106.25394
966.992	122.09313
967.163	96.51534
967.334	114.16528
967.506	85.21616
967.677	100.53417
967.848	109.13611
968.019	107.15674
968.19	109.83054
968.361	109.79593
968.532	108.45723
968.703	102.65715
968.874	115.27668
969.045	103.88572
969.216	99.65074
969.387	104.10637
969.558	118.17603
969.729	121.49797
969.9	116.41537
970.071	120.16883
970.242	123.29407
970.413	124.43683
970.584	119.25866
970.755	129.11517
970.926	126.99566
971.097	134.34919
971.267	117.35389
971.438	125.40483
971.609	150.1742
971.78	127.73323
971.951	143.94112
972.121	120.78451
972.292	129.84807
972.463	146.81677
972.633	124.18422
972.804	126.24518
972.975	134.52721
973.145	135.33201
973.316	166.80365
973.487	147.64301
973.657	145.13077
973.828	161.84266
973.998	163.72378
974.169	160.97162
974.339	163.19502
974.51	154.87037
974.68	158.02738
974.851	145.794
975.021	163.42074
975.192	169.20113
975.362	172.97311
975.533	152.13166
975.703	168.65676
975.874	163.21398
976.044	176.13841
976.214	179.57738
976.385	169.39304
976.555	177.31105
976.725	163.69538
976.896	167.4027
977.066	175.97663
977.236	180.53863
977.406	146.29003
977.577	167.85291
977.747	189.21509
977.917	176.63752
978.087	175.32096
978.257	168.94476
978.427	158.7664
978.598	151.30495
978.768	163.39297
978.938	177.87604
979.108	163.40901
979.278	159.71741
979.448	154.35293
979.618	165.51699
979.788	162.14478
979.958	173.15518
980.128	157.9644
980.298	162.95515
980.468	161.04462
980.638	163.21661
980.808	150.02425
980.978	173.8012
981.148	155.28334
981.317	142.64287
981.487	153.71346
981.657	141.89507
981.827	148.82589
981.997	154.78695
982.167	148.72465
982.336	146.5918
982.506	138.196
982.676	153.12956
982.846	129.52218
983.015	143.7987
983.185	124.9397
983.355	156.16639
983.524	159.51707
983.694	146.02997
983.864	142.33841
984.033	154.9622
984.203	144.91571
984.372	150.56959
984.542	140.55271
984.712	150.82702
984.881	142.80874
985.051	142.4417
985.22	146.62011
985.39	160.48992
985.559	145.99024
985.728	156.27714
985.898	153.79866
986.067	141.78584
986.237	174.56183
986.406	160.62306
986.576	145.07487
986.745	158.16078
986.914	164.00275
987.084	153.79401
987.253	162.66425
987.422	153.27563
987.591	160.29576
987.761	159.87524
987.93	147.8163
988.099	158.59767
988.268	162.64642
988.438	154.74626
988.607	164.66453
988.776	159.40093
988.945	146.53145
989.114	164.64337
989.283	151.57615
989.452	159.94305
989.621	176.99397
989.791	167.2832
989.96	145.9004
990.129	154.6647
990.298	166.84877
990.467	175.95408
990.636	163.53206
990.805	162.81066
990.974	170.35458
991.142	164.03973
991.311	184.14751
991.48	182.52857
991.649	161.59076
991.818	166.19105
991.987	182.80201
992.156	150.41398
992.325	164.62409
992.493	153.62303
992.662	177.26162
992.831	163.22197
993	163.75854
993.168	165.61891
993.337	177.89349
993.506	162.04021
993.675	169.65591
993.843	170.52697
994.012	173.99357
994.181	174.15178
994.349	170.17386
994.518	168.21663
994.686	152.02894
994.855	177.55834
995.024	172.09526
995.192	152.33534
995.361	165.8271
995.529	162.75282
995.698	163.29585
995.866	162.69876
996.035	137.71567
996.203	167.07703
996.371	152.76446
996.54	171.95349
996.708	165.71645
996.877	171.32856
997.045	174.4624
997.213	158.14287
997.382	151.43109
997.55	153.336
997.718	157.90595
997.887	170.11266
998.055	171.86167
998.223	174.11932
998.391	160.79593
998.56	165.41193
998.728	147.85729
998.896	162.04999
999.064	179.71104
999.232	159.95936
999.401	160.05739
999.569	135.05811
999.737	135.63441
999.905	155.71458
1000.073	146.32758
1000.241	150.9053
1000.409	154.26316
1000.577	158.50911
1000.745	151.27016
1000.913	171.77049
1001.081	148.23318
1001.249	142.34379
1001.417	135.60879
1001.585	132.17198
1001.753	159.98174
1001.921	141.00567
1002.089	137.31438
1002.256	155.93665
1002.424	134.84404
1002.592	136.28722
1002.76	153.96001
1002.928	137.41277
1003.096	140.93644
1003.263	128.26119
1003.431	144.33156
1003.599	134.42905
1003.767	146.13305
1003.934	137.77396
1004.102	136.19696
1004.27	135.16386
1004.437	127.60347
1004.605	137.00926
1004.773	149.69418
1004.94	132.01467
1005.108	137.82459
1005.275	137.16982
1005.443	121.26223
1005.61	145.3755
1005.778	129.09364
1005.945	124.84152
1006.113	119.85992
1006.28	139.21724
1006.448	132.77209
1006.615	118.81514
1006.783	133.42745
1006.95	145.05453
1007.118	145.05783
1007.285	133.76166
1007.452	146.97377
1007.62	123.70893
1007.787	135.80695
1007.954	111.30612
1008.122	122.70058
1008.289	122.39691
1008.456	105.66941
1008.623	126.30921
1008.791	126.55272
1008.958	120.70187
1009.125	123.17562
1009.292	131.41714
1009.459	109.56216
1009.627	142.39392
1009.794	110.91205
1009.961	112.68763
1010.128	98.40187
1010.295	125.85342
1010.462	111.02227
1010.629	124.09206
1010.796	127.23063
1010.963	98.19599
1011.13	117.25444
1011.297	108.36425
1011.464	102.77413
1011.631	118.19038
1011.798	113.04476
1011.965	108.44489
1012.132	107.88627
1012.299	118.85163
1012.466	116.04209
1012.633	120.64027
1012.799	107.23365
1012.966	121.85955
1013.133	114.75281
1013.3	118.87014
1013.467	111.14682
1013.633	108.14656
1013.8	104.15028
1013.967	118.54826
1014.134	101.6331
1014.3	106.46446
1014.467	121.75639
1014.634	104.54485
1014.8	100.77058
1014.967	93.60382
1015.134	101.99698
1015.3	106.08726
1015.467	101.32322
1015.633	107.01674
1015.8	94.41099
1015.966	92.18796
1016.133	101.79327
1016.3	86.58235
1016.466	92.40336
1016.632	97.98485
1016.799	98.65447
1016.965	88.49386
1017.132	89.62007
1017.298	97.20811
1017.465	98.67998
1017.631	100.55899
1017.797	92.62296
1017.964	91.16096
1018.13	76.77203
1018.296	94.61396
1018.463	96.66506
1018.629	111.27649
1018.795	89.0588
1018.961	85.48692
1019.128	99.77439
1019.294	89.37891
1019.46	85.61545
1019.626	89.28534
1019.792	102.79873
1019.959	98.74576
1020.125	71.54607
1020.291	92.61874
1020.457	91.09757
1020.623	90.39112
1020.789	80.34315
1020.955	90.51955
1021.121	79.55383
1021.287	85.82135
1021.453	79.8028
1021.619	78.12017
1021.785	81.35611
1021.951	78.54361
1022.117	84.04491
1022.283	76.44362
1022.449	84.80837
1022.615	79.79551
1022.781	74.39404
1022.946	80.22179
1023.112	84.51385
1023.278	79.54446
1023.444	70.75261
1023.61	102.36657
1023.775	87.94873
1023.941	73.40222
1024.107	75.45459
1024.273	82.37145
1024.438	93.56272
1024.604	98.67698
1024.77	80.2026
1024.935	61.23517
1025.101	77.22902
1025.267	75.65827
1025.432	67.96279
1025.598	92.99086
1025.763	87.09485
1025.929	75.67614
1026.095	69.74492
1026.26	84.91768
1026.426	84.6158
1026.591	77.55708
1026.757	95.32621
1026.922	71.54061
1027.087	70.41554
1027.253	69.75794
1027.418	86.18957
1027.584	72.53077
1027.749	59.03448
1027.914	67.74052
1028.08	50.4144
1028.245	61.1403
1028.41	76.35236
1028.576	65.25694
1028.741	65.05177
1028.906	63.59594
1029.072	71.32956
1029.237	59.14482
1029.402	55.22753
1029.567	61.36221
1029.732	70.52369
1029.898	63.28029
1030.063	66.30289
1030.228	66.63488
1030.393	66.52879
1030.558	47.73305
1030.723	75.67902
1030.888	68.8686
1031.053	70.8929
1031.218	42.91762
1031.383	70.53363
1031.548	57.45909
1031.713	69.98473
1031.878	57.57428
1032.043	63.50801
1032.208	56.00488
1032.373	53.56581
1032.538	72.64322
1032.703	67.29878
1032.868	64.07232
1033.033	74.37449
1033.198	64.96886
1033.362	50.76205
1033.527	59.26285
1033.692	51.64432
1033.857	59.24476
1034.021	45.94726
1034.186	75.13772
1034.351	46.95761
1034.516	61.15452
1034.68	47.84985
1034.845	61.49379
1035.01	52.09801
1035.174	59.15521
1035.339	53.11079
1035.504	51.21575
1035.668	57.35484
1035.833	67.08517
1035.997	62.06361
1036.162	43.38684
1036.326	43.38369
1036.491	51.5523
1036.655	55.35528
1036.82	65.30146
1036.984	58.13026
1037.149	57.57977
1037.313	56.80201
1037.478	52.32261
1037.642	59.25516
1037.807	75.6871
1037.971	40.48303
1038.135	50.53746
1038.3	60.94348
1038.464	40.13979
1038.628	41.59007
1038.792	58.7927
1038.957	46.39532
1039.121	49.19332
1039.285	43.38866
1039.449	45.95497
1039.614	43.27312
1039.778	56.807
1039.942	34.9996
1040.106	51.10831
1040.27	46.29032
1040.434	57.36667
1040.599	52.22447
1040.763	40.25168
1040.927	30.41911
1041.091	47.97951
1041.255	46.29952
1041.419	36.78802
1041.583	35.66807
1041.747	46.74364
1041.911	53.01062
1042.075	49.65342
1042.239	30.9787
1042.403	54.02386
1042.567	37.01193
1042.731	61.71999
1042.894	30.87082
1043.058	45.52459
1043.222	39.47285
1043.386	50.65169
1043.55	34.11378
1043.714	56.70547
1043.877	40.60954
1044.041	33.22038
1044.205	45.62781
1044.369	45.18359
1044.532	48.76436
1044.696	47.74945
1044.86	48.64777
1045.023	57.25014
1045.187	26.72922
1045.351	39.36276
1045.514	44.18454
1045.678	28.06934
1045.841	48.64684
