Data from 3_57 pm cloudy_Subt2__8__16-00-08-418.txt Node

Date: Tue Oct 07 16:00:08 EDT 2025
User: brett
Spectrometer: USB4F03499
Trigger mode: 4
Integration Time (sec): 1.000000E-2
Scans to average: 10
Electric dark correction enabled: true
Nonlinearity correction enabled: true
Boxcar width: 0
XAxis mode: Wavelengths
Number of Pixels in Spectrum: 3648
>>>>>Begin Spectral Data<<<<<
345.386	-4.79481
345.605	-4.79481
345.824	-4.79481
346.044	2.36977
346.263	-4.01106
346.482	-0.98841
346.701	-8.03778
346.92	17.92657
347.139	3.60027
347.358	0.24243
347.577	17.03065
347.796	-11.84721
348.015	-11.73362
348.234	-7.81603
348.453	9.08665
348.672	-7.14317
348.891	-0.31711
349.11	-0.65263
349.329	142.93761
349.548	190.21089
349.767	205.28949
349.986	203.72833
350.205	209.75752
350.424	207.49183
350.643	207.9388
350.862	209.81185
351.08	199.93136
351.299	183.6255
351.518	208.88738
351.737	214.8104
351.956	202.6195
352.174	207.90987
352.393	214.01163
352.612	216.40755
352.831	213.98272
353.049	227.2868
353.268	225.25409
353.487	223.87234
353.705	216.12436
353.924	232.58561
354.143	231.71618
354.361	234.5626
354.58	221.63019
354.798	218.46983
355.017	236.74343
355.236	225.89601
355.454	232.17936
355.673	254.0017
355.891	243.22613
356.11	243.11057
356.328	248.8955
356.547	244.32707
356.765	242.32262
356.984	255.72468
357.202	252.50568
357.42	273.25351
357.639	264.34373
357.857	253.16052
358.076	258.40947
358.294	250.85297
358.512	268.47117
358.731	254.20274
358.949	259.01066
359.167	269.24775
359.386	272.05986
359.604	263.62643
359.822	259.10677
360.04	282.5838
360.259	286.2529
360.477	257.89618
360.695	258.87743
360.913	262.78907
361.131	285.02645
361.35	281.74858
361.568	267.87441
361.786	282.91339
362.004	287.73706
362.222	275.43187
362.44	264.24958
362.658	278.27269
362.876	273.26443
363.094	269.01726
363.312	275.00477
363.53	271.8628
363.749	294.61128
363.967	263.91193
364.184	270.68259
364.402	283.94069
364.62	276.78893
364.838	288.69343
365.056	275.24907
365.274	307.67477
365.492	291.94132
365.71	300.33167
365.928	287.38858
366.146	301.87805
366.364	313.70298
366.581	301.26947
366.799	320.29637
367.017	323.03518
367.235	344.07512
367.453	334.13036
367.67	334.10681
367.888	322.54393
368.106	338.35995
368.323	345.51926
368.541	346.9879
368.759	348.15453
368.977	369.69997
369.194	353.48977
369.412	380.27843
369.629	360.06389
369.847	374.86189
370.065	364.62397
370.282	386.85091
370.5	390.52388
370.717	385.72894
370.935	409.30975
371.152	395.69168
371.37	415.94798
371.588	409.32382
371.805	422.52926
372.022	434.22912
372.24	433.75234
372.457	436.01668
372.675	434.261
372.892	418.20768
373.11	442.21542
373.327	456.25315
373.544	440.21416
373.762	451.20312
373.979	440.39603
374.196	451.63591
374.414	441.13036
374.631	458.96767
374.848	463.70795
375.066	436.01668
375.283	447.53799
375.5	443.82599
375.717	450.89545
375.935	461.93575
376.152	460.81766
376.369	445.41179
376.586	461.9459
376.803	449.82723
377.02	446.30786
377.238	460.96279
377.455	467.01048
377.672	474.31881
377.889	446.85182
378.106	459.88582
378.323	464.32029
378.54	457.86149
378.757	484.74975
378.974	470.50044
379.191	474.8853
379.408	497.28573
379.625	481.72261
379.842	463.32824
380.059	470.514
380.276	490.99044
380.493	477.30358
380.71	490.35577
380.927	504.04152
381.143	481.30225
381.36	506.57359
381.577	503.05066
381.794	505.58425
382.011	501.10772
382.228	504.42859
382.444	509.67626
382.661	508.64374
382.878	502.22543
383.095	505.11116
383.311	511.22404
383.528	517.96199
383.745	509.62307
383.962	519.97848
384.178	538.29688
384.395	524.07809
384.612	551.73272
384.828	523.38509
385.045	528.08808
385.261	530.33953
385.478	543.99259
385.695	550.26814
385.911	546.8018
386.128	555.23264
386.344	548.44489
386.561	544.64245
386.777	565.81989
386.994	544.24742
387.21	542.00525
387.427	557.25773
387.643	540.16552
387.86	533.74537
388.076	540.05195
388.292	545.34177
388.509	534.48363
388.725	541.13351
388.942	561.30246
389.158	542.36651
389.374	543.96889
389.591	538.93182
389.807	548.31772
390.023	559.73319
390.239	563.71177
390.456	568.19021
390.672	584.20427
390.888	559.89385
391.104	564.65304
391.321	581.24507
391.537	599.82237
391.753	579.67595
391.969	612.89305
392.185	613.98189
392.401	625.97821
392.618	615.2288
392.834	617.10993
393.05	650.57557
393.266	654.82679
393.482	657.82789
393.698	648.5432
393.914	648.53302
394.13	657.66885
394.346	680.62784
394.562	668.92195
394.778	658.17539
394.994	703.86031
395.21	717.32829
395.426	700.72875
395.642	723.24149
395.858	731.27532
396.073	721.34906
396.289	700.23077
396.505	749.32896
396.721	750.80835
396.937	772.65634
397.153	740.34604
397.369	747.84016
397.584	778.95957
397.8	759.23809
398.016	785.3937
398.232	785.18182
398.447	804.29046
398.663	785.49729
398.879	792.99112
399.094	826.31943
399.31	830.35769
399.526	802.39522
399.741	853.08052
399.957	838.37413
400.173	847.9416
400.388	847.52073
400.604	857.30018
400.82	884.30527
401.035	903.85651
401.251	922.10446
401.466	923.06188
401.682	958.95601
401.897	992.43674
402.113	979.68031
402.328	997.71919
402.544	1014.92876
402.759	1008.23391
402.974	1063.62999
403.19	1069.19569
403.405	1135.78295
403.621	1179.12155
403.836	1180.49631
404.051	1234.84212
404.267	1260.11027
404.482	1236.30752
404.697	1246.3471
404.913	1279.99954
405.128	1365.78843
405.343	1361.91207
405.559	1358.51742
405.774	1414.15017
405.989	1449.16813
406.204	1473.48835
406.42	1491.38989
406.635	1496.76122
406.85	1494.28145
407.065	1562.41049
407.28	1591.55633
407.495	1619.8577
407.71	1607.97557
407.926	1632.92732
408.141	1748.79185
408.356	1731.08086
408.571	1709.08039
408.786	1729.25249
409.001	1760.57805
409.216	1817.97607
409.431	1837.43598
409.646	1817.61157
409.861	1789.73069
410.076	1814.72607
410.291	1833.00195
410.506	1872.24787
410.721	1875.00696
410.936	1886.98304
411.15	1874.21601
411.365	1926.95622
411.58	1940.07862
411.795	1926.45191
412.01	2036.62156
412.225	1991.23457
412.439	1949.26792
412.654	1994.36583
412.869	1973.64282
413.084	2026.51705
413.299	2041.95031
413.513	1988.15731
413.728	2036.76169
413.943	2088.36572
414.157	2108.98276
414.372	2110.2252
414.587	2133.87903
414.801	2212.82572
415.016	2201.73805
415.231	2222.91963
415.445	2235.09469
415.66	2249.41197
415.874	2289.3377
416.089	2249.22673
416.304	2355.93298
416.518	2339.28156
416.733	2345.44134
416.947	2325.62499
417.162	2335.60101
417.376	2388.82102
417.59	2432.74997
417.805	2473.77785
418.019	2423.21612
418.234	2412.70545
418.448	2363.5809
418.663	2456.92926
418.877	2453.42493
419.091	2491.70909
419.306	2493.8769
419.52	2513.65991
419.734	2469.91685
419.949	2586.81047
420.163	2631.61401
420.377	2509.6157
420.591	2586.156
420.806	2603.23956
421.02	2552.00936
421.234	2648.0136
421.448	2632.47621
421.663	2646.29993
421.877	2594.72006
422.091	2600.1271
422.305	2592.4289
422.519	2616.36512
422.733	2777.11801
422.947	2626.34968
423.161	2640.27066
423.376	2633.6101
423.59	2700.40848
423.804	2706.96676
424.018	2726.29177
424.232	2696.23423
424.446	2807.86531
424.66	2733.42029
424.874	2725.44754
425.088	2652.59838
425.302	2693.1463
425.515	2828.70532
425.729	2849.67815
425.943	2838.89765
426.157	2847.87488
426.371	2780.97396
426.585	2812.21292
426.799	2862.02717
427.013	2981.74295
427.226	2992.65723
427.44	2816.58088
427.654	2810.77465
427.868	2831.24685
428.081	2878.49047
428.295	2860.72996
428.509	2882.65887
428.723	2832.89668
428.936	2868.88603
429.15	2783.05658
429.364	2882.39692
429.577	2729.23209
429.791	2819.58817
430.005	2979.88328
430.218	2886.57645
430.432	2780.01928
430.645	2799.17563
430.859	2847.62129
431.073	2885.44017
431.286	2963.82796
431.5	2963.80807
431.713	2825.09574
431.927	2824.72682
432.14	2902.74462
432.354	2845.11085
432.567	2852.33312
432.781	2960.38353
432.994	2948.27961
433.207	2993.55307
433.421	3020.89799
433.634	2976.72425
433.848	3047.9786
434.061	2928.69634
434.274	2826.49207
434.488	2905.73615
434.701	2854.65932
434.914	2908.41534
435.127	2976.59353
435.341	3044.67928
435.554	2989.0365
435.767	3120.26483
435.98	3124.4409
436.194	2970.72928
436.407	2975.06575
436.62	3238.09674
436.833	3200.25425
437.046	3101.69076
437.259	3025.64268
437.473	3152.21278
437.686	3197.70468
437.899	3124.6557
438.112	3226.05713
438.325	3135.968
438.538	3183.4343
438.751	3409.53602
438.964	3257.27071
439.177	3273.77185
439.39	3295.31359
439.603	3517.36379
439.816	3375.83081
440.029	3552.64555
440.242	3643.49461
440.455	3715.24894
440.668	3639.7072
440.881	3498.29212
441.094	3458.90984
441.306	3666.69842
441.519	3816.35482
441.732	3823.4548
441.945	3857.09286
442.158	3703.16918
442.37	3643.52355
442.583	3916.83649
442.796	3999.25201
443.009	3944.62696
443.222	3816.34114
443.434	3655.46595
443.647	4025.28476
443.86	4193.10299
444.072	4212.48632
444.285	4081.1028
444.498	4201.28411
444.71	4061.14865
444.923	4116.43632
445.136	4094.77789
445.348	3983.24764
445.561	4048.82312
445.773	4044.29154
445.986	3863.44672
446.198	4213.47468
446.411	4237.75809
446.623	4328.38441
446.836	4279.4225
447.048	4297.25052
447.261	4452.67033
447.473	4465.75759
447.686	4272.97402
447.898	4317.69434
448.11	4602.15514
448.323	4654.10208
448.535	4538.25684
448.748	4366.93919
448.96	4392.68513
449.172	4402.44202
449.385	4229.82069
449.597	4489.11582
449.809	4525.25062
450.021	4632.81311
450.234	4717.78594
450.446	4483.56991
450.658	4518.69992
450.87	4503.05664
451.083	4619.65714
451.295	4680.30311
451.507	4650.17026
451.719	4577.35889
451.931	4779.33496
452.143	4701.08242
452.356	4626.87817
452.568	4721.93076
452.78	4727.87474
452.992	4810.03873
453.204	4991.07083
453.416	4745.11011
453.628	4601.29884
453.84	4696.04956
454.052	4733.52362
454.264	4938.14244
454.476	4881.42484
454.688	5127.7093
454.9	5142.5648
455.112	4866.41143
455.324	4797.17898
455.536	4933.40935
455.747	5114.48558
455.959	5047.21215
456.171	5153.75617
456.383	5000.82692
456.595	4862.3919
456.807	4905.45155
457.018	4852.44472
457.23	5102.92745
457.442	4958.22546
457.654	5116.35939
457.865	5021.79968
458.077	4908.89875
458.289	4950.03869
458.501	4997.59241
458.712	5268.88337
458.924	5430.39245
459.136	5144.80893
459.347	5050.82693
459.559	5105.27829
459.77	5343.11805
459.982	5408.63594
460.194	5387.11802
460.405	5120.02879
460.617	5151.98689
460.828	5384.73802
461.04	5368.2793
461.251	5265.84904
461.463	5703.45908
461.674	5579.73552
461.886	5474.61307
462.097	5320.28524
462.309	5495.74255
462.52	5321.0032
462.731	5708.0968
462.943	5347.61059
463.154	5238.07679
463.366	5337.1701
463.577	5506.84682
463.788	5714.32312
464	5725.82175
464.211	5771.69692
464.422	6060.17448
464.634	5962.9517
464.845	5907.62795
465.056	6026.04501
465.267	5990.35966
465.478	5659.12287
465.69	5971.44476
465.901	5964.08525
466.112	6005.53002
466.323	6014.96807
466.534	6184.96842
466.745	6200.37394
466.957	6226.88246
467.168	6170.43534
467.379	6178.51286
467.59	6029.04279
467.801	5856.23483
468.012	6151.3368
468.223	6218.85153
468.434	6162.05797
468.645	6532.29534
468.856	6646.06391
469.067	6401.82962
469.278	6424.14863
469.489	6552.39514
469.7	6287.43042
469.911	6231.69674
470.122	6719.53386
470.333	6886.52428
470.543	6469.90611
470.754	6677.86162
470.965	6702.61052
471.176	6725.30175
471.387	7006.97405
471.598	6827.21366
471.808	6755.53564
472.019	6887.94316
472.23	6855.98653
472.441	6670.15687
472.651	6941.93238
472.862	6838.58911
473.073	7147.12992
473.283	6982.65054
473.494	6946.2446
473.705	6965.31602
473.915	7038.67345
474.126	7318.33138
474.337	7254.21734
474.547	7482.95265
474.758	7585.25684
474.968	7430.36591
475.179	7514.8654
475.389	7418.67082
475.6	7578.0805
475.81	7668.62086
476.021	7875.36724
476.231	7862.5007
476.442	7805.07483
476.652	7621.3995
476.863	7752.13781
477.073	7717.75522
477.284	7981.65417
477.494	7942.2512
477.704	8326.16783
477.915	8502.39194
478.125	8051.0591
478.335	8318.26152
478.546	8613.71474
478.756	8464.58576
478.966	8675.07164
479.177	8649.71506
479.387	8769.22604
479.597	8771.45433
479.807	8801.12194
480.018	8728.16148
480.228	8958.58101
480.438	9007.80431
480.648	9152.97365
480.858	9163.26324
481.068	8920.10189
481.279	9203.87197
481.489	9649.70275
481.699	9482.58127
481.909	9453.33092
482.119	10026.35422
482.329	9988.30884
482.539	9944.81414
482.749	9755.12839
482.959	10037.89973
483.169	10360.2862
483.379	10287.96126
483.589	10464.18657
483.799	10344.74933
484.009	10294.36161
484.219	10411.33387
484.429	10619.69364
484.639	10426.63004
484.849	10706.25021
485.059	10958.42521
485.268	10992.83174
485.478	11032.1361
485.688	10774.52311
485.898	10859.31273
486.108	11054.37488
486.317	11196.04676
486.527	11262.25953
486.737	11551.99354
486.947	11496.31665
487.156	11633.34378
487.366	11576.24925
487.576	11287.64281
487.785	11486.62609
487.995	11449.66468
488.205	11638.8036
488.414	11690.52916
488.624	11662.96716
488.834	11781.67551
489.043	11627.2338
489.253	11556.71174
489.462	11838.7739
489.672	12052.20725
489.882	12090.79445
490.091	12188.53924
490.301	12170.99333
490.51	12195.22624
490.72	12276.12513
490.929	12411.3331
491.138	12572.89787
491.348	12365.33052
491.557	12434.43633
491.767	12557.04816
491.976	12599.97316
492.185	12556.05563
492.395	12584.45333
492.604	12778.62912
492.813	12741.75684
493.023	12964.76782
493.232	12853.92669
493.441	12779.25646
493.651	13071.81546
493.86	12745.59248
494.069	13054.58104
494.278	13087.95784
494.488	13144.17394
494.697	13207.46135
494.906	13075.5799
495.115	13348.15707
495.324	13272.30286
495.533	13450.79152
495.743	13522.92317
495.952	13849.9341
496.161	13673.77475
496.37	13784.30921
496.579	13873.77964
496.788	13947.70916
496.997	14204.66449
497.206	13943.62141
497.415	14113.5868
497.624	14148.84045
497.833	14217.72844
498.042	14321.32079
498.251	14505.85242
498.46	14528.52636
498.669	14484.18148
498.878	14446.30039
499.087	14486.43264
499.296	14824.12511
499.504	14819.16081
499.713	14747.96244
499.922	14828.36742
500.131	14934.01789
500.34	14986.05023
500.549	15031.14399
500.757	14887.32252
500.966	15054.35294
501.175	15024.05895
501.384	15271.12276
501.592	15188.78708
501.801	15195.22602
502.01	15225.59487
502.218	15175.90219
502.427	15338.59101
502.636	15291.14146
502.844	15333.7381
503.053	15290.35155
503.262	15250.11961
503.47	15318.68998
503.679	15412.81604
503.887	15374.08598
504.096	15455.75096
504.304	15434.24627
504.513	15552.43989
504.721	15471.65842
504.93	15425.28549
505.138	15575.08411
505.347	15524.3265
505.555	15473.18354
505.764	15567.4585
505.972	15558.08174
506.18	15455.97898
506.389	15531.78282
506.597	15497.52457
506.806	15566.87903
507.014	15615.92812
507.222	15580.06512
507.431	15591.26275
507.639	15516.47411
507.847	15742.08001
508.055	15728.45706
508.264	15689.66947
508.472	15748.73113
508.68	15740.13188
508.888	15830.9097
509.096	15837.9761
509.305	15827.37512
509.513	15787.44113
509.721	15874.44083
509.929	15919.31519
510.137	15844.20195
510.345	15973.3149
510.553	15902.73759
510.762	15889.82527
510.97	15905.61968
511.178	16063.99357
511.386	16139.94449
511.594	16085.55064
511.802	16146.54068
512.01	16163.58244
512.218	16165.99952
512.426	16327.34201
512.634	16267.473
512.842	16349.61485
513.049	16284.57694
513.257	16301.58047
513.465	16469.37229
513.673	16519.10223
513.881	16478.31356
514.089	16526.05488
514.297	16530.04153
514.504	16535.23044
514.712	16630.44957
514.92	16764.59753
515.128	16826.57359
515.336	16728.19174
515.543	16699.68506
515.751	16859.22372
515.959	16721.59049
516.166	16624.41737
516.374	16755.1754
516.582	16867.63282
516.789	16814.62425
516.997	16781.77378
517.205	16766.00854
517.412	16867.32101
517.62	16875.16908
517.827	16881.73197
518.035	16877.70499
518.243	16809.31998
518.45	16628.77685
518.658	16660.56704
518.865	16726.65284
519.073	16803.3032
519.28	16571.47827
519.488	16662.43313
519.695	16571.05243
519.902	16563.59491
520.11	16517.55557
520.317	16751.3618
520.525	16643.53196
520.732	16475.86175
520.939	16623.23426
521.147	16429.66002
521.354	16558.10062
521.561	16553.33953
521.769	16576.97443
521.976	16428.24977
522.183	16645.18605
522.391	16445.92004
522.598	16628.76279
522.805	16534.32496
523.012	16635.21804
523.219	16623.6081
523.427	16698.59114
523.634	16748.51011
523.841	16669.85067
524.048	16659.37202
524.255	16817.1704
524.462	16734.08858
524.669	16646.8129
524.877	16853.58714
525.084	16736.64725
525.291	16737.33488
525.498	16908.64907
525.705	16918.01322
525.912	17009.67632
526.119	16889.77704
526.326	16979.24417
526.533	16985.65589
526.74	17159.10396
526.947	17088.36557
527.153	17168.04949
527.36	17184.44677
527.567	17147.63453
527.774	17149.19092
527.981	17145.53491
528.188	17143.8725
528.395	17296.23785
528.602	17190.76179
528.808	17269.58205
529.015	17244.97962
529.222	17419.57294
529.429	17184.57628
529.635	17431.1057
529.842	17367.55883
530.049	17309.08193
530.256	17282.26305
530.462	17535.51751
530.669	17494.40882
530.876	17500.15596
531.082	17513.73351
531.289	17489.18418
531.495	17533.26637
531.702	17683.58955
531.909	17582.14492
532.115	17806.55064
532.322	17565.52351
532.528	17672.29976
532.735	17741.10289
532.941	17739.24756
533.148	17636.89847
533.354	17676.31919
533.561	17836.96533
533.767	17743.81936
533.974	17690.08799
534.18	17764.6783
534.387	17766.02546
534.593	17790.67639
534.799	17764.20972
535.006	17767.72572
535.212	17771.9501
535.418	17821.92861
535.625	17879.49205
535.831	17791.18982
536.037	17730.11235
536.244	17884.94369
536.45	17561.4579
536.656	17709.87489
536.862	17939.486
537.068	17890.29312
537.275	17921.05997
537.481	17949.02816
537.687	18031.91616
537.893	18062.97341
538.099	18021.05858
538.305	17965.44169
538.512	18019.30532
538.718	17939.12449
538.924	17952.71147
539.13	17919.11
539.336	18051.67772
539.542	18006.39649
539.748	18090.16072
539.954	17978.26611
540.16	18193.80323
540.366	18122.69036
540.572	18129.47212
540.778	18051.0589
540.984	18051.47654
541.19	18026.38096
541.396	17879.99396
541.602	18093.30129
541.807	17962.54194
542.013	18037.06894
542.219	17871.99739
542.425	17967.53438
542.631	17830.45852
542.837	17799.52535
543.042	17890.51559
543.248	17842.85936
543.454	17895.18656
543.66	17833.63214
543.865	17742.09773
544.071	17861.90081
544.277	17728.82612
544.483	17759.7137
544.688	17776.66929
544.894	17895.72696
545.1	17906.39667
545.305	17735.53277
545.511	17862.23718
545.716	17821.51599
545.922	17740.00685
546.128	17709.92255
546.333	17707.32723
546.539	17854.15471
546.744	17752.65632
546.95	17745.67984
547.155	17759.99653
547.361	17807.0857
547.566	17598.12949
547.772	17759.4685
547.977	17728.8302
548.182	17616.62821
548.388	17708.2498
548.593	17703.64564
548.799	17638.57572
549.004	17605.89261
549.209	17644.30937
549.415	17800.04465
549.62	17692.11969
549.825	17700.56806
550.031	17594.99405
550.236	17732.07878
550.441	17756.32141
550.646	17746.64495
550.852	17792.4958
551.057	17672.36904
551.262	17807.79572
551.467	17817.95511
551.672	17709.65959
551.878	17843.29671
552.083	17691.86241
552.288	17791.20204
552.493	17801.48004
552.698	17747.22929
552.903	17794.24138
553.108	17925.20133
553.313	17895.8767
553.518	17738.21869
553.723	17889.8698
553.928	17923.03627
554.133	17935.87527
554.338	17936.92263
554.543	18001.78716
554.748	17885.14582
554.953	18024.9342
555.158	18032.5116
555.363	17988.49934
555.568	17853.13896
555.773	18128.47703
555.978	18061.37412
556.182	17963.12211
556.387	17918.06187
556.592	17939.01258
556.797	18041.25473
557.002	18064.26461
557.206	17986.59739
557.411	18002.31375
557.616	17949.802
557.821	18169.70644
558.025	18053.35171
558.23	17962.11788
558.435	18152.51083
558.64	18039.02968
558.844	18059.83551
559.049	17957.2264
559.253	18069.53593
559.458	17980.90396
559.663	18061.38041
559.867	17954.59098
560.072	17860.00454
560.276	17959.42303
560.481	17959.80846
560.685	17893.1236
560.89	17856.21345
561.094	17916.78827
561.299	17790.41244
561.503	17721.55059
561.708	17893.7584
561.912	17834.28999
562.117	17801.33752
562.321	17682.20881
562.525	17818.40248
562.73	17782.79679
562.934	17805.69756
563.139	17705.57959
563.343	17807.44107
563.547	17704.98634
563.752	17762.07205
563.956	17715.62632
564.16	17684.33957
564.364	17616.38142
564.569	17680.03397
564.773	17700.18077
564.977	17614.31527
565.181	17780.22147
565.385	17621.66751
565.59	17725.44579
565.794	17655.44922
565.998	17673.14192
566.202	17631.97672
566.406	17640.34073
566.61	17662.45342
566.814	17639.12271
567.018	17557.97199
567.222	17610.45942
567.426	17417.86644
567.63	17519.10961
567.834	17420.52985
568.038	17508.16051
568.242	17417.66168
568.446	17389.15535
568.65	17391.09412
568.854	17426.64118
569.058	17484.62754
569.262	17449.55388
569.466	17449.65838
569.67	17392.25681
569.874	17254.52543
570.078	17469.29144
570.281	17331.06285
570.485	17411.83699
570.689	17304.05501
570.893	17213.75171
571.097	17278.69766
571.3	17158.59322
571.504	17289.05883
571.708	17151.61757
571.912	17144.64432
572.115	17091.25568
572.319	16922.83852
572.523	17059.79572
572.726	17051.1813
572.93	16995.18264
573.133	17002.10702
573.337	17038.31584
573.541	17029.78211
573.744	16871.80099
573.948	16846.98654
574.151	16912.3824
574.355	16825.44303
574.558	16821.86154
574.762	16935.61148
574.965	16736.60199
575.169	16883.90626
575.372	16760.62919
575.576	16780.00722
575.779	16749.36534
575.983	16871.20934
576.186	16673.62192
576.389	16684.45863
576.593	16650.16762
576.796	16727.08232
577	16550.18482
577.203	16671.54249
577.406	16651.22537
577.609	16592.54984
577.813	16597.84739
578.016	16594.59862
578.219	16569.51346
578.423	16476.06876
578.626	16476.9392
578.829	16475.30591
579.032	16476.25557
579.235	16644.01711
579.438	16515.5601
579.642	16423.0845
579.845	16386.68363
580.048	16472.98372
580.251	16335.99766
580.454	16475.12271
580.657	16364.40124
580.86	16406.02284
581.063	16272.80434
581.266	16367.92131
581.469	16380.74722
581.672	16283.18459
581.875	16345.81668
582.078	16394.31124
582.281	16264.22691
582.484	16305.66017
582.687	16433.96686
582.89	16388.83053
583.093	16247.40024
583.296	16242.35308
583.499	16506.82977
583.702	16313.84092
583.904	16278.58216
584.107	16358.60152
584.31	16350.66288
584.513	16345.43015
584.716	16382.73485
584.918	16309.19645
585.121	16396.66362
585.324	16359.4038
585.527	16345.53102
585.729	16399.23602
585.932	16370.5273
586.135	16396.85967
586.337	16321.36387
586.54	16344.73167
586.743	16377.69057
586.945	16326.68309
587.148	16294.4888
587.35	16340.51051
587.553	16287.71989
587.755	16301.90762
587.958	16298.5608
588.161	16237.24492
588.363	16289.78849
588.566	16249.41797
588.768	16368.28985
588.971	16269.61618
589.173	16264.37354
589.375	16186.18993
589.578	16219.61349
589.78	16196.05418
589.983	16049.06142
590.185	16128.32121
590.387	15923.72109
590.59	15894.12652
590.792	15861.0658
590.994	15718.62326
591.197	15678.66293
591.399	15561.87766
591.601	15522.62439
591.803	15403.6073
592.006	15313.1013
592.208	15387.32622
592.41	15283.37965
592.612	15155.49777
592.815	15142.42594
593.017	15176.45568
593.219	14958.45334
593.421	14874.36563
593.623	14827.11616
593.825	14823.85207
594.027	14822.89636
594.229	14732.62889
594.432	14637.39561
594.634	14634.63473
594.836	14495.07945
595.038	14716.11271
595.24	14439.04981
595.442	14518.98904
595.644	14471.45224
595.846	14342.53464
596.048	14453.88493
596.249	14190.59302
596.451	14258.42015
596.653	14213.44354
596.855	14133.27442
597.057	14154.89002
597.259	14131.27083
597.461	14111.88107
597.663	14097.9628
597.864	14027.86335
598.066	14075.99459
598.268	13995.63051
598.47	13989.39203
598.671	13919.64118
598.873	13973.06245
599.075	13897.93452
599.277	14079.19481
599.478	13926.78829
599.68	13994.58609
599.882	14037.73773
600.083	14018.24927
600.285	14005.3985
600.487	13996.41464
600.688	13992.42768
600.89	14102.36053
601.091	14098.25859
601.293	14117.09725
601.494	14117.22127
601.696	14130.44268
601.898	14203.22227
602.099	14286.75128
602.301	14312.33441
602.502	14316.43289
602.703	14403.85657
602.905	14328.52618
603.106	14475.29551
603.308	14349.24498
603.509	14531.46222
603.711	14320.33556
603.912	14419.01093
604.113	14415.06963
604.315	14468.84222
604.516	14545.98878
604.717	14476.59077
604.919	14467.22783
605.12	14483.10382
605.321	14681.46565
605.522	14599.66271
605.724	14592.1556
605.925	14568.32533
606.126	14702.14744
606.327	14763.14325
606.528	14813.79491
606.729	14667.95448
606.931	14877.38673
607.132	14890.24574
607.333	14726.26029
607.534	14745.29718
607.735	14923.05022
607.936	14887.52424
608.137	14944.72741
608.338	14912.84594
608.539	14965.11248
608.74	14935.00951
608.941	14956.30416
609.142	14970.06185
609.343	15023.17345
609.544	15019.21133
609.745	14978.29893
609.946	15093.21936
610.147	15012.99214
610.348	15018.71773
610.549	15020.63846
610.75	15081.61068
610.95	15032.10065
611.151	15028.16082
611.352	15088.67726
611.553	15098.9096
611.754	15006.12055
611.954	15143.60994
612.155	15007.80573
612.356	15057.77203
612.557	15014.61168
612.757	15178.63117
612.958	14974.14599
613.159	15061.63736
613.359	15029.66563
613.56	15020.69641
613.761	15076.5404
613.961	15000.5163
614.162	14972.70725
614.362	14988.3571
614.563	15047.5412
614.764	15058.36044
614.964	14951.08801
615.165	14991.40553
615.365	14991.26105
615.566	14919.23314
615.766	14945.2333
615.967	14995.62585
616.167	14773.57331
616.368	14792.65094
616.568	14880.67061
616.768	14839.70904
616.969	14888.70602
617.169	14895.38963
617.37	14744.3997
617.57	14740.95878
617.77	14794.14649
617.971	14702.98843
618.171	14696.16967
618.371	14687.61361
618.571	14678.93774
618.772	14721.44576
618.972	14674.47645
619.172	14613.40251
619.372	14531.68048
619.573	14570.05975
619.773	14621.11524
619.973	14509.80255
620.173	14587.35069
620.373	14503.33854
620.573	14493.03603
620.774	14517.47769
620.974	14458.05633
621.174	14451.1083
621.374	14444.86363
621.574	14543.12476
621.774	14457.33621
621.974	14480.0342
622.174	14432.22259
622.374	14453.91913
622.574	14447.54639
622.774	14362.70384
622.974	14333.56552
623.174	14455.75718
623.374	14470.30113
623.574	14389.14063
623.774	14409.12355
623.973	14434.12077
624.173	14342.73424
624.373	14421.09203
624.573	14356.87538
624.773	14296.41339
624.973	14285.97626
625.172	14304.06749
625.372	14260.04357
625.572	14289.38642
625.772	14318.44361
625.971	14182.89083
626.171	14252.07467
626.371	14299.6679
626.57	14142.12991
626.77	14295.84266
626.97	14131.38556
627.169	14171.72754
627.369	14195.10551
627.569	14211.97117
627.768	14074.11053
627.968	14080.10729
628.167	14135.86254
628.367	14071.60134
628.566	14035.96105
628.766	14057.98394
628.965	14050.58946
629.165	14064.32253
629.364	14063.24926
629.564	13965.12741
629.763	13942.77191
629.963	13947.95369
630.162	13890.47265
630.362	13904.76138
630.561	13818.98078
630.76	13823.41253
630.96	13755.75573
631.159	13806.23314
631.358	13783.6869
631.558	13723.68096
631.757	13669.46742
631.956	13640.32507
632.155	13581.22692
632.355	13572.55797
632.554	13601.7052
632.753	13557.38838
632.952	13501.99404
633.152	13500.1687
633.351	13484.59258
633.55	13490.64408
633.749	13444.25152
633.948	13472.28249
634.147	13434.46704
634.346	13326.27287
634.545	13320.91396
634.744	13310.48324
634.944	13299.78311
635.143	13305.10093
635.342	13220.5442
635.541	13286.40878
635.74	13246.45897
635.939	13181.131
636.138	13234.91595
636.336	13217.4685
636.535	13102.24756
636.734	13272.99873
636.933	13276.44869
637.132	13189.83929
637.331	13127.36732
637.53	13188.93987
637.729	13065.99847
637.928	13190.19353
638.126	13219.33521
638.325	13112.15605
638.524	13141.39312
638.723	13047.94707
638.921	13063.92725
639.12	13080.4999
639.319	13140.30124
639.518	13172.3383
639.716	13080.42146
639.915	13068.43965
640.114	13143.67274
640.312	13151.431
640.511	13163.25886
640.71	13189.98385
640.908	13096.5994
641.107	13130.14074
641.305	13055.40458
641.504	13090.88637
641.702	13034.8843
641.901	13076.39068
642.099	13097.43054
642.298	13002.6717
642.496	13083.16009
642.695	12970.84093
642.893	12998.73682
643.092	13090.59068
643.29	13021.60535
643.489	13003.30713
643.687	13027.29754
643.885	12971.92903
644.084	13021.59312
644.282	12988.34302
644.48	13055.20241
644.679	13024.21655
644.877	12951.24916
645.075	12980.39767
645.274	12995.14802
645.472	12890.28331
645.67	12899.09924
645.868	12920.42517
646.067	12859.97627
646.265	12907.23237
646.463	12868.8269
646.661	12796.09195
646.859	12864.25949
647.057	12787.05817
647.256	12782.779
647.454	12817.68745
647.652	12808.26147
647.85	12745.49884
648.048	12798.48867
648.246	12699.58815
648.444	12539.50636
648.642	12550.47445
648.84	12574.12656
649.038	12518.18217
649.236	12417.41407
649.434	12464.13648
649.632	12357.15056
649.83	12424.90095
650.028	12275.9914
650.226	12242.24613
650.423	12149.08937
650.621	12210.22542
650.819	12038.95433
651.017	12094.27128
651.215	12085.5225
651.413	12010.82624
651.61	11966.44512
651.808	11882.27228
652.006	11888.72159
652.204	11903.67599
652.401	11851.16448
652.599	11769.68794
652.797	11761.71288
652.995	11717.08543
653.192	11558.34824
653.39	11737.6894
653.588	11750.61432
653.785	11551.95297
653.983	11581.98518
654.18	11583.16997
654.378	11494.39987
654.576	11560.56648
654.773	11457.66835
654.971	11509.87533
655.168	11444.6705
655.366	11492.92435
655.563	11374.89571
655.761	11363.36358
655.958	11394.1134
656.156	11351.65845
656.353	11328.1907
656.55	11316.03551
656.748	11336.19452
656.945	11244.47991
657.143	11196.08971
657.34	11218.54352
657.537	11216.14576
657.735	11156.99766
657.932	11040.69238
658.129	11047.34335
658.326	10943.78126
658.524	11078.50124
658.721	11009.01625
658.918	10984.60722
659.115	10814.89156
659.313	10869.59565
659.51	10776.01197
659.707	10848.49776
659.904	10766.82256
660.101	10838.20098
660.298	10828.97998
660.496	10793.74281
660.693	10800.77649
660.89	10778.24035
661.087	10730.42894
661.284	10742.50784
661.481	10749.8063
661.678	10774.35207
661.875	10795.71056
662.072	10763.31143
662.269	10838.23541
662.466	10831.46579
662.663	10797.25287
662.86	10820.735
663.057	10815.8004
663.254	10863.4639
663.45	10894.93792
663.647	10772.55007
663.844	10831.62152
664.041	10778.66143
664.238	10907.87366
664.435	10825.29986
664.631	10771.95659
664.828	10908.98056
665.025	10856.65049
665.222	10824.941
665.419	10938.90693
665.615	10959.41937
665.812	10870.29208
666.009	10917.0181
666.205	10950.06828
666.402	10969.92282
666.599	10870.06346
666.795	10928.44777
666.992	11003.50463
667.188	11039.56675
667.385	10988.22066
667.582	11102.80892
667.778	11049.80997
667.975	11083.19171
668.171	11047.20421
668.368	11001.6426
668.564	11067.42027
668.761	11123.18858
668.957	11126.47867
669.154	11054.3302
669.35	11100.18002
669.547	11020.67906
669.743	11180.49966
669.939	11128.80147
670.136	11138.0609
670.332	11116.06946
670.528	11066.02493
670.725	11179.64536
670.921	11149.39851
671.117	11123.06017
671.314	11103.9999
671.51	11120.52646
671.706	11132.25789
671.902	11135.87967
672.099	11134.71037
672.295	11055.99832
672.491	11068.62556
672.687	11031.49805
672.883	11055.07938
673.08	11090.96082
673.276	11077.88803
673.472	11052.01129
673.668	11021.11502
673.864	10997.89832
674.06	11017.90187
674.256	11032.05819
674.452	10868.06189
674.648	10914.59037
674.844	10917.66299
675.04	11049.22561
675.236	10896.2165
675.432	10857.76943
675.628	10893.30876
675.824	10874.79807
676.02	10861.13726
676.216	10893.58671
676.412	10889.97819
676.608	10789.3913
676.804	10750.87563
676.999	10864.75259
677.195	10660.72668
677.391	10784.95908
677.587	10747.60221
677.783	10782.05956
677.978	10748.76849
678.174	10802.57742
678.37	10732.65272
678.566	10708.824
678.761	10716.39402
678.957	10632.38061
679.153	10647.74589
679.348	10642.88422
679.544	10662.65617
679.74	10677.40902
679.935	10579.33786
680.131	10605.57443
680.327	10644.8916
680.522	10560.56568
680.718	10586.67638
680.913	10562.85582
681.109	10477.46407
681.304	10539.46368
681.5	10571.30334
681.695	10544.10007
681.891	10517.70368
682.086	10458.95193
682.282	10457.85652
682.477	10480.85357
682.672	10418.40216
682.868	10420.85403
683.063	10444.37173
683.259	10482.79503
683.454	10425.6947
683.649	10327.76741
683.845	10335.49366
684.04	10418.9615
684.235	10383.78046
684.43	10336.31941
684.626	10340.25497
684.821	10385.46588
685.016	10216.75423
685.211	10312.88446
685.407	10263.29354
685.602	10231.1779
685.797	10236.35181
685.992	10173.31438
686.187	10332.67541
686.382	10268.16038
686.577	10192.22025
686.773	10239.24591
686.968	10162.04281
687.163	10179.04953
687.358	10082.25385
687.553	10159.70528
687.748	10133.88301
687.943	10117.84628
688.138	10071.63727
688.333	10061.24143
688.528	9913.99578
688.723	9978.156
688.918	9958.77846
689.112	9769.28
689.307	9746.15777
689.502	9671.90134
689.697	9689.42955
689.892	9657.49912
690.087	9519.0494
690.282	9579.15142
690.476	9448.3761
690.671	9455.97873
690.866	9316.33004
691.061	9334.85576
691.255	9243.00664
691.45	9244.73579
691.645	9163.40364
691.84	9119.24459
692.034	9157.83868
692.229	9055.00482
692.424	8977.51937
692.618	8939.82195
692.813	8877.32551
693.007	8907.64346
693.202	8843.35747
693.397	8874.48213
693.591	8743.7338
693.786	8785.20453
693.98	8707.83375
694.175	8730.84866
694.369	8617.13194
694.564	8689.37486
694.758	8571.02979
694.953	8584.47796
695.147	8532.92902
695.342	8503.82578
695.536	8397.49665
695.73	8418.00679
695.925	8330.80002
696.119	8368.78949
696.313	8217.76397
696.508	8194.57913
696.702	8251.3633
696.896	8107.57576
697.091	8157.08604
697.285	8172.07173
697.479	8117.17513
697.673	8090.85587
697.868	8081.63263
698.062	8142.14551
698.256	8046.74375
698.45	8065.58211
698.644	8007.0724
698.839	8046.20547
699.033	8018.0241
699.227	8116.4208
699.421	8048.57844
699.615	8110.45259
699.809	8104.66937
700.003	8153.54682
700.197	8068.92594
700.391	8170.06263
700.585	8078.44303
700.779	8145.66859
700.973	8103.63435
701.167	8063.81248
701.361	8120.88566
701.555	8124.27844
701.749	8042.8209
701.943	8148.71147
702.137	8122.27707
702.331	8067.42585
702.525	8035.24605
702.718	8066.93515
702.912	8041.22228
703.106	8078.12231
703.3	8046.36083
703.494	8021.98254
703.687	8010.98728
703.881	7998.61638
704.075	8025.18496
704.269	7964.76437
704.462	8047.73274
704.656	8095.46035
704.85	8010.67312
705.043	8013.38426
705.237	8012.56169
705.431	8067.98666
705.624	8013.26565
705.818	8045.98046
706.012	8053.26942
706.205	8074.14159
706.399	8011.16601
706.592	8082.20471
706.786	8017.44497
706.979	8063.80491
707.173	8021.85593
707.366	8081.79735
707.56	8083.52263
707.753	8074.47641
707.947	8047.82829
708.14	8089.72838
708.333	8028.01688
708.527	8060.92368
708.72	8050.41116
708.914	8111.2861
709.107	8116.75758
709.3	8071.22373
709.494	8002.76883
709.687	8023.03859
709.88	8121.23538
710.073	8098.99576
710.267	8076.80842
710.46	8068.07775
710.653	8143.72383
710.846	8155.54363
711.04	8188.23591
711.233	8140.25163
711.426	8138.06586
711.619	8134.01267
711.812	8188.86262
712.005	8247.60681
712.198	8194.94753
712.391	8208.2541
712.585	8187.7183
712.778	8189.99753
712.971	8266.44321
713.164	8242.7739
713.357	8281.56687
713.55	8285.60704
713.743	8279.74716
713.936	8325.17387
714.129	8332.318
714.322	8293.85128
714.514	8318.4137
714.707	8312.19462
714.9	8272.78315
715.093	8378.52897
715.286	8314.08924
715.479	8343.44138
715.672	8373.90629
715.864	8359.98391
716.057	8354.93549
716.25	8337.79406
716.443	8358.57059
716.636	8266.15651
716.828	8358.66166
717.021	8350.15927
717.214	8387.92116
717.406	8383.10285
717.599	8329.61863
717.792	8371.1904
717.984	8221.91759
718.177	8255.13379
718.37	8190.01007
718.562	8200.0706
718.755	8117.19334
718.947	8069.07941
719.14	8024.3612
719.333	7991.40121
719.525	7877.57331
719.718	7822.66486
719.91	7770.75954
720.103	7718.52966
720.295	7580.68932
720.487	7527.45049
720.68	7462.56848
720.872	7379.12084
721.065	7254.66492
721.257	7227.04831
721.449	7135.62064
721.642	7029.41807
721.834	6951.10309
722.026	6904.5137
722.219	6749.22382
722.411	6711.33787
722.603	6635.14763
722.796	6612.38092
722.988	6532.36609
723.18	6435.26045
723.372	6383.05319
723.565	6358.84061
723.757	6261.78502
723.949	6291.90891
724.141	6232.26865
724.333	6215.49458
724.525	6143.47616
724.717	6181.59386
724.91	6075.86002
725.102	6066.41191
725.294	5990.49588
725.486	5945.57481
725.678	5937.7766
725.87	5926.28194
726.062	5847.84477
726.254	5814.5661
726.446	5731.11729
726.638	5759.75271
726.83	5633.98689
727.022	5695.36169
727.213	5601.85484
727.405	5616.51695
727.597	5575.89276
727.789	5566.40319
727.981	5533.1505
728.173	5534.22075
728.365	5462.7048
728.556	5500.7435
728.748	5424.62731
728.94	5484.29502
729.132	5472.39428
729.324	5470.64133
729.515	5408.28775
729.707	5428.70181
729.899	5401.65056
730.09	5426.3752
730.282	5430.17716
730.474	5433.19199
730.665	5405.56949
730.857	5435.10761
731.049	5446.17277
731.24	5476.97488
731.432	5456.34016
731.623	5430.30073
731.815	5473.49204
732.006	5484.8268
732.198	5419.38796
732.389	5399.76513
732.581	5401.32935
732.772	5406.53696
732.964	5370.16943
733.155	5387.22331
733.347	5412.31385
733.538	5401.41745
733.729	5416.9131
733.921	5419.94059
734.112	5415.54295
734.304	5488.71489
734.495	5491.49583
734.686	5489.82378
734.877	5519.02926
735.069	5500.09004
735.26	5565.66706
735.451	5572.94996
735.643	5593.14786
735.834	5712.71246
736.025	5686.54968
736.216	5692.54688
736.407	5710.7584
736.599	5732.15905
736.79	5794.94605
736.981	5814.38359
737.172	5830.02177
737.363	5910.71193
737.554	5954.68896
737.745	5971.16421
737.936	5992.86326
738.127	6079.23863
738.318	6053.03216
738.509	6150.45083
738.7	6159.3353
738.891	6218.01286
739.082	6242.17522
739.273	6268.97085
739.464	6302.44565
739.655	6377.00932
739.846	6364.22705
740.037	6431.15761
740.228	6442.07246
740.419	6474.57623
740.609	6509.23387
740.8	6590.25823
740.991	6616.59578
741.182	6588.57033
741.373	6651.406
741.563	6732.55321
741.754	6685.68371
741.945	6762.25171
742.136	6806.92421
742.326	6862.00759
742.517	6854.02625
742.708	6858.92759
742.898	6921.36081
743.089	6913.52097
743.28	6959.50532
743.47	6980.46978
743.661	7016.82956
743.851	7044.79873
744.042	7020.65012
744.233	7068.72006
744.423	7108.88473
744.614	7112.82882
744.804	7102.58706
744.995	7147.98347
745.185	7007.78063
745.376	7181.19246
745.566	7245.89195
745.756	7243.7238
745.947	7276.28848
746.137	7288.32203
746.328	7299.56733
746.518	7347.84688
746.708	7316.94096
746.899	7376.09792
747.089	7368.24365
747.279	7390.51333
747.47	7407.62486
747.66	7408.81704
747.85	7426.91964
748.04	7445.53972
748.231	7442.0655
748.421	7471.22803
748.611	7431.23595
748.801	7508.26191
748.991	7496.96157
749.182	7560.55895
749.372	7516.4578
749.562	7560.59335
749.752	7556.20033
749.942	7547.11105
750.132	7564.82138
750.322	7612.80249
750.512	7592.194
750.702	7607.84273
750.892	7571.07608
751.082	7653.3617
751.272	7576.45934
751.462	7610.69472
751.652	7625.27191
751.842	7627.1221
752.032	7600.8587
752.222	7629.5613
752.412	7629.30998
752.602	7612.7563
752.792	7618.08777
752.981	7638.6113
753.171	7588.11539
753.361	7629.23994
753.551	7576.45934
753.741	7597.32377
753.93	7588.28049
754.12	7592.83312
754.31	7556.03716
754.5	7533.70145
754.689	7563.42643
754.879	7522.04565
755.069	7483.7774
755.258	7535.01644
755.448	7526.66987
755.638	7495.95156
755.827	7508.598
756.017	7563.51632
756.206	7463.48113
756.396	7543.6819
756.586	7499.62962
756.775	7525.47583
756.965	7481.24209
757.154	7509.87554
757.344	7434.05588
757.533	7440.40331
757.723	7408.22533
757.912	7429.20629
758.101	7408.25837
758.291	7418.59102
758.48	7371.79865
758.67	7369.83878
758.859	7362.1481
759.048	7368.49356
759.238	7348.16061
759.427	7367.24583
759.616	7350.13791
759.806	7298.53012
759.995	7332.6392
760.184	7332.52786
760.373	7284.65015
760.563	7332.96964
760.752	7188.39852
760.941	7250.78263
761.13	7173.25097
761.319	7099.15468
761.509	7026.64568
761.698	6963.42587
761.887	6873.1847
762.076	6812.02427
762.265	6724.80338
762.454	6629.04069
762.643	6528.21095
762.832	6389.76827
763.021	6307.14953
763.21	6180.13679
763.399	6077.25956
763.588	5994.63341
763.777	5856.18015
763.966	5766.4094
764.155	5664.92263
764.344	5556.87183
764.533	5492.76119
764.722	5374.03435
764.911	5260.43511
765.1	5170.19387
765.288	5065.89775
765.477	5008.73348
765.666	4870.10421
765.855	4816.85872
766.044	4759.39125
766.232	4650.32566
766.421	4508.73317
766.61	4475.14063
766.799	4387.36384
766.987	4343.31427
767.176	4257.55727
767.365	4201.68706
767.553	4159.63162
767.742	4113.88452
767.931	4042.49152
768.119	4021.94548
768.308	3930.07679
768.497	3903.05478
768.685	3880.89311
768.874	3878.84402
769.062	3819.23073
769.251	3846.42905
769.439	3819.09691
769.628	3822.22874
769.816	3829.92871
770.005	3896.48637
770.193	3891.57229
770.382	3959.48229
770.57	3986.42496
770.758	4039.60165
770.947	4114.17875
771.135	4136.57098
771.323	4184.01537
771.512	4255.7377
771.7	4276.10949
771.888	4365.05752
772.077	4393.02051
772.265	4415.51218
772.453	4495.14454
772.642	4551.23458
772.83	4599.18612
773.018	4699.04185
773.206	4670.17493
773.394	4753.30911
773.583	4836.05685
773.771	4931.43053
773.959	5004.52939
774.147	5046.09547
774.335	5150.15
774.523	5178.55472
774.711	5261.39004
774.899	5328.83989
775.087	5354.43075
775.275	5405.73044
775.463	5488.16864
775.651	5527.39392
775.839	5582.36782
776.027	5622.28565
776.215	5633.28017
776.403	5732.0743
776.591	5718.69509
776.779	5792.40883
776.967	5773.33658
777.155	5866.07422
777.343	5844.48691
777.531	5922.67903
777.718	5893.62422
777.906	5993.81968
778.094	5964.48221
778.282	6008.41743
778.47	5982.93796
778.657	6016.42592
778.845	5987.96041
779.033	6027.01366
779.22	6001.27591
779.408	6092.84044
779.596	6055.86115
779.783	6067.2187
779.971	6053.51842
780.159	6074.11902
780.346	6096.45529
780.534	6087.446
780.722	6085.47094
780.909	6108.36411
781.097	6067.94324
781.284	6057.24484
781.472	6054.88305
781.659	6088.50579
781.847	6064.86531
782.034	6094.49519
782.222	6045.1656
782.409	6040.56092
782.597	6037.75432
782.784	5982.21453
782.971	6059.51145
783.159	6023.42749
783.346	5980.1692
783.533	6002.61282
783.721	6004.36893
783.908	5974.28942
784.095	5922.01667
784.283	5943.76529
784.47	5957.6025
784.657	5966.93601
784.844	5903.97618
785.032	5912.39029
785.219	5868.79775
785.406	5896.19
785.593	5893.40905
785.78	5905.33803
785.968	5825.2289
786.155	5862.65033
786.342	5828.20939
786.529	5853.41805
786.716	5808.3165
786.903	5839.07605
787.09	5761.77541
787.277	5807.73688
787.464	5779.89064
787.651	5775.04721
787.838	5704.81748
788.025	5735.82295
788.212	5720.22823
788.399	5726.96698
788.586	5702.83151
788.773	5718.99368
788.96	5693.99022
789.147	5665.2873
789.334	5558.93225
789.521	5626.40604
789.707	5557.27658
789.894	5604.40664
790.081	5533.22083
790.268	5543.09678
790.455	5500.11906
790.641	5537.28611
790.828	5505.47311
791.015	5452.70587
791.202	5427.99017
791.388	5419.34403
791.575	5375.4627
791.762	5341.79091
791.948	5358.88052
792.135	5359.23627
792.322	5295.07825
792.508	5324.28818
792.695	5272.5571
792.881	5269.91555
793.068	5236.0654
793.254	5170.27738
793.441	5177.72947
793.627	5155.17672
793.814	5151.20581
794	5168.77453
794.187	5111.01554
794.373	5141.65115
794.56	5042.93292
794.746	5080.89607
794.933	5069.41192
795.119	5023.55643
795.305	5055.51329
795.492	5007.66257
795.678	4975.88839
795.864	4988.56489
796.051	4957.04048
796.237	4952.53092
796.423	4938.48936
796.61	4963.84329
796.796	4893.25076
796.982	4928.50736
797.168	4884.37225
797.355	4922.94546
797.541	4859.576
797.727	4879.48786
797.913	4832.80016
798.099	4864.42515
798.285	4785.46699
798.471	4818.11061
798.658	4773.58513
798.844	4813.23146
799.03	4794.52682
799.216	4806.09575
799.402	4784.95946
799.588	4794.69531
799.774	4787.96865
799.96	4740.39621
800.146	4747.39617
800.332	4747.16369
800.518	4707.71041
800.704	4752.09035
800.89	4707.93767
801.075	4764.80024
801.261	4699.46354
801.447	4679.60183
801.633	4694.63025
801.819	4713.88854
802.005	4683.04626
802.19	4732.77053
802.376	4660.75827
802.562	4717.17976
802.748	4671.4277
802.934	4697.80321
803.119	4619.28803
803.305	4626.37289
803.491	4678.50413
803.676	4635.16095
803.862	4641.59115
804.048	4683.41866
804.233	4608.47269
804.419	4598.93746
804.605	4554.2089
804.79	4572.61999
804.976	4555.43152
805.161	4558.46988
805.347	4566.10863
805.532	4583.74216
805.718	4556.49198
805.903	4555.12844
806.089	4535.22599
806.274	4557.44342
806.46	4523.41206
806.645	4532.4256
806.831	4495.26139
807.016	4546.83275
807.201	4526.6943
807.387	4534.21473
807.572	4509.90688
807.757	4519.17784
807.943	4478.40701
808.128	4526.31599
808.313	4460.2057
808.499	4527.65518
808.684	4472.43411
808.869	4484.74733
809.054	4476.88308
809.24	4507.98298
809.425	4465.0019
809.61	4505.9042
809.795	4487.17687
809.98	4469.23109
810.165	4465.17076
810.35	4441.60069
810.536	4481.51865
810.721	4428.94919
810.906	4414.63457
811.091	4485.26421
811.276	4396.22459
811.461	4439.42202
811.646	4407.92266
811.831	4402.32797
812.016	4342.14272
812.201	4372.02269
812.386	4367.26204
812.571	4377.89717
812.756	4262.57915
812.941	4328.57243
813.125	4329.52898
813.31	4324.17326
813.495	4302.50959
813.68	4250.21064
813.865	4296.64184
814.05	4296.72979
814.234	4246.51479
814.419	4234.09086
814.604	4211.68396
814.789	4209.51749
814.973	4169.0784
815.158	4108.18727
815.343	4082.44768
815.528	4087.84777
815.712	4067.54616
815.897	4045.16695
816.081	3962.10272
816.266	3955.11954
816.451	3918.58741
816.635	3913.94181
816.82	3840.51844
817.004	3817.97428
817.189	3777.90373
817.374	3731.31469
817.558	3669.515
817.743	3635.08474
817.927	3598.33658
818.111	3577.39729
818.296	3528.41538
818.48	3468.32571
818.665	3449.00181
818.849	3418.40336
819.034	3374.25415
819.218	3316.51572
819.402	3256.3815
819.587	3211.88886
819.771	3206.0936
819.955	3180.60537
820.14	3155.16926
820.324	3064.63657
820.508	3038.72749
820.692	3040.46865
820.877	2954.79646
821.061	2947.49632
821.245	2909.15692
821.429	2893.47305
821.613	2849.61201
821.798	2833.25479
821.982	2795.34005
822.166	2799.58331
822.35	2784.93474
822.534	2771.72191
822.718	2738.00469
822.902	2743.42137
823.086	2725.09485
823.27	2695.54579
823.454	2670.71481
823.638	2687.78556
823.822	2691.84946
824.006	2651.16734
824.19	2613.15969
824.374	2665.07332
824.558	2611.38425
824.742	2580.5906
824.926	2600.65224
825.11	2571.61917
825.294	2545.41524
825.477	2595.90256
825.661	2529.80987
825.845	2538.17656
826.029	2540.0494
826.213	2510.76664
826.396	2537.69851
826.58	2547.27206
826.764	2540.23026
826.948	2545.6606
827.131	2515.43366
827.315	2537.19225
827.499	2563.13809
827.682	2516.06911
827.866	2552.79982
828.05	2561.98203
828.233	2574.45176
828.417	2578.64063
828.6	2580.3725
828.784	2585.77441
828.967	2550.60705
829.151	2605.50826
829.335	2599.0537
829.518	2625.17731
829.701	2600.14833
829.885	2604.75941
830.068	2624.34536
830.252	2620.46868
830.435	2601.8302
830.619	2634.10971
830.802	2582.79538
830.985	2604.30749
831.169	2598.51344
831.352	2602.74715
831.535	2573.89909
831.719	2601.43532
831.902	2583.82373
832.085	2552.41217
832.269	2582.04849
832.452	2592.30502
832.635	2554.21933
832.818	2578.59
833.002	2572.90027
833.185	2581.78059
833.368	2601.94036
833.551	2575.32586
833.734	2572.11861
833.917	2588.89763
834.1	2598.95537
834.284	2585.97206
834.467	2586.55696
834.65	2606.65009
834.833	2557.99241
835.016	2566.97337
835.199	2520.88744
835.382	2567.06202
835.565	2543.95943
835.748	2582.18589
835.931	2551.19647
836.114	2548.94346
836.297	2576.8079
836.479	2553.06812
836.662	2523.48114
836.845	2534.92371
837.028	2524.00497
837.211	2535.01372
837.394	2535.70083
837.577	2555.82079
837.759	2563.34749
837.942	2567.99577
838.125	2550.97198
838.308	2584.21958
838.49	2548.73512
838.673	2629.89775
838.856	2584.99109
839.039	2601.26649
839.221	2556.8269
839.404	2582.46598
839.587	2570.48871
839.769	2612.97758
839.952	2564.30705
840.134	2584.00894
840.317	2556.96891
840.499	2600.43547
840.682	2604.42547
840.865	2624.6329
841.047	2615.49357
841.23	2607.56304
841.412	2651.17805
841.595	2617.84137
841.777	2608.34778
841.959	2622.34087
842.142	2602.85834
842.324	2677.82706
842.507	2641.28424
842.689	2639.53902
842.871	2665.28503
843.054	2683.25202
843.236	2681.1608
843.418	2689.52711
843.601	2665.94885
843.783	2667.35381
843.965	2682.21469
844.147	2681.16343
844.33	2691.51566
844.512	2723.75079
844.694	2727.5456
844.876	2729.07661
845.059	2704.15778
845.241	2736.46979
845.423	2648.83525
845.605	2751.43371
845.787	2750.63607
845.969	2733.74279
846.151	2690.62496
846.333	2727.30911
846.515	2684.17845
846.697	2743.65313
846.879	2725.42189
847.061	2723.31315
847.243	2690.9562
847.425	2680.93187
847.607	2726.43666
847.789	2728.69388
847.971	2715.79745
848.153	2696.69136
848.335	2668.69284
848.517	2745.2768
848.699	2699.96349
848.881	2743.86744
849.062	2706.42646
849.244	2706.38953
849.426	2683.23045
849.608	2721.90683
849.789	2679.55514
849.971	2704.07984
850.153	2670.7766
850.335	2716.70555
850.516	2699.3409
850.698	2690.81924
850.88	2695.97043
851.061	2672.50169
851.243	2669.82357
851.425	2706.17229
851.606	2661.31105
851.788	2696.12097
851.969	2653.83033
852.151	2631.28664
852.333	2624.46913
852.514	2630.02765
852.696	2616.74297
852.877	2637.83163
853.059	2613.32738
853.24	2625.04246
853.422	2614.94059
853.603	2605.81931
853.784	2585.52679
853.966	2604.98097
854.147	2575.26188
854.329	2589.139
854.51	2556.99347
854.691	2556.83543
854.873	2565.35325
855.054	2529.79074
855.235	2531.4282
855.416	2525.24275
855.598	2495.26027
855.779	2513.88265
855.96	2490.70915
856.141	2476.56664
856.323	2458.45476
856.504	2494.79581
856.685	2414.34251
856.866	2471.39186
857.047	2394.95222
857.228	2408.92509
857.409	2377.02434
857.591	2392.78669
857.772	2378.61617
857.953	2374.03308
858.134	2336.38363
858.315	2325.50023
858.496	2356.44229
858.677	2341.23666
858.858	2317.14632
859.039	2299.04639
859.22	2295.21569
859.401	2299.99433
859.582	2298.04664
859.762	2304.74949
859.943	2273.26746
860.124	2302.15227
860.305	2247.03106
860.486	2294.24023
860.667	2263.717
860.848	2274.00783
861.028	2263.61863
861.209	2281.27292
861.39	2257.98897
861.571	2291.0762
861.751	2262.88552
861.932	2267.08209
862.113	2264.67871
862.293	2270.8551
862.474	2229.9049
862.655	2254.80036
862.835	2257.92053
863.016	2236.94679
863.197	2205.9394
863.377	2241.72207
863.558	2202.7682
863.738	2214.51343
863.919	2183.83099
864.099	2249.58717
864.28	2227.11011
864.46	2217.46659
864.641	2228.30305
864.821	2244.11711
865.002	2186.72133
865.182	2242.93933
865.363	2203.51693
865.543	2184.33325
865.723	2212.36778
865.904	2222.42178
866.084	2217.70857
866.264	2206.45799
866.445	2181.63612
866.625	2195.21468
866.805	2186.16967
866.986	2202.07076
867.166	2188.27203
867.346	2194.62371
867.526	2174.41462
867.707	2156.83322
867.887	2138.50692
868.067	2160.72379
868.247	2145.93158
868.427	2160.60455
868.607	2122.65496
868.788	2111.2976
868.968	2131.09612
869.148	2108.18421
869.328	2125.71429
869.508	2094.18479
869.688	2067.05643
869.868	2082.38963
870.048	2060.01196
870.228	2075.46896
870.408	2065.80369
870.588	2064.88597
870.768	2040.04667
870.948	2044.79761
871.128	2045.35844
871.307	2038.90564
871.487	2002.88117
871.667	2034.23347
871.847	2017.23897
872.027	2011.15594
872.207	2005.2122
872.387	2004.78995
872.566	1982.72116
872.746	1988.64145
872.926	1976.44417
873.106	1991.00312
873.285	1950.24993
873.465	1956.9402
873.645	1946.08492
873.824	1966.67087
874.004	1939.12381
874.184	1936.78857
874.363	1915.44148
874.543	1937.21516
874.723	1909.91226
874.902	1951.14676
875.082	1913.98767
875.261	1886.33281
875.441	1920.06707
875.62	1883.35361
875.8	1874.175
875.979	1906.58002
876.159	1868.83774
876.338	1900.62488
876.518	1897.27282
876.697	1868.7204
876.876	1891.34399
877.056	1878.64885
877.235	1889.43472
877.415	1866.16895
877.594	1856.14165
877.773	1875.79969
877.953	1883.97172
878.132	1855.98939
878.311	1853.21435
878.49	1855.22162
878.67	1834.39469
878.849	1878.34554
879.028	1830.53261
879.207	1808.47389
879.387	1815.73773
879.566	1849.64045
879.745	1809.39153
879.924	1828.3136
880.103	1784.10222
880.282	1814.73182
880.461	1805.33049
880.64	1790.50279
880.819	1774.25555
880.998	1767.28388
881.178	1776.75438
881.357	1786.19984
881.536	1765.99166
881.715	1777.54301
881.893	1760.35843
882.072	1747.80815
882.251	1759.4319
882.43	1754.34951
882.609	1746.69847
882.788	1742.71959
882.967	1727.56237
883.146	1730.15249
883.325	1711.8538
883.503	1709.69795
883.682	1704.48822
883.861	1706.28714
884.04	1686.26638
884.219	1706.91242
884.397	1672.88847
884.576	1709.89835
884.755	1684.07192
884.933	1683.13544
885.112	1680.90445
885.291	1672.38042
885.469	1666.02632
885.648	1663.19516
885.827	1662.94561
886.005	1668.09049
886.184	1648.2352
886.363	1665.84266
886.541	1647.47546
886.72	1665.77564
886.898	1651.86035
887.077	1681.40887
887.255	1632.42999
887.434	1633.49749
887.612	1613.27583
887.791	1624.37404
887.969	1616.18424
888.147	1580.3799
888.326	1634.69433
888.504	1622.26734
888.682	1607.27039
888.861	1623.43195
889.039	1599.6316
889.218	1620.12145
889.396	1597.63612
889.574	1603.55168
889.752	1572.80302
889.931	1593.95786
890.109	1584.49016
890.287	1563.51391
890.465	1584.80931
890.643	1593.82744
890.822	1572.72387
891	1593.71552
891.178	1561.98276
891.356	1575.28876
891.534	1576.35075
891.712	1582.08282
891.89	1541.35067
892.068	1556.40785
892.247	1545.80006
892.425	1582.13591
892.603	1554.52347
892.781	1577.56417
892.959	1517.71144
893.137	1572.61876
893.314	1536.18394
893.492	1531.24487
893.67	1534.74383
893.848	1533.17527
894.026	1552.70907
894.204	1530.84725
894.382	1512.75138
894.56	1543.87708
894.738	1508.14223
894.915	1520.75759
895.093	1490.83267
895.271	1479.56061
895.449	1474.15002
895.626	1484.64056
895.804	1480.46532
895.982	1482.16843
896.16	1457.76566
896.337	1452.09339
896.515	1436.51376
896.693	1451.60482
896.87	1412.74531
897.048	1423.11246
897.225	1409.42566
897.403	1412.48481
897.581	1412.18207
897.758	1390.25316
897.936	1350.33474
898.113	1340.39908
898.291	1349.12109
898.468	1333.18658
898.646	1316.48104
898.823	1296.57844
899.001	1282.50524
899.178	1258.12095
899.356	1257.33773
899.533	1217.49867
899.71	1230.61986
899.888	1215.62497
900.065	1193.75469
900.242	1173.226
900.42	1168.13632
900.597	1168.29506
900.774	1119.97347
900.952	1104.17843
901.129	1089.2431
901.306	1055.16913
901.483	1053.55185
901.661	1043.5416
901.838	1031.56654
902.015	1008.92608
902.192	973.31615
902.369	974.99671
902.546	948.62283
902.723	936.24741
902.901	938.8256
903.078	917.38479
903.255	887.94938
903.432	901.74771
903.609	890.65368
903.786	853.70405
903.963	836.75154
904.14	835.49984
904.317	787.57435
904.494	828.14364
904.671	827.63247
904.848	797.53305
905.024	791.80203
905.201	811.13932
905.378	762.70182
905.555	781.84548
905.732	786.84599
905.909	787.10049
906.086	779.51737
906.262	768.42231
906.439	760.01761
906.616	783.49832
906.793	769.30257
906.969	779.34712
907.146	775.47017
907.323	775.45045
907.5	778.16533
907.676	793.06381
907.853	780.00687
908.03	798.11283
908.206	793.97911
908.383	798.47595
908.559	814.38581
908.736	819.03637
908.912	807.27312
909.089	805.84077
909.266	790.22282
909.442	816.67856
909.619	813.65682
909.795	820.85665
909.972	798.35917
910.148	796.1391
910.324	809.57809
910.501	801.11172
910.677	814.88822
910.854	798.91497
911.03	808.58844
911.206	811.39766
911.383	780.42685
911.559	807.31588
911.735	771.94934
911.912	781.71015
912.088	771.22887
912.264	779.42818
912.44	787.42846
912.617	768.24502
912.793	781.70868
912.969	752.60213
913.145	755.89151
913.321	756.99995
913.498	733.59927
913.674	744.17853
913.85	721.55033
914.026	716.25949
914.202	717.30738
914.378	724.84725
914.554	707.30199
914.73	689.42206
914.906	680.81248
915.082	678.64951
915.258	667.57758
915.434	673.63906
915.61	647.36481
915.786	627.13132
915.962	641.40386
916.138	621.22193
916.314	607.08101
916.49	616.57363
916.665	596.11864
916.841	604.67513
917.017	601.6903
917.193	581.76531
917.369	586.51175
917.545	595.81714
917.72	565.53819
917.896	574.86588
918.072	577.587
918.247	559.24288
918.423	571.12487
918.599	581.04222
918.775	560.5028
918.95	555.6119
919.126	561.05249
919.301	554.37419
919.477	545.25726
919.653	549.25824
919.828	538.9487
920.004	535.05089
920.179	543.84857
920.355	546.21357
920.53	527.35841
920.706	543.45218
920.881	535.21328
921.057	534.35484
921.232	520.57701
921.408	541.93282
921.583	539.65295
921.759	530.42448
921.934	504.46153
922.109	542.69832
922.285	515.2604
922.46	535.23781
922.635	510.53312
922.811	526.3131
922.986	534.3626
923.161	539.98872
923.336	541.94463
923.512	532.5737
923.687	543.60704
923.862	539.97724
924.037	552.45211
924.212	568.7967
924.388	555.23925
924.563	560.18733
924.738	564.30366
924.913	572.32673
925.088	562.87553
925.263	573.59331
925.438	581.15895
925.613	574.80143
925.788	579.7011
925.963	576.55258
926.138	560.76927
926.313	595.23154
926.488	581.81423
926.663	593.63557
926.838	592.41251
927.013	576.92937
927.188	585.02554
927.363	575.86859
927.538	564.08572
927.713	568.91751
927.888	596.32298
928.062	594.27594
928.237	576.88625
928.412	582.38374
928.587	583.84522
928.761	599.51815
928.936	587.39032
929.111	566.02608
929.286	586.15323
929.46	600.02952
929.635	556.22618
929.81	571.31528
929.984	570.61897
930.159	566.79125
930.334	543.96297
930.508	542.8516
930.683	551.56687
930.857	523.41758
931.032	506.72633
931.206	518.2318
931.381	491.89117
931.556	486.92437
931.73	483.21633
931.904	464.21324
932.079	466.96517
932.253	447.99219
932.428	450.95783
932.602	465.83295
932.777	411.51046
932.951	414.54085
933.125	412.3028
933.3	391.88535
933.474	391.78715
933.648	388.55118
933.823	376.19556
933.997	350.81886
934.171	365.82292
934.345	345.46487
934.52	334.53712
934.694	337.52461
934.868	309.76571
935.042	314.40843
935.217	282.65588
935.391	291.61424
935.565	284.43354
935.739	269.33452
935.913	251.25835
936.087	255.12575
936.261	235.43863
936.435	229.18412
936.609	222.99635
936.783	220.91155
936.957	201.93722
937.131	206.57847
937.305	164.56756
937.479	174.33083
937.653	176.05535
937.827	165.98073
938.001	156.48172
938.175	131.9603
938.349	128.11564
938.523	124.30623
938.697	124.08054
938.87	114.48447
939.044	112.73571
939.218	114.9656
939.392	111.38417
939.566	103.01144
939.739	106.71093
939.913	111.2862
940.087	107.3837
940.261	91.89038
940.434	71.88019
940.608	94.55371
940.782	80.13125
940.955	87.99782
941.129	81.92553
941.302	93.10829
941.476	78.69053
941.65	84.07183
941.823	85.38809
941.997	75.77206
942.17	79.93272
942.344	85.39881
942.517	80.24131
942.691	79.81229
942.864	85.74141
943.038	100.3732
943.211	85.74272
943.385	88.08226
943.558	92.21813
943.731	89.16728
943.905	74.99521
944.078	89.86968
944.251	100.11277
944.425	94.91152
944.598	102.78569
944.771	95.70941
944.945	94.55335
945.118	68.73574
945.291	93.52011
945.464	91.42174
945.638	95.53453
945.811	100.0077
945.984	99.55893
946.157	89.62265
946.33	101.81651
946.503	87.41239
946.677	91.85369
946.85	100.34496
947.023	99.99517
947.196	98.65545
947.369	111.64828
947.542	106.03578
947.715	102.35558
947.888	98.10119
948.061	99.24282
948.234	101.43985
948.407	104.91544
948.58	109.27117
948.753	106.71985
948.926	85.59498
949.099	99.0152
949.271	87.39477
949.444	88.58433
949.617	97.00323
949.79	87.06834
949.963	99.80588
950.136	88.93102
950.308	83.50104
950.481	92.35117
950.654	85.92018
950.827	88.75483
950.999	77.68434
951.172	95.57523
951.345	87.29216
951.517	98.33134
951.69	89.08722
951.863	79.24009
952.035	87.74816
952.208	75.4502
952.381	86.29153
952.553	89.05708
952.726	90.23296
952.898	82.50103
953.071	87.41971
953.243	72.30606
953.416	92.67469
953.588	93.52934
953.761	79.92298
953.933	96.1152
954.106	86.04218
954.278	90.51681
954.45	94.09814
954.623	90.77236
954.795	78.24174
954.967	87.30046
955.14	84.86799
955.312	78.46017
955.484	76.77137
955.657	82.70065
955.829	91.53505
956.001	80.34525
956.173	80.78661
956.346	75.22642
956.518	85.27716
956.69	87.51199
956.862	88.54007
957.034	84.48388
957.207	84.71764
957.379	95.78053
957.551	84.59159
957.723	88.73289
957.895	75.68667
958.067	96.20044
958.239	90.09559
958.411	80.25412
958.583	91.98551
958.755	83.93849
958.927	93.09307
959.099	97.22153
959.271	110.16862
959.443	92.53492
959.615	86.63091
959.787	79.37614
959.959	82.83554
960.13	81.26961
960.302	84.59706
960.474	81.01434
960.646	83.7045
960.818	94.31373
960.99	107.28931
961.161	92.42899
961.333	91.4207
961.505	90.51096
961.677	87.27159
961.848	82.91624
962.02	99.00692
962.192	84.04177
962.363	88.95297
962.535	101.78441
962.707	93.87717
962.878	111.85306
963.05	106.72594
963.221	96.10826
963.393	100.63869
963.564	91.73448
963.736	75.77494
963.907	102.94021
964.079	102.21728
964.25	95.63881
964.422	86.48709
964.593	99.65041
964.765	99.21643
964.936	101.08387
965.108	114.544
965.279	108.59925
965.45	100.34839
965.622	103.69389
965.793	112.84421
965.964	109.8341
966.136	113.53862
966.307	118.19192
966.478	111.2655
966.65	112.16289
966.821	120.87905
966.992	129.13374
967.163	107.79582
967.334	121.31849
967.506	85.90389
967.677	94.19574
967.848	110.04667
968.019	112.52853
968.19	131.92231
968.361	108.58813
968.532	107.69536
968.703	115.27384
968.874	113.17698
969.045	105.35389
969.216	108.81318
969.387	104.68248
969.558	117.74871
969.729	112.15396
969.9	121.78561
970.071	116.17478
970.242	125.31862
970.413	133.92865
970.584	114.37344
970.755	135.37416
970.926	122.55574
971.097	138.26739
971.267	119.60114
971.438	123.3061
971.609	141.50455
971.78	139.44802
971.951	142.84569
972.121	125.92721
972.292	128.19552
972.463	146.83533
972.633	139.80063
972.804	135.28459
972.975	139.66918
973.145	150.83189
973.316	179.1779
973.487	143.54243
973.657	144.81523
973.828	163.30824
973.998	166.30207
974.169	175.90448
974.339	168.89026
974.51	155.33407
974.68	154.7066
974.851	160.84239
975.021	171.56451
975.192	183.57305
975.362	174.21562
975.533	164.61655
975.703	185.81107
975.874	164.2338
976.044	178.04884
976.214	173.47537
976.385	178.31205
976.555	186.67353
976.725	172.83738
976.896	178.54799
977.066	166.53658
977.236	184.6729
977.406	164.22453
977.577	181.22325
977.747	191.68019
977.917	185.9999
978.087	175.56205
978.257	179.53228
978.427	161.01035
978.598	163.23006
978.768	169.53244
978.938	181.56587
979.108	175.33554
979.278	183.325
979.448	163.60943
979.618	178.66597
979.788	161.273
979.958	166.72081
980.128	166.55482
980.298	167.98212
980.468	158.50311
980.638	168.02209
980.808	161.84289
980.978	172.15021
981.148	175.11433
981.317	150.34334
981.487	152.84128
981.657	157.6132
981.827	159.42249
981.997	147.78729
982.167	154.20011
982.336	163.97917
982.506	144.45056
982.676	148.47218
982.846	157.49238
983.015	156.73391
983.185	143.89328
983.355	149.50417
983.524	163.32057
983.694	158.85324
983.864	144.02748
984.033	157.98714
984.203	147.16165
984.372	134.21771
984.542	155.49168
984.712	155.96759
984.881	153.85266
985.051	151.03404
985.22	163.67678
985.39	150.93468
985.559	153.4676
985.728	165.53491
985.898	151.03404
986.067	156.16843
986.237	166.45546
986.406	160.64161
986.576	136.52026
986.745	161.63005
986.914	154.33366
987.084	144.79443
987.253	161.79209
987.422	154.51898
987.591	162.09547
987.761	161.78659
987.93	150.95294
988.099	162.6232
988.268	165.5593
988.438	136.62078
988.607	156.4437
988.776	172.88691
988.945	156.45635
989.114	164.66192
989.283	168.06741
989.452	168.97669
989.621	172.78411
989.791	148.60036
989.96	150.81821
990.129	152.12323
990.298	171.54121
990.467	152.3792
990.636	168.00305
990.805	159.37916
990.974	180.3898
991.142	161.49863
991.311	182.49711
991.48	162.40796
991.649	164.39151
991.818	172.10796
991.987	180.03897
992.156	157.55497
992.325	170.87484
992.493	173.45637
992.662	176.16857
992.831	161.0152
993	160.9958
993.168	169.97755
993.337	166.89441
993.506	173.74238
993.675	181.35843
993.843	160.75111
994.012	176.79399
994.181	182.62327
994.349	170.52621
994.518	175.13548
994.686	165.51617
994.855	183.47356
995.024	176.78732
995.192	166.26508
995.361	164.95538
995.529	168.55955
995.698	178.11508
995.866	163.38502
996.035	145.97245
996.203	161.19638
996.371	161.90839
996.54	172.86213
996.708	165.28986
996.877	177.9127
997.045	169.58366
997.213	160.61008
997.382	151.33833
997.55	159.14216
997.718	157.1454
997.887	175.25073
998.055	172.43659
998.223	162.78429
998.391	141.77868
998.56	161.86855
998.728	139.3035
998.896	150.04564
999.064	173.16308
999.232	168.43744
999.401	169.64756
999.569	140.75573
999.737	145.67533
999.905	159.40683
1000.073	152.46923
1000.241	144.02041
1000.409	142.25529
1000.577	164.09357
1000.745	151.51142
1000.913	170.89871
1001.081	145.91344
1001.249	160.06567
1001.417	136.96361
1001.585	159.02187
1001.753	163.45165
1001.921	150.04451
1002.089	140.56277
1002.256	148.04975
1002.424	144.55044
1002.592	148.77587
1002.76	159.99122
1002.928	131.52821
1003.096	153.20775
1003.263	141.75459
1003.431	144.01605
1003.599	142.3559
1003.767	143.0333
1003.934	146.92503
1004.102	133.20809
1004.27	150.3235
1004.437	133.97111
1004.605	135.57954
1004.773	150.82619
1004.94	157.09639
1005.108	138.84601
1005.275	129.6154
1005.443	130.52814
1005.61	145.50545
1005.778	135.12879
1005.945	131.54513
1006.113	142.27736
1006.28	140.12683
1006.448	135.13032
1006.615	125.74247
1006.783	130.6608
1006.95	142.73375
1007.118	138.72617
1007.285	136.34237
1007.452	137.85571
1007.62	109.79703
1007.787	143.9586
1007.954	113.99893
1008.122	123.38764
1008.289	120.63231
1008.456	126.08579
1008.623	131.45363
1008.791	136.378
1008.958	122.28042
1009.125	121.07674
1009.292	113.60527
1009.459	116.93733
1009.627	127.36792
1009.794	109.25832
1009.961	122.7368
1010.128	106.55938
1010.295	125.64913
1010.462	110.81788
1010.629	115.63849
1010.796	140.28759
1010.963	109.81118
1011.13	125.29632
1011.297	118.75153
1011.464	109.37147
1011.631	120.43864
1011.798	119.5291
1011.965	104.33846
1012.132	107.5704
1012.299	132.57887
1012.466	127.31674
1012.633	124.00294
1012.799	104.01858
1012.966	122.32398
1013.133	120.34681
1013.3	118.44273
1013.467	113.95266
1013.633	101.36183
1013.8	118.22109
1013.967	124.4762
1014.134	109.0093
1014.3	106.81758
1014.467	117.4272
1014.634	106.4588
1014.8	103.9118
1014.967	92.95326
1015.134	91.86521
1015.3	94.06456
1015.467	104.1297
1015.633	105.80873
1015.8	104.35588
1015.966	105.14565
1016.133	100.02709
1016.3	93.73962
1016.466	104.57931
1016.632	114.61852
1016.799	100.0115
1016.965	108.8107
1017.132	102.69016
1017.298	92.20655
1017.465	106.28424
1017.631	112.73315
1017.797	93.31086
1017.964	94.86028
1018.13	92.18798
1018.296	99.20476
1018.463	89.54242
1018.629	105.04969
1018.795	89.52369
1018.961	107.81422
1019.128	90.53367
1019.294	81.81083
1019.46	91.88338
1019.626	96.55556
1019.792	108.28243
1019.959	90.51096
1020.125	86.63421
1020.291	84.38162
1020.457	99.03893
1020.623	92.5293
1020.789	86.61016
1020.955	84.51217
1021.121	87.82836
1021.287	92.98045
1021.453	95.33211
1021.619	85.16946
1021.785	78.69622
1021.951	73.31759
1022.117	91.87464
1022.283	84.27421
1022.449	81.70266
1022.615	78.36318
1022.781	75.19355
1022.946	90.16913
1023.112	86.43011
1023.278	80.00933
1023.444	83.04896
1023.61	94.46335
1023.775	72.22964
1023.941	61.70215
1024.107	80.385
1024.273	86.8541
1024.438	84.98643
1024.604	87.76019
1024.77	85.0175
1024.935	79.5549
1025.101	78.92184
1025.267	80.141
1025.432	79.25607
1025.598	85.19703
1025.763	108.20547
1025.929	94.55551
1026.095	88.40122
1026.26	69.87011
1026.426	83.62984
1026.591	77.57569
1026.757	91.32789
1026.922	73.9037
1027.087	67.75474
1027.253	75.35897
1027.418	83.41741
1027.584	80.91969
1027.749	71.56031
1027.914	68.3174
1028.08	66.06514
1028.245	58.70234
1028.41	66.87966
1028.576	63.82448
1028.741	65.96356
1028.906	65.06592
1029.072	85.86119
1029.237	75.24274
1029.402	74.3392
1029.567	66.40483
1029.732	63.73202
1029.898	62.96385
1030.063	73.13338
1030.228	74.58147
1030.393	88.76463
1030.558	56.79766
1030.723	75.02777
1030.888	76.4797
1031.053	70.24141
1031.218	40.70248
1031.383	69.10079
1031.548	62.05617
1031.713	47.77391
1031.878	68.08942
1032.043	63.63832
1032.208	62.50019
1032.373	56.7126
1032.538	70.54095
1032.703	71.56031
1032.868	69.11687
1033.033	81.9877
1033.198	73.25202
1033.362	56.70091
1033.527	60.06338
1033.692	55.23667
1033.857	70.20499
1034.021	57.35771
1034.186	75.603
1034.351	57.58718
1034.516	55.58843
1034.68	58.59044
1034.845	69.9996
1035.01	52.11663
1035.174	59.39725
1035.339	67.31328
1035.504	68.21199
1035.668	63.96264
1035.833	77.37664
1035.997	60.96512
1036.162	46.08708
1036.326	52.78621
1036.491	66.53877
1036.655	55.70907
1036.82	70.56919
1036.984	52.89952
1037.149	44.19185
1037.313	65.30911
1037.478	55.2453
1037.642	66.86767
1037.807	65.09669
1037.971	47.87651
1038.135	49.8858
1038.3	58.50444
1038.464	47.6436
1038.628	57.5806
1038.792	50.6589
1038.957	23.05778
1039.121	50.1056
1039.285	42.28983
1039.449	42.95686
1039.614	49.10135
1039.778	57.04905
1039.942	52.11146
1040.106	64.19724
1040.27	45.63859
1040.434	65.76283
1040.599	43.63861
1040.763	44.85101
1040.927	40.04897
1041.091	65.98419
1041.255	47.99429
1041.419	39.37672
1041.583	39.03882
1041.747	48.77347
1041.911	63.6422
1042.075	56.59894
1042.239	37.9267
1042.403	63.31607
1042.567	46.86273
1042.731	59.83975
1042.894	35.02545
1043.058	63.42051
1043.222	37.81524
1043.386	48.65933
1043.55	34.91488
1043.714	58.0649
1043.877	58.0629
1044.041	44.41585
1044.205	52.46214
1044.369	50.11899
1044.532	53.14098
1044.696	51.11991
1044.86	47.21372
1045.023	56.03995
1045.187	37.36566
1045.351	38.1521
1045.514	42.5265
1045.678	37.58743
1045.841	36.25982
