Data from Subt2__0__22-16-39-696.txt Node

Date: Tue Oct 07 22:16:39 EDT 2025
User: brett
Spectrometer: USB4F03499
Trigger mode: 4
Integration Time (sec): 1.000000E-1
Scans to average: 1
Electric dark correction enabled: true
Nonlinearity correction enabled: true
Boxcar width: 0
XAxis mode: Wavelengths
Number of Pixels in Spectrum: 3648
>>>>>Begin Spectral Data<<<<<
345.386	14.2465
345.605	14.2465
345.824	14.2465
346.044	-0.47178
346.263	-2.73809
346.482	-1.5976
346.701	17.58072
346.92	-18.52087
347.139	-17.39034
347.358	15.31905
347.577	17.55099
347.796	-35.50625
348.015	-11.76002
348.234	5.1691
348.453	-34.35396
348.672	35.6398
348.891	27.77472
349.11	22.11657
349.329	-4.97931
349.548	-21.92621
349.767	-16.25197
349.986	52.52477
350.205	53.70523
350.424	10.82427
350.643	16.46243
350.862	53.71148
351.08	47.99611
351.299	72.83468
351.518	32.25886
351.737	-1.59915
351.956	66.07063
352.174	69.49838
352.393	32.26136
352.612	7.42557
352.831	60.41411
353.049	11.95352
353.268	2.91372
353.487	17.57122
353.705	24.39908
353.924	63.89416
354.143	20.96727
354.361	-10.62098
354.58	28.85801
354.798	59.36119
355.017	35.63153
355.236	80.7743
355.454	-1.5997
355.673	30.00983
355.891	2.91192
356.11	-30.94217
356.328	90.94224
356.547	45.78423
356.765	17.56784
356.984	20.96484
357.202	40.14579
357.42	16.45477
357.639	15.31905
357.857	33.33406
358.076	18.67761
358.294	71.71106
358.512	-19.64259
358.731	47.98873
358.949	-1.59772
359.167	23.20146
359.386	42.30786
359.604	1.78759
359.822	46.90061
360.04	-20.758
360.259	22.09342
360.477	6.29194
360.695	35.63153
360.913	22.07893
361.131	5.16751
361.35	22.06959
361.568	1.78566
361.786	52.52477
362.004	76.09954
362.222	-19.63427
362.44	23.20235
362.658	26.62469
362.876	60.36075
363.094	0.65796
363.312	31.09722
363.53	71.761
363.749	62.67391
363.967	49.10531
364.184	10.80417
364.402	50.26581
364.62	38.99423
364.838	70.63923
365.056	46.93692
365.274	77.28029
365.492	-0.47015
365.71	23.22384
365.928	73.91263
366.146	58.16811
366.364	67.16349
366.581	-21.89229
366.799	56.97147
367.017	81.83158
367.235	59.34047
367.453	34.48405
367.67	78.32764
367.888	71.84479
368.106	9.67547
368.323	44.4531
368.541	29.9808
368.759	15.32793
368.977	45.76303
369.194	4.04091
369.412	-6.10847
369.629	28.85022
369.847	2.90758
370.065	-1.59853
370.282	77.29216
370.5	49.13173
370.717	54.72099
370.935	38.99573
371.152	46.90785
371.37	78.4056
371.588	11.92949
371.805	71.65035
372.022	64.86173
372.24	76.14617
372.457	-12.86882
372.675	60.41178
372.892	77.28919
373.11	31.06858
373.327	65.08297
373.544	54.80101
373.762	58.12561
373.979	72.8403
374.196	96.56819
374.414	67.13512
374.631	86.32797
374.848	34.47078
375.066	63.83227
375.283	23.21218
375.5	62.80041
375.717	72.8403
375.935	39.00475
376.152	61.52856
376.369	58.09221
376.586	102.22781
376.803	43.44933
377.02	81.81898
377.238	93.19213
377.455	49.15635
377.672	29.91993
377.889	31.09243
378.106	18.71433
378.323	66.10639
378.54	40.12873
378.757	60.27333
378.974	46.90061
379.191	53.6327
379.408	-9.49878
379.625	106.5857
379.842	39.00626
380.059	62.74911
380.276	90.89652
380.493	55.88482
380.71	96.49736
380.927	76.08211
381.143	60.32383
381.36	25.47155
381.577	33.32256
381.794	57.00863
382.011	94.18794
382.228	26.56723
382.444	71.59822
382.661	68.3368
382.878	48.0257
383.095	130.32849
383.311	141.49007
383.528	70.53567
383.745	7.42902
383.962	79.59514
384.178	33.33534
384.395	55.97557
384.612	50.27162
384.828	118.81122
385.045	89.7218
385.261	50.18687
385.478	97.7439
385.695	-20.76039
385.911	53.64509
386.128	41.24296
386.344	16.44905
386.561	61.60704
386.777	73.91263
386.994	79.65361
387.21	64.79738
387.427	37.86887
387.643	32.21903
387.86	61.5191
388.076	73.92968
388.292	47.99242
388.509	67.13254
388.725	93.1058
388.942	22.0977
389.158	64.9541
389.374	84.1221
389.591	106.53259
389.807	77.30702
390.023	18.65768
390.239	53.57314
390.456	67.27002
390.672	85.13372
390.888	71.68066
391.104	102.03893
391.321	108.83951
391.537	72.94202
391.753	71.68342
391.969	71.58455
392.185	82.96379
392.401	115.60984
392.618	70.54652
392.834	94.04765
393.05	100.96087
393.266	124.48276
393.482	79.53697
393.698	48.02385
393.914	109.8927
394.13	22.06028
394.346	99.67936
394.562	91.95537
394.778	43.48766
394.994	116.62732
395.21	176.40715
395.426	89.7218
395.642	113.42568
395.858	55.89127
396.073	162.68251
396.289	134.59101
396.505	129.13876
396.721	134.78693
396.937	64.85676
397.153	49.12228
397.369	104.35996
397.584	115.69891
397.8	52.44225
398.016	53.54251
398.232	89.51622
398.447	64.78998
398.663	77.29513
398.879	79.58594
399.094	89.74255
399.31	73.89277
399.526	100.89507
399.741	88.48741
399.957	44.61392
400.173	75.09311
400.388	93.03429
400.604	101.01918
400.82	114.45428
401.035	82.98939
401.251	170.56867
401.466	67.25697
401.682	105.42845
401.897	138.03339
402.113	121.1635
402.328	59.2718
402.544	112.21808
402.759	107.69814
402.974	130.07905
403.19	120.97449
403.405	142.57577
403.621	141.39264
403.836	139.14083
404.051	152.75687
404.267	109.97698
404.482	179.41416
404.697	163.78591
404.913	147.17714
405.128	145.95204
405.343	43.4693
405.559	160.4871
405.774	180.88593
405.989	169.58893
406.204	145.71321
406.42	191.90872
406.635	155.94911
406.85	126.52272
407.065	139.00844
407.28	198.95503
407.495	170.64018
407.71	197.5377
407.926	192.01835
408.141	112.0979
408.356	136.71211
408.571	146.85162
408.786	122.13835
409.001	169.34366
409.216	197.6581
409.431	176.19167
409.646	146.92413
409.861	158.13362
410.076	169.38222
410.291	217.73109
410.506	153.82756
410.721	146.00799
410.936	163.85449
411.15	153.72187
411.365	169.27314
411.58	215.52245
411.795	188.63051
412.01	214.23095
412.225	206.57753
412.439	168.24778
412.654	162.61454
412.869	189.42184
413.084	179.79047
413.299	143.54048
413.513	187.50846
413.728	168.29252
413.943	125.44867
414.157	188.35863
414.372	199.66659
414.587	171.42432
414.801	222.23864
415.016	210.73529
415.231	267.58878
415.445	220.11451
415.66	114.35362
415.874	216.74225
416.089	134.50402
416.304	176.31938
416.518	210.97443
416.733	199.69685
416.947	216.61865
417.162	201.68692
417.376	172.81263
417.59	164.85775
417.805	219.88064
418.019	213.378
418.234	186.20928
418.448	251.427
418.663	210.76706
418.877	295.21355
419.091	198.46338
419.306	255.87686
419.52	201.89243
419.734	226.96251
419.949	241.77522
420.163	263.84247
420.377	208.78839
420.591	170.32971
420.806	222.12917
421.02	225.76334
421.234	261.3456
421.448	208.47267
421.663	199.83343
421.877	224.30139
422.091	173.67133
422.305	192.92029
422.519	204.29587
422.733	244.72592
422.947	251.60855
423.161	234.56278
423.376	246.9474
423.59	228.53025
423.804	191.93791
424.018	245.89272
424.232	280.11707
424.446	225.02356
424.66	270.35576
424.874	217.74762
425.088	180.75463
425.302	237.98259
425.515	284.1318
425.729	209.50543
425.943	228.74514
426.157	263.55328
426.371	202.7529
426.585	217.00462
426.799	260.88522
427.013	253.27462
427.226	247.92656
427.44	241.18253
427.654	199.52331
427.868	228.70205
428.081	283.88436
428.295	270.51937
428.509	260.17774
428.723	289.26986
428.936	247.90783
429.15	241.19165
429.364	244.25557
429.577	219.94728
429.791	232.19931
430.005	290.22412
430.218	232.18176
430.432	251.20849
430.645	250.1179
430.859	264.83177
431.073	262.61317
431.286	235.70078
431.5	218.5378
431.713	238.55753
431.927	240.09029
432.14	291.85712
432.354	229.97731
432.567	251.41747
432.781	248.10501
432.994	257.87242
433.207	207.38446
433.421	274.7681
433.634	201.10832
433.848	256.22654
434.061	275.09032
434.274	276.9629
434.488	215.39988
434.701	274.59255
434.914	220.51956
435.127	247.97343
435.341	269.14568
435.554	264.66187
435.767	247.76768
435.98	237.70736
436.194	296.28744
436.407	267.04989
436.62	278.19618
436.833	344.84181
437.046	270.10154
437.259	248.02976
437.473	294.72487
437.686	235.70972
437.899	233.01183
438.112	244.36565
438.325	262.67286
438.538	322.03951
438.751	318.24332
438.964	271.63371
439.177	350.23398
439.39	276.53804
439.603	318.60203
439.816	286.89446
440.029	339.54809
440.242	361.42784
440.455	324.89209
440.668	289.89941
440.881	307.37802
441.094	342.47515
441.306	346.26866
441.519	353.78766
441.732	366.16807
441.945	386.90089
442.158	359.06723
442.37	361.96623
442.583	346.16518
442.796	371.96171
443.009	381.75298
443.222	319.12133
443.434	354.10433
443.647	398.44228
443.86	342.69091
444.072	362.64917
444.285	391.27517
444.498	414.26981
444.71	437.99919
444.923	385.26633
445.136	396.52499
445.348	345.19165
445.561	346.37237
445.773	406.04409
445.986	368.39699
446.198	404.53439
446.411	415.66148
446.623	456.92106
446.836	429.90064
447.048	424.50914
447.261	505.4695
447.473	441.89502
447.686	456.3968
447.898	395.74773
448.11	526.12586
448.323	443.54142
448.535	448.18616
448.748	443.15429
448.96	453.83624
449.172	433.99863
449.385	414.96818
449.597	378.41109
449.809	491.6334
450.021	457.28925
450.234	465.56259
450.446	371.81176
450.658	428.4545
450.87	390.04305
451.083	472.40624
451.295	487.71905
451.507	435.99749
451.719	462.20987
451.931	434.9022
452.143	478.79544
452.356	475.97292
452.568	458.87402
452.78	388.87436
452.992	451.95049
453.204	482.63642
453.416	383.88101
453.628	432.28691
453.84	506.78507
454.052	433.93461
454.264	504.85836
454.476	480.9821
454.688	510.36175
454.9	481.0886
455.112	465.75238
455.324	468.09841
455.536	456.66683
455.747	480.87578
455.959	506.79906
456.171	551.78212
456.383	501.37976
456.595	490.97912
456.807	456.26223
457.018	461.33734
457.23	492.19854
457.442	462.05611
457.654	497.1675
457.865	513.31562
458.077	492.9103
458.289	537.17309
458.501	513.08925
458.712	546.13554
458.924	529.51714
459.136	496.60482
459.347	499.37944
459.559	512.81155
459.77	531.75295
459.982	559.47602
460.194	509.16384
460.405	510.06029
460.617	555.39028
460.828	575.33687
461.04	541.37453
461.251	571.2851
461.463	571.36797
461.674	652.08766
461.886	484.18524
462.097	609.10965
462.309	600.56581
462.52	531.77239
462.731	568.26931
462.943	562.92997
463.154	550.47446
463.366	540.82483
463.577	540.89741
463.788	590.39109
464	668.84121
464.211	569.79739
464.422	594.57671
464.634	608.00202
464.845	577.80597
465.056	625.01337
465.267	628.08045
465.478	573.68878
465.69	579.70428
465.901	621.08842
466.112	616.36686
466.323	643.97123
466.534	660.07238
466.745	624.72248
466.957	688.81857
467.168	614.96964
467.379	602.69121
467.59	641.12087
467.801	632.38725
468.012	688.44785
468.223	685.99669
468.434	672.648
468.645	713.64686
468.856	709.69853
469.067	701.68562
469.278	659.99571
469.489	691.27118
469.7	609.57176
469.911	652.74308
470.122	739.00493
470.333	744.03937
470.543	622.95995
470.754	710.33676
470.965	735.70577
471.176	631.46488
471.387	752.07843
471.598	658.53059
471.808	677.19295
472.019	720.13643
472.23	731.87229
472.441	701.73638
472.651	677.93011
472.862	666.79301
473.073	722.38406
473.283	688.96729
473.494	747.69771
473.705	727.90824
473.915	726.88397
474.126	747.04275
474.337	747.16265
474.547	772.48682
474.758	785.0604
474.968	792.7641
475.179	700.87731
475.389	829.84756
475.6	774.31766
475.81	851.0955
476.021	820.51841
476.231	855.0656
476.442	857.01402
476.652	790.25481
476.863	858.54139
477.073	754.52562
477.284	829.80356
477.494	845.98194
477.704	916.30299
477.915	855.48953
478.125	874.21976
478.335	883.47573
478.546	903.49999
478.756	970.01379
478.966	940.09717
479.177	920.17122
479.387	955.4278
479.597	1003.20998
479.807	955.23485
480.018	983.25836
480.228	993.63568
480.438	930.16736
480.648	1002.53723
480.858	1018.55832
481.068	953.04012
481.279	1034.19497
481.489	1012.06741
481.699	1012.66744
481.909	968.3689
482.119	1167.33979
482.329	1060.86571
482.539	1021.55105
482.749	970.03641
482.959	1125.55142
483.169	1112.74166
483.379	1163.77021
483.589	1156.17398
483.799	1071.05805
484.009	1139.21681
484.219	1063.44281
484.429	1224.71717
484.639	1153.34315
484.849	1134.07562
485.059	1227.22977
485.268	1205.96591
485.478	1191.61735
485.688	1121.782
485.898	1232.32337
486.108	1162.867
486.317	1212.68909
486.527	1238.75877
486.737	1268.33972
486.947	1253.94772
487.156	1198.75367
487.366	1200.32376
487.576	1222.87548
487.785	1197.49104
487.995	1140.1861
488.205	1231.06896
488.414	1280.67846
488.624	1253.88087
488.834	1297.46866
489.043	1247.39415
489.253	1226.38858
489.462	1251.98881
489.672	1237.58809
489.882	1256.11046
490.091	1252.69352
490.301	1314.40394
490.51	1279.54485
490.72	1332.16612
490.929	1332.34344
491.138	1304.62099
491.348	1228.5656
491.557	1235.8721
491.767	1323.68771
491.976	1322.95991
492.185	1364.68587
492.395	1377.51927
492.604	1370.4131
492.813	1370.21772
493.023	1416.3929
493.232	1357.13068
493.441	1471.37952
493.651	1327.47292
493.86	1357.13068
494.069	1317.18684
494.278	1398.21942
494.488	1467.5196
494.697	1460.81108
494.906	1383.45772
495.115	1409.65027
495.324	1432.36522
495.533	1377.70405
495.743	1449.80805
495.952	1425.44755
496.161	1432.87212
496.37	1431.81143
496.579	1422.95243
496.788	1526.56646
496.997	1533.05235
497.206	1421.95862
497.415	1558.00852
497.624	1512.6526
497.833	1437.89334
498.042	1489.68301
498.251	1607.30183
498.46	1514.12033
498.669	1532.20944
498.878	1545.35499
499.087	1499.39961
499.296	1515.9216
499.504	1606.90701
499.713	1511.47284
499.922	1554.36555
500.131	1638.40548
500.34	1563.19553
500.549	1579.69477
500.757	1557.90548
500.966	1625.81538
501.175	1641.43257
501.384	1563.4498
501.592	1522.57432
501.801	1586.15735
502.01	1587.98435
502.218	1568.11102
502.427	1603.31446
502.636	1631.53481
502.844	1566.05973
503.053	1618.72035
503.262	1627.80746
503.47	1618.40247
503.679	1610.58003
503.887	1567.87883
504.096	1691.32812
504.304	1601.23776
504.513	1637.97686
504.721	1652.33268
504.93	1604.28464
505.138	1660.01407
505.347	1634.49403
505.555	1581.4956
505.764	1576.56891
505.972	1672.39271
506.18	1638.19105
506.389	1627.64068
506.597	1665.75812
506.806	1591.36225
507.014	1642.97838
507.222	1621.62986
507.431	1699.92793
507.639	1554.06849
507.847	1582.43132
508.055	1628.90816
508.264	1576.71891
508.472	1651.63311
508.68	1621.01542
508.888	1702.20721
509.096	1628.94664
509.305	1642.92483
509.513	1717.80196
509.721	1582.11889
509.929	1677.57032
510.137	1660.06806
510.345	1657.02414
510.553	1645.07432
510.762	1701.18846
510.97	1729.51974
511.178	1670.66242
511.386	1759.65837
511.594	1725.22933
511.802	1673.54633
512.01	1647.49332
512.218	1726.22483
512.426	1725.15108
512.634	1778.94122
512.842	1686.43151
513.049	1757.62245
513.257	1754.37209
513.465	1745.94207
513.673	1730.57585
513.881	1692.23785
514.089	1752.44174
514.297	1698.89903
514.504	1712.63209
514.712	1727.07383
514.92	1740.97352
515.128	1668.33133
515.336	1695.84305
515.543	1753.72993
515.751	1738.31779
515.959	1735.68856
516.166	1740.01332
516.374	1783.15067
516.582	1721.83458
516.789	1705.34025
516.997	1747.52163
517.205	1742.78126
517.412	1738.37927
517.62	1733.98982
517.827	1786.47183
518.035	1723.89844
518.243	1766.32028
518.45	1750.02001
518.658	1706.87978
518.865	1736.62666
519.073	1774.78338
519.28	1744.65205
519.488	1724.99255
519.695	1719.5884
519.902	1680.64333
520.11	1715.57427
520.317	1694.67231
520.525	1729.07422
520.732	1732.84015
520.939	1775.78217
521.147	1698.98458
521.354	1704.87502
521.561	1673.49211
521.769	1675.38134
521.976	1677.27479
522.183	1731.14304
522.391	1621.48927
522.598	1702.86248
522.805	1696.45418
523.012	1734.81381
523.219	1689.98038
523.427	1629.8438
523.634	1671.45258
523.841	1667.23518
524.048	1789.50109
524.255	1825.37278
524.462	1715.10163
524.669	1774.93087
524.877	1773.13975
525.084	1743.45676
525.291	1688.03311
525.498	1733.10147
525.705	1717.09096
525.912	1764.05002
526.119	1757.84876
526.326	1722.62326
526.533	1774.84065
526.74	1743.068
526.947	1677.57032
527.153	1689.73091
527.36	1768.90092
527.567	1755.25477
527.774	1747.52414
527.981	1784.24023
528.188	1828.70265
528.395	1733.63261
528.602	1745.67908
528.808	1789.52589
529.015	1835.93336
529.222	1840.42086
529.429	1755.64825
529.635	1847.03703
529.842	1893.78971
530.049	1796.61457
530.256	1794.80057
530.462	1859.74874
530.669	1877.04132
530.876	1855.66001
531.082	1773.9166
531.289	1704.43398
531.495	1771.0436
531.702	1749.27481
531.909	1845.13307
532.115	1799.6141
532.322	1851.25541
532.528	1884.57562
532.735	1823.40687
532.941	1829.34181
533.148	1814.19661
533.354	1847.14485
533.561	1863.78505
533.767	1758.75095
533.974	1717.96257
534.18	1808.21113
534.387	1753.22433
534.593	1804.70688
534.799	1823.71662
535.006	1903.63142
535.212	1929.7288
535.418	1875.95943
535.625	1849.76428
535.831	1806.5549
536.037	1823.56274
536.244	1817.29257
536.45	1785.54038
536.656	1878.51349
536.862	1848.81256
537.068	1865.4011
537.275	1852.67171
537.481	1857.15203
537.687	1814.10551
537.893	1916.32887
538.099	1911.89889
538.305	1861.83612
538.512	1865.82675
538.718	1894.43631
538.924	1843.6698
539.13	1852.35317
539.336	1817.05957
539.542	1929.7544
539.748	1842.51173
539.954	1945.83258
540.16	1875.66957
540.366	1802.53785
540.572	1864.49819
540.778	1889.87521
540.984	1916.01997
541.19	1904.53956
541.396	1846.79101
541.602	1847.08021
541.807	1808.03882
542.013	1851.06497
542.219	1830.56598
542.425	1882.60922
542.631	1791.47122
542.837	1825.15685
543.042	1847.01202
543.248	1919.10407
543.454	1835.2449
543.66	1919.35054
543.865	1876.28612
544.071	1851.31423
544.277	1847.80182
544.483	1867.78266
544.688	1787.32465
544.894	1952.2737
545.1	1856.05916
545.305	1904.84312
545.511	1879.22453
545.716	1862.41842
545.922	1860.28108
546.128	1803.78044
546.333	1938.99672
546.539	1887.2104
546.744	1863.54787
546.95	1914.21868
547.155	1864.43867
547.361	1895.67064
547.566	1810.69326
547.772	1869.60919
547.977	1887.91753
548.182	1928.2307
548.388	1879.99463
548.593	1906.1313
548.799	1792.36981
549.004	1928.96024
549.209	1850.70945
549.415	1893.12654
549.62	1819.10857
549.825	1883.37936
550.031	1949.71498
550.236	1838.13058
550.441	1897.98786
550.646	1923.22404
550.852	1897.8675
551.057	1900.04429
551.262	1853.6294
551.467	1838.81101
551.672	1913.67099
551.878	1909.64019
552.083	1889.71293
552.288	1902.86516
552.493	1903.16774
552.698	1964.9109
552.903	1877.97736
553.108	1876.31795
553.313	1844.09115
553.518	1909.42321
553.723	1846.5474
553.928	1828.9706
554.133	1940.16524
554.338	1908.93864
554.543	1917.72961
554.748	1968.35573
554.953	1948.35759
555.158	2000.07183
555.363	1933.475
555.568	1916.10799
555.773	1905.32929
555.978	1889.45301
556.182	1965.23136
556.387	1897.22051
556.592	1958.82771
556.797	1973.63692
557.002	1925.27061
557.206	1935.12108
557.411	1945.30314
557.616	1867.8243
557.821	1934.63999
558.025	1907.22414
558.23	1966.20365
558.435	1858.09118
558.64	1863.01516
558.844	1915.16124
559.049	1910.62527
559.253	1941.40194
559.458	1948.11168
559.663	1994.0357
559.867	1946.55377
560.072	1994.9138
560.276	1902.60675
560.481	1906.55592
560.685	1959.25382
560.89	1964.03994
561.094	1868.25516
561.299	1852.45394
561.503	1896.1842
561.708	1918.0184
561.912	1942.71447
562.117	1881.77945
562.321	1881.36166
562.525	1925.08694
562.73	1931.19002
562.934	1845.80742
563.139	1924.08166
563.343	1918.50188
563.547	1916.85096
563.752	1941.13181
563.956	1981.86547
564.16	1921.72705
564.364	1874.01219
564.569	1939.23682
564.773	1924.967
564.977	1881.77945
565.181	1911.02879
565.385	1782.75234
565.59	2004.82571
565.794	1913.28486
565.998	1903.78174
566.202	1914.6456
566.406	1950.28801
566.61	1914.71539
566.814	1971.81618
567.018	1896.97962
567.222	1901.34764
567.426	1945.77097
567.63	1885.89921
567.834	1926.605
568.038	1919.65444
568.242	1904.60024
568.446	1858.7938
568.65	1881.66828
568.854	1868.89534
569.058	1903.79503
569.262	1829.02031
569.466	1908.38956
569.67	1919.65444
569.874	1891.75713
570.078	1875.12812
570.281	1899.88798
570.485	1813.30039
570.689	1975.4032
570.893	1849.5211
571.097	1904.63937
571.3	1819.51482
571.504	1864.50306
571.708	1914.43551
571.912	1819.54147
572.115	1853.86008
572.319	1773.74222
572.523	1897.56565
572.726	1852.0306
572.93	1844.9393
573.133	1907.88588
573.337	1926.24498
573.541	1879.8897
573.744	1853.87477
573.948	1795.32052
574.151	1845.61578
574.355	1891.10929
574.558	1908.45022
574.762	1898.53032
574.965	1867.58769
575.169	1828.9706
575.372	1805.00204
575.576	1828.89353
575.779	1839.14155
575.983	1914.59437
576.186	1860.10366
576.389	1870.49787
576.593	1842.87665
576.796	1808.12251
577	1793.96144
577.203	1840.97206
577.406	1794.22436
577.609	1864.38512
577.813	1857.08124
578.016	1806.34008
578.219	1801.95768
578.423	1812.4426
578.626	1835.49078
578.829	1871.51305
579.032	1826.50228
579.235	1888.43109
579.438	1864.5707
579.642	1870.02179
579.845	1820.60406
580.048	1750.75513
580.251	1784.3317
580.454	1857.88637
580.657	1789.09844
580.86	1887.02915
581.063	1819.58944
581.266	1733.6887
581.469	1816.80517
581.672	1817.05569
581.875	1854.51529
582.078	1821.6229
582.281	1820.00462
582.484	1776.61454
582.687	1863.22402
582.89	1828.17451
583.093	1779.20721
583.296	1811.79125
583.499	1933.84223
583.702	1849.99478
583.904	1800.55138
584.107	1826.71436
584.31	1790.89617
584.513	1789.76768
584.716	1816.56342
584.918	1868.24031
585.121	1825.12154
585.324	1799.67152
585.527	1781.01509
585.729	1855.94051
585.932	1762.02822
586.135	1833.95186
586.337	1903.22831
586.54	1818.59669
586.743	1802.07898
586.945	1817.37642
587.148	1826.16871
587.35	1834.01046
587.553	1855.00239
587.755	1750.5131
587.958	1807.94501
588.161	1867.46836
588.363	1870.975
588.566	1808.35221
588.768	1835.2449
588.971	1844.89827
589.173	1753.44898
589.375	1815.11785
589.578	1825.95907
589.78	1768.95764
589.983	1828.87733
590.185	1805.97841
590.387	1785.50236
590.59	1830.74145
590.792	1761.97383
590.994	1749.38707
591.197	1844.63969
591.399	1713.50742
591.601	1700.16618
591.803	1717.36883
592.006	1728.90741
592.208	1749.10247
592.41	1743.06244
592.612	1643.62388
592.815	1716.70259
593.017	1648.40896
593.219	1721.1607
593.421	1717.1465
593.623	1723.64055
593.825	1646.93448
594.027	1630.83675
594.229	1710.29916
594.432	1689.26007
594.634	1744.52949
594.836	1653.08269
595.038	1632.41371
595.24	1702.56148
595.442	1628.11647
595.644	1602.21947
595.846	1658.74007
596.048	1692.43511
596.249	1639.85997
596.451	1609.58412
596.653	1631.15068
596.855	1607.3045
597.057	1571.65795
597.259	1628.11647
597.461	1620.54055
597.663	1536.51624
597.864	1565.13784
598.066	1607.98272
598.268	1540.71352
598.47	1617.00944
598.671	1586.35923
598.873	1564.52238
599.075	1600.00411
599.277	1563.8034
599.478	1592.99479
599.68	1641.48452
599.882	1641.57863
600.083	1678.40425
600.285	1627.74815
600.487	1582.01487
600.688	1621.01403
600.89	1667.37267
601.091	1677.68238
601.293	1602.34313
601.494	1641.73983
601.696	1552.51501
601.898	1679.11348
602.099	1768.59518
602.301	1694.60432
602.502	1681.95766
602.703	1652.65299
602.905	1664.7572
603.106	1617.95397
603.308	1647.76552
603.509	1649.8089
603.711	1623.92392
603.912	1628.19029
604.113	1677.58443
604.315	1676.03605
604.516	1738.54314
604.717	1702.59571
604.919	1737.6955
605.12	1728.59733
605.321	1710.98425
605.522	1767.21187
605.724	1635.77248
605.925	1719.3761
606.126	1765.96755
606.327	1675.15204
606.528	1677.38427
606.729	1672.43038
606.931	1730.51955
607.132	1732.44144
607.333	1677.82279
607.534	1716.57367
607.735	1751.41816
607.936	1714.72289
608.137	1719.36684
608.338	1780.89083
608.539	1775.55626
608.74	1643.13913
608.941	1745.54575
609.142	1645.79273
609.343	1721.19231
609.544	1682.81266
609.745	1738.21118
609.946	1793.81393
610.147	1744.53261
610.348	1735.21115
610.549	1713.17721
610.75	1735.09867
610.95	1624.94584
611.151	1731.9999
611.352	1720.69988
611.553	1737.83185
611.754	1710.07013
611.954	1832.02371
612.155	1685.00943
612.356	1764.72846
612.557	1689.72919
612.757	1705.42137
612.958	1775.2149
613.159	1728.61864
613.359	1738.14723
613.56	1736.2451
613.761	1718.84835
613.961	1674.37863
614.162	1691.10883
614.362	1686.52474
614.563	1831.56222
614.764	1676.49663
614.964	1678.8771
615.165	1744.70103
615.365	1643.67591
615.566	1727.20758
615.766	1686.21335
615.967	1728.32364
616.167	1688.02047
616.368	1685.04895
616.568	1729.36885
616.768	1782.25642
616.969	1679.9235
617.169	1686.50665
617.37	1666.09124
617.57	1774.55444
617.77	1656.14706
617.971	1715.51889
618.171	1718.90385
618.371	1682.82957
618.571	1764.50206
618.772	1618.3166
618.972	1638.41077
619.172	1692.92731
619.372	1678.5897
619.573	1685.54211
619.773	1666.13181
619.973	1631.08895
620.173	1661.04233
620.373	1624.53859
620.573	1599.51369
620.774	1628.01116
620.974	1627.32755
621.174	1682.34075
621.374	1668.49422
621.574	1660.45593
621.774	1679.12095
621.974	1688.52402
622.174	1645.34309
622.374	1693.94597
622.574	1613.54352
622.774	1648.99897
622.974	1633.69931
623.174	1681.90477
623.374	1702.64224
623.574	1676.61919
623.774	1683.94488
623.973	1661.6235
624.173	1687.91047
624.373	1696.11838
624.573	1674.8374
624.773	1697.8254
624.973	1727.29855
625.172	1610.4283
625.372	1652.2313
625.572	1651.31215
625.772	1621.35504
625.971	1623.4101
626.171	1656.41456
626.371	1624.78811
626.57	1600.19099
626.77	1700.85613
626.97	1669.79226
627.169	1640.40061
627.369	1632.9287
627.569	1646.74072
627.768	1656.14706
627.968	1658.03376
628.167	1726.7478
628.367	1500.5985
628.566	1645.61378
628.766	1631.37564
628.965	1637.86662
629.165	1608.75136
629.364	1588.00707
629.564	1678.15233
629.763	1662.59235
629.963	1642.17666
630.162	1621.27852
630.362	1571.80156
630.561	1616.83328
630.76	1628.32727
630.96	1610.94394
631.159	1657.36932
631.358	1643.57176
631.558	1577.66163
631.757	1648.30101
631.956	1605.4377
632.155	1543.90849
632.355	1639.69592
632.554	1629.63907
632.753	1532.6338
632.952	1575.39721
633.152	1622.7056
633.351	1553.38774
633.55	1539.80183
633.749	1549.30766
633.948	1625.70866
634.147	1518.07066
634.346	1525.84409
634.545	1628.50279
634.744	1519.50176
634.944	1539.06558
635.143	1611.47264
635.342	1654.38287
635.541	1478.51039
635.74	1552.94134
635.939	1507.83441
636.138	1540.02178
636.336	1617.71554
636.535	1556.92947
636.734	1518.30098
636.933	1541.28402
637.132	1593.67401
637.331	1578.7217
637.53	1565.3424
637.729	1556.82703
637.928	1530.01915
638.126	1592.10435
638.325	1514.76621
638.524	1593.52798
638.723	1522.23467
638.921	1577.60308
639.12	1539.63563
639.319	1484.13427
639.518	1484.96609
639.716	1550.88962
639.915	1591.46716
640.114	1564.98605
640.312	1520.555
640.511	1644.37525
640.71	1575.34544
640.908	1484.72237
641.107	1532.95974
641.305	1567.19273
641.504	1546.26532
641.702	1558.1123
641.901	1634.11031
642.099	1546.06263
642.298	1542.76756
642.496	1568.62549
642.695	1514.76083
642.893	1593.73594
643.092	1592.91215
643.29	1515.94369
643.489	1528.27513
643.687	1565.70264
643.885	1477.70544
644.084	1571.18641
644.282	1559.64918
644.48	1550.92373
644.679	1530.45674
644.877	1528.02521
645.075	1562.41917
645.274	1512.77885
645.472	1551.84859
645.67	1466.84546
645.868	1541.18272
646.067	1559.59796
646.265	1520.56972
646.463	1478.63854
646.661	1509.49267
646.859	1563.64969
647.057	1505.75858
647.256	1579.53147
647.454	1447.30773
647.652	1522.41567
647.85	1523.01165
648.048	1508.18477
648.246	1516.95085
648.444	1495.76364
648.642	1485.66052
648.84	1476.03651
649.038	1508.364
649.236	1504.44723
649.434	1512.929
649.632	1479.22639
649.83	1460.54596
650.028	1421.67523
650.226	1482.75916
650.423	1472.01049
650.621	1467.54427
650.819	1464.64527
651.017	1401.37786
651.215	1505.4232
651.413	1410.40144
651.61	1483.34781
651.808	1454.42325
652.006	1469.99762
652.204	1466.45947
652.401	1463.4129
652.599	1368.61451
652.797	1409.61073
652.995	1374.08776
653.192	1418.49536
653.39	1498.40601
653.588	1430.36901
653.785	1389.84279
653.983	1387.81782
654.18	1408.47254
654.378	1425.06705
654.576	1395.91543
654.773	1383.43365
654.971	1378.37081
655.168	1321.43216
655.366	1435.68317
655.563	1367.85197
655.761	1431.66739
655.958	1430.6817
656.156	1403.77101
656.353	1350.7626
656.55	1358.34009
656.748	1382.5822
656.945	1346.53321
657.143	1310.28674
657.34	1334.52
657.537	1363.5239
657.735	1354.84026
657.932	1375.01081
658.129	1285.62498
658.326	1352.27557
658.524	1324.84709
658.721	1381.32236
658.918	1312.34275
659.115	1323.62877
659.313	1335.10272
659.51	1367.6389
659.707	1353.11686
659.904	1342.2807
660.101	1317.24403
660.298	1354.90458
660.496	1251.31326
660.693	1313.51545
660.89	1276.41937
661.087	1256.20277
661.284	1283.32011
661.481	1261.99063
661.678	1306.01368
661.875	1318.27039
662.072	1269.51173
662.269	1372.66002
662.466	1279.67458
662.663	1336.95514
662.86	1322.95991
663.057	1367.85197
663.254	1313.42687
663.45	1282.46002
663.647	1307.43132
663.844	1305.23803
664.041	1300.54708
664.238	1351.03408
664.435	1390.02939
664.631	1315.66714
664.828	1315.22143
665.025	1344.09114
665.222	1283.14967
665.419	1381.01739
665.615	1277.08379
665.812	1312.74146
666.009	1307.52136
666.205	1287.74779
666.402	1342.24106
666.599	1344.62974
666.795	1301.03111
666.992	1314.71607
667.188	1350.71739
667.385	1332.25594
667.582	1347.3893
667.778	1368.17178
667.975	1358.56738
668.171	1398.4991
668.368	1329.36325
668.564	1353.4265
668.761	1380.79721
668.957	1359.15981
669.154	1367.56743
669.35	1308.06762
669.547	1374.90186
669.743	1404.09865
669.939	1314.11268
670.136	1350.59596
670.332	1323.36089
670.528	1360.60863
670.725	1399.25204
670.921	1354.73673
671.117	1342.3714
671.314	1293.95157
671.51	1270.86467
671.706	1345.58575
671.902	1293.86415
672.099	1328.48122
672.295	1305.17787
672.491	1394.21861
672.687	1334.3542
672.883	1329.43072
673.08	1315.7281
673.276	1400.80538
673.472	1351.71477
673.668	1273.87462
673.864	1316.72342
674.06	1298.90521
674.256	1371.5579
674.452	1319.70876
674.648	1338.03585
674.844	1290.22402
675.04	1367.04389
675.236	1363.30315
675.432	1304.78348
675.628	1318.95566
675.824	1364.27142
676.02	1357.84889
676.216	1350.90437
676.412	1313.31912
676.608	1303.64964
676.804	1309.95365
676.999	1386.20592
677.195	1299.68216
677.391	1319.45925
677.587	1267.36979
677.783	1332.12123
677.978	1264.09673
678.174	1289.05128
678.37	1289.13367
678.566	1264.01133
678.761	1321.68369
678.957	1372.93725
679.153	1332.39848
679.348	1316.38277
679.544	1286.53124
679.74	1333.78994
679.935	1305.52925
680.131	1306.8539
680.327	1248.49316
680.522	1247.17032
680.718	1262.31067
680.913	1321.77308
681.109	1262.73881
681.304	1259.96895
681.5	1276.72193
681.695	1259.26748
681.891	1303.37753
682.086	1260.52431
682.282	1309.02394
682.477	1212.45782
682.672	1327.86845
682.868	1220.20117
683.063	1268.95198
683.259	1230.56704
683.454	1211.93168
683.649	1243.23122
683.845	1258.33783
684.04	1271.76973
684.235	1258.33054
684.43	1222.03888
684.626	1212.85361
684.821	1288.54797
685.016	1304.86092
685.211	1195.58771
685.407	1185.00263
685.602	1296.51548
685.797	1198.07621
685.992	1214.1874
686.187	1254.50585
686.382	1296.66345
686.577	1259.33853
686.773	1203.81128
686.968	1175.16739
687.163	1303.6871
687.358	1187.00964
687.553	1240.52153
687.748	1234.12587
687.943	1250.02941
688.138	1301.11927
688.333	1225.71896
688.528	1240.60628
688.723	1195.35641
688.918	1135.74795
689.112	1223.12884
689.307	1146.51244
689.502	1234.2103
689.697	1141.23918
689.892	1202.37637
690.087	1150.03503
690.282	1194.33804
690.476	1122.67889
690.671	1087.73003
690.866	1089.34551
691.061	1219.23888
691.255	1159.63993
691.45	1161.4888
691.645	1089.49976
691.84	1060.43566
692.034	1178.83772
692.229	1048.2776
692.424	1041.87306
692.618	1096.89096
692.813	1049.3327
693.007	1070.37479
693.202	1071.40907
693.397	1035.03653
693.591	1021.24019
693.786	1052.35254
693.98	1098.71515
694.175	1058.00679
694.369	1050.56873
694.564	1022.65527
694.758	1069.96653
694.953	1013.12543
695.147	981.4064
695.342	1013.44346
695.536	1065.17408
695.73	1026.19653
695.925	970.11614
696.119	967.97455
696.313	1033.23026
696.508	947.00511
696.702	940.74108
696.896	987.1879
697.091	917.10843
697.285	939.76687
697.479	1007.378
697.673	1020.32494
697.868	1006.49507
698.062	1016.27021
698.256	979.18638
698.45	1035.01018
698.644	1058.32492
698.839	945.80952
699.033	1057.93287
699.227	1012.24388
699.421	1028.15951
699.615	1025.90046
699.809	993.78841
700.003	970.30531
700.197	949.69185
700.391	1004.3739
700.585	987.1188
700.779	1044.08756
700.973	996.20196
701.167	992.74945
701.361	938.57251
701.555	1012.31453
701.749	958.08411
701.943	935.51593
702.137	1007.44548
702.331	924.55612
702.525	966.53658
702.718	975.01255
702.912	889.96504
703.106	973.45013
703.3	946.5055
703.494	935.92246
703.687	984.59561
703.881	984.78836
704.075	961.94026
704.269	1016.10476
704.462	937.23878
704.656	1014.00689
704.85	948.72959
705.043	972.10182
705.237	997.49015
705.431	988.78931
705.624	1004.44828
705.818	992.64542
706.012	982.15774
706.205	990.26312
706.399	923.87486
706.592	965.0563
706.786	1044.01382
706.979	969.80746
707.173	964.40127
707.366	964.80866
707.56	989.77957
707.753	992.27797
707.947	905.6147
708.14	919.84771
708.333	978.94424
708.527	993.28616
708.72	972.06768
708.914	983.15476
709.107	872.96733
709.3	929.26765
709.494	999.95995
709.687	926.52035
709.88	993.91599
710.073	901.80124
710.267	976.31071
710.46	968.64623
710.653	932.98354
710.846	964.3259
711.04	973.71066
711.233	958.09849
711.426	867.0877
711.619	943.91708
711.812	948.43026
712.005	961.38576
712.198	985.72547
712.391	915.07828
712.585	954.69994
712.778	930.57709
712.971	942.85494
713.164	1007.02355
713.357	954.94561
713.55	988.90652
713.743	931.36185
713.936	927.36946
714.129	917.8196
714.322	964.63875
714.514	928.67936
714.707	966.01583
714.9	949.95866
715.093	927.51848
715.286	947.16921
715.479	1004.30335
715.672	936.91924
715.864	956.56502
716.057	953.43895
716.25	933.19307
716.443	986.39553
716.636	943.02026
716.828	982.12885
717.021	883.64231
717.214	961.11515
717.406	981.50935
717.599	905.21585
717.792	805.96046
717.984	925.9784
718.177	892.12425
718.37	937.30498
718.562	909.63139
718.755	954.47482
718.947	916.33452
719.14	863.90904
719.333	931.42748
719.525	950.89713
719.718	909.88145
719.91	846.51331
720.103	860.5624
720.295	831.1086
720.487	869.11725
720.68	765.57922
720.872	742.73076
721.065	770.85918
721.257	814.41747
721.449	797.3587
721.642	788.10922
721.834	769.42771
722.026	736.27983
722.219	737.55314
722.411	758.44431
722.603	738.748
722.796	758.29537
722.988	674.39297
723.18	728.17043
723.372	657.67437
723.565	678.07685
723.757	726.35772
723.949	680.78573
724.141	677.7836
724.333	653.24103
724.525	717.29313
724.717	654.20409
724.91	624.08884
725.102	682.98693
725.294	637.03727
725.486	632.06131
725.678	612.5131
725.87	661.82235
726.062	586.05003
726.254	600.04372
726.446	528.2148
726.638	608.36161
726.83	572.78682
727.022	574.67095
727.213	643.28663
727.405	631.85437
727.597	600.00586
727.789	603.03414
727.981	561.60994
728.173	578.77908
728.365	625.08144
728.556	625.62809
728.748	581.7708
728.94	619.98342
729.132	599.98392
729.324	599.31554
729.515	605.23367
729.707	602.02289
729.899	569.63093
730.09	560.25798
730.282	573.03746
730.474	580.78129
730.665	619.68623
730.857	623.88483
731.049	647.8056
731.24	630.6567
731.432	625.39988
731.623	615.91254
731.815	561.69176
732.006	574.16613
732.198	574.95944
732.389	613.75221
732.581	632.98334
732.772	611.21295
732.964	551.80227
733.155	626.0965
733.347	532.60886
733.538	590.71316
733.729	577.44699
733.921	593.8397
734.112	595.42321
734.304	596.81425
734.495	558.79741
734.686	589.41304
734.877	570.61377
735.069	577.31291
735.26	584.19806
735.451	574.35528
735.643	628.65058
735.834	583.23969
736.025	618.31009
736.216	609.7948
736.407	590.67014
736.599	638.2118
736.79	628.74216
736.981	556.62108
737.172	586.51929
737.363	615.08132
737.554	611.58468
737.745	672.38588
737.936	629.20855
738.127	689.71456
738.318	731.06355
738.509	706.15228
738.7	696.79143
738.891	635.49587
739.082	632.24568
739.273	632.74056
739.464	691.24601
739.655	676.65555
739.846	675.17952
740.037	709.48947
740.228	630.49654
740.419	699.19975
740.609	633.72139
740.8	668.45267
740.991	695.16175
741.182	642.08683
741.373	694.84009
741.563	744.17806
741.754	671.07663
741.945	630.8954
742.136	674.64256
742.326	690.04596
742.517	700.90246
742.708	727.41205
742.898	671.67001
743.089	731.87229
743.28	708.64683
743.47	670.53452
743.661	708.596
743.851	707.02447
744.042	721.70756
744.233	660.26293
744.423	723.84678
744.614	758.17353
744.804	746.86396
744.995	630.63381
745.185	778.13587
745.376	777.63315
745.566	742.9698
745.756	761.79528
745.947	689.82271
746.137	737.60656
746.328	722.55028
746.518	704.0463
746.708	687.30591
746.899	713.80136
747.089	716.21031
747.279	701.85425
747.47	720.02755
747.66	739.66452
747.85	721.92731
748.04	792.42521
748.231	701.8291
748.421	664.36925
748.611	736.35892
748.801	715.85341
748.991	693.18171
749.182	704.83402
749.372	718.05534
749.562	720.18826
749.752	716.31899
749.942	691.48388
750.132	747.37632
750.322	669.64753
750.512	765.65441
750.702	710.54192
750.892	727.56846
751.082	766.78377
751.272	757.71291
751.462	803.12505
751.652	693.05731
751.842	760.66507
752.032	726.77935
752.222	737.02055
752.412	796.20722
752.602	792.79239
752.792	684.65155
752.981	682.07539
753.171	725.92065
753.361	739.59968
753.551	731.58507
753.741	690.31958
753.93	731.40048
754.12	743.36951
754.31	714.7244
754.5	715.26186
754.689	734.20762
754.879	710.92849
755.069	709.72397
755.258	744.7395
755.448	667.68069
755.638	735.26607
755.827	706.15228
756.017	695.18827
756.206	707.92572
756.396	718.10041
756.586	663.07461
756.775	648.34592
756.965	677.75921
757.154	712.09057
757.344	690.39434
757.533	676.40704
757.723	652.76673
757.912	764.58
758.101	655.02437
758.291	691.89869
758.48	629.57368
758.67	745.00799
758.859	707.33291
759.048	707.06318
759.238	624.38812
759.427	603.16448
759.616	711.10726
759.806	669.94673
759.995	702.25755
760.184	732.06135
760.373	624.78684
760.563	651.49645
760.752	626.99777
760.941	594.90305
761.13	626.18741
761.319	610.23959
761.509	617.33861
761.698	568.62703
761.887	583.79396
762.076	568.24837
762.265	582.37019
762.454	561.73701
762.643	552.44756
762.832	560.82969
763.021	529.71009
763.21	576.65552
763.399	531.83073
763.588	545.64524
763.777	502.30527
763.966	459.17408
764.155	490.6904
764.344	530.91638
764.533	429.2345
764.722	431.01353
764.911	432.28691
765.1	451.13915
765.288	442.45242
765.477	424.86724
765.666	362.46116
765.855	376.79492
766.044	374.03814
766.232	362.8379
766.421	373.25795
766.61	412.35002
766.799	356.87973
766.987	340.94382
767.176	394.70953
767.365	379.90712
767.553	361.76364
767.742	392.16636
767.931	390.27699
768.119	399.48155
768.308	341.80538
768.497	340.56215
768.685	361.16086
768.874	298.90215
769.062	327.52889
769.251	353.49291
769.439	364.55221
769.628	344.15307
769.816	350.44375
770.005	330.06598
770.193	310.40467
770.382	330.47129
770.57	308.27547
770.758	389.05915
770.947	376.54768
771.135	382.88108
771.323	390.89533
771.512	390.95359
771.7	449.26489
771.888	341.19555
772.077	406.64186
772.265	449.91003
772.453	442.9415
772.642	482.03974
772.83	457.00604
773.018	433.83872
773.206	430.44554
773.394	404.86672
773.583	480.62838
773.771	495.8788
773.959	484.29694
774.147	496.14892
774.335	528.34974
774.523	437.49565
774.711	556.70275
774.899	466.36435
775.087	468.48295
775.275	488.48828
775.463	504.06288
775.651	548.49781
775.839	522.6576
776.027	520.20543
776.215	566.28704
776.403	520.4746
776.591	451.78801
776.779	509.83507
776.967	539.9866
777.155	582.04676
777.343	556.17351
777.531	529.49697
777.718	555.77764
777.906	526.12586
778.094	579.61971
778.282	547.48961
778.47	566.28704
778.657	533.52278
778.845	587.1872
779.033	543.21452
779.22	523.62862
779.408	547.36954
779.596	569.65172
779.783	537.66931
779.971	533.60531
780.159	565.0556
780.346	518.46595
780.534	573.436
780.722	541.61026
780.909	546.20142
781.097	536.14201
781.284	556.06435
781.472	498.1494
781.659	532.93946
781.847	557.52558
782.034	517.41367
782.222	531.57827
782.409	516.60774
782.597	521.88861
782.784	566.14252
782.971	547.8594
783.159	571.17713
783.346	537.39367
783.533	496.47685
783.721	515.76378
783.908	512.8824
784.095	507.57787
784.283	538.95653
784.47	494.45653
784.657	511.28773
784.844	518.95032
785.032	504.21091
785.219	468.24218
785.406	535.56895
785.593	538.60077
785.78	596.39998
785.968	466.33
786.155	513.41015
786.342	530.45065
786.529	505.87498
786.716	487.16695
786.903	493.21842
787.09	510.51447
787.277	545.40914
787.464	520.09038
787.651	542.54045
787.838	510.30512
788.025	463.733
788.212	471.43555
788.399	460.99564
788.586	477.29766
788.773	501.19456
788.96	517.69859
789.147	504.30359
789.334	461.08089
789.521	500.28714
789.707	503.97539
789.894	514.65327
790.081	446.78873
790.268	435.67502
790.455	482.91956
790.641	476.11746
790.828	498.64236
791.015	506.69165
791.202	489.62789
791.388	452.15102
791.575	511.71698
791.762	476.60833
791.948	453.48163
792.135	454.25759
792.322	434.72367
792.508	463.68205
792.695	497.41484
792.881	483.70462
793.068	487.45722
793.254	461.59484
793.441	414.39303
793.627	465.76966
793.814	431.77477
794	400.86207
794.187	387.14978
794.373	492.83801
794.56	447.97271
794.746	385.9081
794.933	407.72552
795.119	423.22245
795.305	423.83363
795.492	491.74308
795.678	425.13365
795.864	423.69326
796.051	407.10638
796.237	394.85387
796.423	407.69515
796.61	438.94926
796.796	508.53571
796.982	422.9872
797.168	418.42831
797.355	414.31598
797.541	409.74001
797.727	421.92148
797.913	500.65838
798.099	452.99527
798.285	417.82716
798.471	437.56038
798.658	397.92793
798.844	411.73773
799.03	361.80409
799.216	380.21671
799.402	402.67163
799.588	404.95639
799.774	437.80376
799.96	448.46643
800.146	396.72858
800.332	419.82047
800.518	429.48736
800.704	476.64354
800.89	407.37734
801.075	387.27889
801.261	375.58717
801.447	401.93096
801.633	386.23695
801.819	387.35075
802.005	418.90972
802.19	383.9522
802.376	380.55431
802.562	435.88608
802.748	487.52148
802.934	439.06352
803.119	405.86131
803.305	370.55689
803.491	472.12808
803.676	413.61874
803.862	438.08081
804.048	424.44597
804.233	416.11111
804.419	398.96159
804.605	431.39859
804.79	405.66398
804.976	441.70176
805.161	415.13686
805.347	355.02109
805.532	435.90235
805.718	399.46677
805.903	416.38827
806.089	410.44317
806.274	383.42425
806.46	380.66734
806.645	423.03417
806.831	393.18227
807.016	425.49607
807.201	365.85573
807.387	352.94919
807.572	375.80698
807.757	423.7117
807.943	402.08043
808.128	403.93336
808.313	438.54297
808.499	419.64935
808.684	362.7839
808.869	409.9228
809.054	473.7129
809.24	365.01282
809.425	390.98274
809.61	428.83546
809.795	439.17801
809.98	441.2899
810.165	461.14917
810.35	411.8444
810.536	444.51353
810.721	401.63326
810.906	325.6442
811.091	408.64186
811.276	384.23794
811.461	325.69253
811.646	402.38059
811.831	412.22702
812.016	384.45327
812.201	441.37514
812.386	394.54691
812.571	390.27699
812.756	357.55775
812.941	323.54689
813.125	406.551
813.31	334.83405
813.495	402.03554
813.68	403.52549
813.865	384.25226
814.05	364.36062
814.234	399.18569
814.419	352.24235
814.604	359.74876
814.789	366.31815
814.973	369.41528
815.158	358.67347
815.343	374.52772
815.528	375.33436
815.712	365.95058
815.897	389.83919
816.081	337.15243
816.266	356.74996
816.451	301.73161
816.635	355.16677
816.82	335.08416
817.004	339.84114
817.189	288.04403
817.374	324.71041
817.558	300.16323
817.743	296.36593
817.927	359.92402
818.111	281.33964
818.296	288.39121
818.48	255.22421
818.665	274.77845
818.849	297.60947
819.034	281.13956
819.218	243.57803
819.402	286.46885
819.587	284.56406
819.771	315.86885
819.955	294.16163
820.14	266.35005
820.324	255.78978
820.508	290.21325
820.692	243.21052
820.877	263.51357
821.061	266.9793
821.245	242.57771
821.429	214.02109
821.613	279.27251
821.798	268.39255
821.982	237.78807
822.166	241.28293
822.35	249.05527
822.534	183.80713
822.718	268.98384
822.902	244.45766
823.086	260.19735
823.27	289.18297
823.454	195.27272
823.638	293.17611
823.822	232.46366
824.006	209.74242
824.19	243.64276
824.374	223.27457
824.558	261.65252
824.742	213.19156
824.926	261.0804
825.11	267.15097
825.294	227.72898
825.477	207.4314
825.661	224.58216
825.845	245.06192
826.029	189.84672
826.213	295.20237
826.396	250.58344
826.58	235.53139
826.764	214.19047
826.948	230.03826
827.131	251.95837
827.315	223.28302
827.499	249.44332
827.682	231.23724
827.866	222.45875
828.05	199.52331
828.233	264.78172
828.417	236.73127
828.6	224.03993
828.784	268.12839
828.967	321.80923
829.151	255.7415
829.335	220.01406
829.518	243.49498
829.701	246.88191
829.885	193.87255
830.068	278.38552
830.252	155.7953
830.435	226.83275
830.619	258.95186
830.802	235.64719
830.985	218.66958
831.169	217.66506
831.352	223.41013
831.535	196.41636
831.719	216.53653
831.902	253.59932
832.085	234.49172
832.269	230.44839
832.452	284.25069
832.635	229.08334
832.818	168.17127
833.002	232.19931
833.185	197.02448
833.368	226.48934
833.551	305.4541
833.734	220.94225
833.917	259.34335
834.1	258.97133
834.284	259.32367
834.467	208.74081
834.65	217.50063
834.833	257.09379
835.016	253.42705
835.199	225.38699
835.382	234.53612
835.565	232.33121
835.748	199.66659
835.931	231.45743
836.114	208.65379
836.297	222.26396
836.479	228.87479
836.662	220.65153
836.845	203.99456
837.028	271.79337
837.211	242.34776
837.394	284.23987
837.577	270.95228
837.759	270.55013
837.942	203.95616
838.125	169.18369
838.308	212.06298
838.49	211.78302
838.673	248.07653
838.856	241.16431
839.039	259.43203
839.221	240.15391
839.404	265.02259
839.587	288.32588
839.769	274.01235
839.952	252.34637
840.134	247.78633
840.317	258.26269
840.499	221.10962
840.682	202.47276
840.865	207.4314
841.047	235.79925
841.23	282.1936
841.412	231.17586
841.595	276.62057
841.777	235.64719
841.959	220.29953
842.142	246.88191
842.324	266.61839
842.507	226.34452
842.689	251.36035
842.871	290.98117
843.054	237.41311
843.236	231.99811
843.418	235.40714
843.601	225.70316
843.783	251.28434
843.965	190.34862
844.147	240.10846
844.33	280.23261
844.512	310.71954
844.694	243.59651
844.876	209.8139
845.059	236.62399
845.241	284.58536
845.423	237.87799
845.605	234.27948
845.787	256.76364
845.969	308.3681
846.151	238.67376
846.333	239.07023
846.515	253.50351
846.697	266.66831
846.879	272.38794
847.061	213.38613
847.243	178.17206
847.425	262.48417
847.607	240.19031
847.789	197.34317
847.971	266.09204
848.153	235.37173
848.335	269.26753
848.517	177.36757
848.699	170.44566
848.881	226.51496
849.062	218.90158
849.244	275.1321
849.426	251.23691
849.608	195.3619
849.789	231.0709
849.971	264.61205
850.153	280.05419
850.335	230.34472
850.516	256.80233
850.698	273.19441
850.88	230.31834
851.061	215.46519
851.243	170.29119
851.425	255.87686
851.606	214.51581
851.788	257.97932
851.969	251.39842
852.151	235.80822
852.333	206.12517
852.514	205.42489
852.696	265.37217
852.877	170.52975
853.059	232.45481
853.24	271.0669
853.422	232.86373
853.603	187.09
853.784	200.5525
853.966	294.28447
854.147	210.93444
854.329	196.56611
854.51	221.88637
854.691	233.36305
854.873	214.11776
855.054	187.44419
855.235	255.35758
855.416	235.5225
855.598	236.41047
855.779	189.55074
855.96	222.39086
856.141	150.26247
856.323	219.71468
856.504	215.31031
856.685	150.16569
856.866	219.84737
857.047	246.78857
857.228	225.81501
857.409	260.43355
857.591	189.48621
857.772	208.42561
857.953	208.56703
858.134	223.31687
858.315	197.44774
858.496	171.59938
858.677	186.13878
858.858	196.35669
859.039	188.55152
859.22	174.95675
859.401	206.46768
859.582	234.52723
859.762	241.56748
859.943	197.33571
860.124	225.61739
860.305	208.64589
860.486	199.74989
860.667	188.30175
860.848	243.80048
861.028	127.799
861.209	185.0882
861.39	203.02822
861.571	208.66169
861.751	213.04646
861.932	216.39744
862.113	207.63571
862.293	213.27247
862.474	224.10719
862.655	246.84454
862.835	207.54123
863.016	212.15958
863.197	205.49528
863.377	254.86358
863.558	215.62909
863.738	202.09947
863.919	220.95894
864.099	227.42899
864.28	158.17569
864.46	174.56865
864.641	212.05494
864.821	171.6972
865.002	178.43538
865.182	198.56101
865.363	184.00198
865.543	166.09289
865.723	164.85149
865.904	243.74473
866.084	193.88716
866.264	218.69435
866.445	185.10224
866.625	222.17965
866.805	202.73008
866.986	145.56468
867.166	163.76724
867.346	212.82218
867.526	230.143
867.707	203.20554
867.887	200.68095
868.067	209.89352
868.247	181.84215
868.427	174.97002
868.607	247.93593
868.788	192.93491
868.968	257.28944
869.148	207.36102
869.328	176.94529
869.508	155.90759
869.688	160.34075
869.868	199.75747
870.048	184.09296
870.228	196.41636
870.408	193.11827
870.588	112.21377
870.768	191.93791
870.948	180.63087
871.128	125.52957
871.307	211.2721
871.487	189.45758
871.667	169.1391
871.847	165.94155
872.027	158.28424
872.207	184.14208
872.387	156.08011
872.566	172.81921
872.746	177.16558
872.926	207.69096
873.106	146.85719
873.285	178.43538
873.465	204.30364
873.645	144.69585
873.824	135.73981
874.004	160.71462
874.184	182.03679
874.363	157.14931
874.543	225.74613
874.723	168.58871
874.902	206.53825
875.082	175.1632
875.261	128.9905
875.441	213.15118
875.62	150.34251
875.8	151.60404
875.979	140.17322
876.159	196.36415
876.338	179.70788
876.518	182.76283
876.697	185.09522
876.876	201.10832
877.056	173.81574
877.235	95.13128
877.415	148.22742
877.594	157.07144
877.773	131.22197
877.953	151.40748
878.132	210.02138
878.311	190.91816
878.49	129.12884
878.67	115.27142
878.849	176.15148
879.028	222.61206
879.207	128.91682
879.387	186.2729
879.566	234.67858
879.745	159.39495
879.924	125.53912
880.103	104.25995
880.282	141.60435
880.461	202.21516
880.64	182.10667
880.819	148.12544
880.998	193.14036
881.178	168.35018
881.357	202.14569
881.536	186.45756
881.715	122.17084
881.893	114.57326
882.072	169.34366
882.251	154.72675
882.43	145.91297
882.609	203.68915
882.788	159.24336
882.967	186.47895
883.146	167.36849
883.325	179.88717
883.503	142.26706
883.682	108.70635
883.861	167.15789
884.04	211.16717
884.219	159.18904
884.397	167.27891
884.576	155.60166
884.755	115.48154
884.933	141.45754
885.112	179.73538
885.291	204.41262
885.469	178.29324
885.648	214.87783
885.827	178.54423
886.005	177.37433
886.184	156.11597
886.363	161.76414
886.541	146.0922
886.72	112.11501
886.898	134.69777
887.077	212.34563
887.255	204.35808
887.434	142.61401
887.612	170.67275
887.791	211.49937
887.969	168.42084
888.147	171.75609
888.326	141.57708
888.504	125.60127
888.682	139.21003
888.861	132.52244
889.039	153.8747
889.218	131.17701
889.396	169.62139
889.574	155.93724
889.752	144.82294
889.931	127.85255
890.109	140.32306
890.287	174.08722
890.465	170.56218
890.643	169.69948
890.822	160.38333
891	156.99386
891.178	169.03115
891.356	174.20068
891.534	218.18898
891.712	157.25757
891.89	176.1314
892.068	107.59518
892.247	147.05306
892.425	109.8675
892.603	175.27716
892.781	138.05978
892.959	159.44978
893.137	124.40221
893.314	211.35307
893.492	183.09678
893.67	166.27071
893.848	188.13893
894.026	127.76501
894.204	158.3266
894.382	148.1424
894.56	135.90625
894.738	108.79361
894.915	120.26149
895.093	139.06658
895.271	152.5412
895.449	152.60509
895.626	165.87878
895.804	121.06642
895.982	106.41478
896.16	150.41711
896.337	101.96874
896.515	113.34279
896.693	124.57799
896.87	89.61174
897.048	143.77653
897.225	129.12388
897.403	96.29806
897.581	125.66846
897.758	137.87053
897.936	90.74296
898.113	143.62799
898.291	165.25515
898.468	115.51683
898.646	123.34059
898.823	115.32369
899.001	148.10849
899.178	158.33872
899.356	130.12369
899.533	95.28375
899.71	118.95201
899.888	165.2043
900.065	152.51223
900.242	186.82362
900.42	64.84188
900.597	131.39285
900.774	107.5542
900.952	96.58689
901.129	86.32465
901.306	75.01803
901.483	112.19655
901.661	123.57251
901.838	118.94745
902.015	131.35754
902.192	107.60339
902.369	54.78832
902.546	143.80416
902.723	71.66412
902.901	140.33918
903.078	81.7562
903.255	114.48944
903.432	61.48371
903.609	107.60339
903.786	109.93478
903.963	39.03192
904.14	99.69074
904.317	80.67777
904.494	115.63206
904.671	69.41527
904.848	85.16963
905.024	32.25761
905.201	93.07715
905.378	87.56846
905.555	123.39238
905.732	99.78599
905.909	57.00644
906.086	105.22776
906.262	84.0929
906.439	79.50343
906.616	54.75668
906.793	103.23474
906.969	32.27765
907.146	14.17355
907.323	37.85429
907.5	130.42922
907.676	81.84104
907.853	89.70109
908.03	76.21357
908.206	54.75879
908.383	76.20769
908.559	88.54164
908.736	79.6382
908.912	170.82974
909.089	148.35274
909.266	65.94401
909.442	82.95421
909.619	62.69567
909.795	129.24827
909.972	81.82843
910.148	88.51789
910.324	96.54579
910.501	69.44468
910.677	78.45083
910.854	84.21011
911.03	69.36202
911.206	86.35457
911.383	117.71956
911.559	97.73252
911.735	86.26173
911.912	78.43875
912.088	32.20913
912.264	95.24365
912.44	62.55157
912.617	44.6225
912.793	51.4002
912.969	98.62365
913.145	77.34276
913.321	31.10201
913.498	87.39313
913.674	38.95231
913.85	27.72412
914.026	91.88837
914.202	127.91116
914.378	72.82625
914.554	113.44319
914.73	85.18598
914.906	86.27164
915.082	121.27979
915.258	87.43001
915.434	152.88026
915.61	31.10081
915.786	55.96689
915.962	88.64739
916.138	73.96387
916.314	66.08339
916.49	78.54185
916.665	64.91654
916.841	75.11922
917.017	53.65542
917.193	73.91831
917.369	76.22239
917.545	88.53824
917.72	86.3779
917.896	78.40259
918.072	79.56143
918.247	50.24261
918.423	55.89773
918.599	60.43275
918.775	84.08319
918.95	73.95816
919.126	90.86846
919.301	102.06241
919.477	78.38456
919.653	84.1905
919.828	54.77776
920.004	126.74867
920.179	54.72727
920.355	-1.58672
920.53	70.50589
920.706	11.92903
920.881	90.88599
921.057	34.46018
921.232	68.25794
921.408	73.90411
921.583	54.76721
921.759	37.84847
921.934	46.91874
922.109	46.8609
922.285	89.79109
922.46	61.56177
922.635	85.33091
922.811	69.42863
922.986	16.44842
923.161	63.81501
923.336	71.67239
923.512	144.64084
923.687	69.49838
923.862	36.75899
924.037	61.50729
924.212	26.57233
924.388	78.54185
924.563	85.10767
924.738	19.80277
924.913	52.57759
925.088	94.16626
925.263	94.22778
925.438	35.64256
925.613	97.55922
925.788	64.97923
925.963	76.22533
926.138	87.53455
926.313	78.40259
926.488	69.45004
926.663	91.96245
926.838	47.9538
927.013	67.19973
927.188	55.95387
927.363	64.88162
927.538	73.92968
927.713	46.94603
927.888	42.37441
928.062	46.8609
928.237	84.06055
928.412	45.78777
928.587	52.5086
928.761	67.13254
928.936	60.47953
929.111	88.60635
929.286	77.37264
929.46	66.0528
929.635	33.39846
929.81	23.22744
929.984	46.96428
930.159	35.60816
930.334	57.07683
930.508	28.87701
930.683	79.62588
930.857	48.0257
931.032	89.82587
931.206	46.8699
931.381	9.67883
931.556	42.41865
931.73	67.11196
931.904	11.9498
932.079	15.2967
932.253	53.59978
932.428	-17.38229
932.602	71.69447
932.777	-15.13021
932.951	69.48762
933.125	61.49549
933.3	64.89657
933.474	59.34507
933.648	36.7718
933.823	35.61777
933.997	83.04397
934.171	46.87892
934.345	62.70536
934.52	75.1921
934.694	51.38634
934.868	33.39976
935.042	25.51309
935.217	60.47249
935.391	59.38426
935.565	9.68144
935.739	54.82008
935.913	44.62937
936.087	42.37768
936.261	37.91579
936.435	9.67995
936.609	-10.62755
936.783	-12.87477
936.957	-47.82943
937.131	5.16532
937.305	40.09478
937.479	27.75958
937.653	-18.52302
937.827	0.65822
938.001	27.76066
938.175	24.34601
938.349	-26.44526
938.523	41.29079
938.697	5.1713
938.87	-1.59915
939.044	10.82048
939.218	-24.15195
939.392	42.33374
939.566	20.99253
939.739	-2.7259
939.913	33.41015
940.087	-10.62426
940.261	-11.76139
940.434	39.02285
940.608	41.24614
940.782	-10.62714
940.955	1.78593
941.129	33.37389
941.302	17.56716
941.476	-2.72769
941.65	18.72522
941.823	8.56096
941.997	58.15467
942.17	8.55466
942.344	8.56329
942.517	-30.8921
942.691	34.50936
942.864	30.01332
943.038	6.29849
943.211	37.90402
943.385	0.65824
943.558	8.55037
943.731	-21.81484
943.905	2.91293
944.078	2.91237
944.251	32.24513
944.425	54.85411
944.598	-0.47011
944.771	-6.11842
944.945	-43.38615
945.118	-7.23549
945.291	-48.98067
945.464	17.58958
945.638	22.11313
945.811	63.83473
945.984	16.43575
946.157	-23.0229
946.33	-35.4483
946.503	7.42844
946.677	-16.28346
946.85	17.58276
947.023	40.11019
947.196	43.52624
947.369	28.87925
947.542	8.5593
947.715	-8.35267
947.888	-18.51657
948.061	-1.59741
948.234	-11.74683
948.407	37.87471
948.58	36.7875
948.753	-13.99521
948.926	-24.15008
949.099	15.32852
949.271	26.61539
949.444	37.84993
949.617	2.91643
949.79	24.38574
949.963	23.23374
950.136	-4.98046
950.308	-16.26515
950.481	14.21246
950.654	26.60612
950.827	54.82645
950.999	78.57541
951.172	10.80708
951.345	60.42343
951.517	14.18607
951.69	6.31099
951.863	18.7042
952.035	0.65789
952.208	-32.05525
952.381	59.35888
952.553	-0.47027
952.726	27.72519
952.898	15.33685
953.071	-23.01935
953.243	33.35714
953.416	32.30914
953.588	5.16156
953.761	-11.76918
953.933	-21.90751
954.106	5.1723
954.278	-11.7315
954.45	16.46179
954.623	-48.95044
954.795	10.82174
954.967	-0.47064
955.14	-3.85811
955.312	8.55334
955.484	55.94521
955.657	4.04702
955.829	44.64831
956.001	-47.88683
956.173	6.30019
956.346	20.97784
956.518	5.17915
956.69	17.61495
956.862	0.65837
957.034	-19.65399
957.207	-12.87229
957.379	-16.26892
957.551	2.91711
957.723	19.81568
957.895	46.93328
958.067	-12.88423
958.239	-10.62632
958.411	22.09855
958.583	36.72641
958.755	5.1697
958.927	-42.27573
959.099	-21.90412
959.271	15.30784
959.443	7.44496
959.615	11.94378
959.787	14.17844
959.959	10.81293
960.13	5.1713
960.302	4.04718
960.474	14.19044
960.646	-14.02121
960.818	34.52408
960.99	2.91349
961.161	26.63504
961.333	33.35586
961.505	11.94795
961.677	-2.72306
961.848	-10.63002
962.02	20.98273
962.192	17.60806
962.363	-29.80839
962.535	26.55503
962.707	6.30607
962.878	-32.09881
963.05	-3.85586
963.221	-19.6639
963.393	1.78497
963.564	29.94509
963.736	45.75773
963.907	24.37244
964.079	-46.7715
964.25	9.68369
964.422	7.40992
964.593	15.34342
964.765	25.47746
964.936	22.0866
965.108	41.29079
965.279	58.17036
965.45	-16.26389
965.622	-0.47025
965.793	42.44007
965.964	-8.37135
966.136	-2.72864
966.307	31.17696
966.478	-46.73883
966.65	14.21412
966.821	-51.24491
966.992	42.41865
967.163	33.361
967.334	10.82048
967.506	25.48633
967.677	8.5593
967.848	49.14877
968.019	-53.58485
968.19	50.38097
968.361	28.88598
968.532	32.24513
968.703	14.19537
968.874	-61.35604
969.045	-6.10823
969.216	53.69898
969.387	40.19099
969.558	35.62602
969.729	-9.49254
969.9	18.70854
970.071	27.73055
970.242	31.15386
970.413	-4.98451
970.584	1.78683
970.755	17.58344
970.926	20.96727
971.097	9.67622
971.267	-15.13781
971.438	24.37529
971.609	7.42214
971.78	2.90969
971.951	31.16722
972.121	23.23014
972.292	-29.78193
972.463	2.91025
972.633	14.19922
972.804	59.30378
972.975	49.18107
973.145	-14.01359
973.316	52.56333
973.487	64.93155
973.657	23.22654
973.828	-4.98683
973.998	-6.1139
974.169	27.74128
974.339	7.42902
974.51	20.96079
974.68	37.8412
974.851	-19.66696
975.021	-9.4962
975.192	55.89988
975.362	68.27628
975.533	8.56562
975.703	52.55113
975.874	-25.26264
976.044	-8.3772
976.214	-0.47058
976.385	27.71344
976.555	44.64831
976.725	28.87701
976.896	20.96079
977.066	45.8144
977.236	15.32615
977.406	43.53634
977.577	39.04252
977.747	56.97584
977.917	-27.55053
978.087	-17.39236
978.257	28.8569
978.427	10.80625
978.598	-20.76359
978.768	23.21218
978.938	46.93692
979.108	14.1888
979.278	4.03796
979.448	-28.6584
979.618	-11.76093
979.788	51.42004
979.958	8.55499
980.128	-27.54733
980.298	-32.09382
980.468	33.39976
980.638	10.79877
980.808	-25.31938
980.978	33.34944
981.148	49.16965
981.317	16.45032
981.487	-3.85781
981.657	24.3905
981.827	-35.48409
981.997	-9.51098
982.167	-8.36908
982.336	49.22309
982.506	29.99355
982.676	22.07893
982.846	-8.35811
983.015	-24.16221
983.185	-32.08633
983.355	17.55637
983.524	35.60131
983.694	20.98191
983.864	-17.39707
984.033	30.02149
984.203	14.21024
984.372	-25.31839
984.542	20.94384
984.712	-78.41314
984.881	-27.55267
985.051	11.93317
985.22	15.32912
985.39	20.98436
985.559	52.5187
985.728	31.10681
985.898	13.06701
986.067	10.81251
986.237	51.426
986.406	68.2789
986.576	46.93874
986.745	61.64054
986.914	15.33983
987.084	43.5414
987.253	2.91665
987.422	-1.59884
987.591	-21.91345
987.761	34.51604
987.93	50.32804
988.099	48.06287
988.268	7.41871
988.438	17.56311
988.607	6.30926
988.776	22.07299
988.945	-3.85691
989.114	-16.27145
989.283	6.30459
989.452	-0.46953
989.621	1.78469
989.791	-34.30075
989.96	23.23645
990.129	6.29436
990.298	-7.24136
990.467	-0.47024
990.636	0.6587
990.805	-14.01849
990.974	55.92143
991.142	13.08375
991.311	59.26268
991.48	-6.10659
991.649	-6.11106
991.818	42.40551
991.987	16.45924
992.156	-7.24671
992.325	-4.98509
992.493	-9.49878
992.662	39.70148
992.831	14.19154
993	14.17735
993.168	23.22384
993.337	39.05163
993.506	59.28092
993.675	-28.68055
993.843	32.22027
994.012	-7.24558
994.181	-2.71963
994.349	57.07904
994.518	40.17849
994.686	-14.00817
994.855	19.80277
995.024	-11.75774
995.192	77.35172
995.361	24.34413
995.529	1.78669
995.698	17.59367
995.866	-55.80151
996.035	59.32899
996.203	32.26387
996.371	58.12784
996.54	52.57759
996.708	-29.74312
996.877	8.5593
997.045	37.92906
997.213	28.9006
997.382	-3.85066
997.55	-17.37828
997.718	-24.12042
997.887	39.02285
998.055	-22.99198
998.223	2.91722
998.391	34.51471
998.56	-28.6861
998.728	37.87179
998.896	7.42528
999.064	8.55103
999.232	-64.65297
999.401	-15.11625
999.569	31.11883
999.737	4.04545
999.905	-0.47027
1000.073	9.68856
1000.241	-39.99574
1000.409	39.02587
1000.577	66.01977
1000.745	31.14659
1000.913	93.13811
1001.081	1.78579
1001.249	-15.14074
1001.417	4.03904
1001.585	-1.60095
1001.753	34.5107
1001.921	-2.72928
1002.089	9.68931
1002.256	16.44271
1002.424	33.37905
1002.592	76.27547
1002.76	4.04169
1002.928	0.65868
1003.096	36.79894
1003.263	-2.72558
1003.431	17.59436
1003.599	53.71148
1003.767	10.80542
1003.934	-10.62673
1004.102	0.65832
1004.27	22.09171
1004.437	13.05694
1004.605	20.98926
1004.773	-17.3736
1004.94	13.06752
1005.108	32.25511
1005.275	1.78801
1005.443	9.69383
1005.61	53.68236
1005.778	26.64542
1005.945	20.97703
1006.113	9.69346
1006.28	33.37002
1006.448	-3.85661
1006.615	-21.91515
1006.783	-15.13781
1006.95	20.97133
1007.118	-16.27145
1007.285	-11.7623
1007.452	39.03192
1007.62	6.298
1007.787	-6.11201
1007.954	31.16236
1008.122	10.78762
1008.289	-51.2093
1008.456	10.8167
1008.623	24.36392
1008.791	-15.14015
1008.958	25.46664
1009.125	-11.76413
1009.292	13.06853
1009.459	-18.51229
1009.627	-3.86142
1009.794	9.68032
1009.961	6.29242
1010.128	45.8322
1010.295	-41.0971
1010.462	93.19574
1010.629	-1.59853
1010.796	7.43363
1010.963	25.50018
1011.13	2.91496
1011.297	4.0406
1011.464	28.8871
1011.631	8.54642
1011.798	-89.52873
1011.965	10.81209
1012.132	9.68593
1012.299	-8.36908
1012.466	-16.26012
1012.633	-28.70505
1012.799	52.63078
1012.966	-21.89651
1013.133	1.79003
1013.3	-55.78201
1013.467	29.97156
1013.633	21.00565
1013.8	44.66039
1013.967	48.07593
1014.134	2.9108
1014.3	-11.75865
1014.467	18.71288
1014.634	41.26045
1014.8	-14.02012
1014.967	4.03796
1015.134	13.06903
1015.3	20.97215
1015.467	11.93501
1015.633	44.67077
1015.8	44.64314
1015.966	36.84931
1016.133	32.22523
1016.3	32.19185
1016.466	16.46371
1016.632	17.55974
1016.799	-14.01577
1016.965	49.19441
1017.132	11.92949
1017.298	51.40218
1017.465	40.13493
1017.631	-18.50018
1017.797	-38.83855
1017.964	-28.66614
1018.13	44.58995
1018.296	22.08234
1018.463	11.94378
1018.629	-26.42884
1018.795	11.94193
1018.961	27.73269
1019.128	-26.4186
1019.294	-11.75591
1019.46	5.1727
1019.626	11.93317
1019.792	1.78773
1019.959	-18.51229
1020.125	-34.32063
1020.291	28.85133
1020.457	-8.3746
1020.623	24.33943
1020.789	-2.72801
1020.955	11.93962
1021.121	-3.85691
1021.287	-9.48377
1021.453	16.46179
1021.619	-15.14367
1021.785	13.07511
1021.951	39.05466
1022.117	18.72377
1022.283	18.68908
1022.449	25.47647
1022.615	49.16965
1022.781	26.56418
1022.946	-14.0033
1023.112	-20.78446
1023.278	69.35141
1023.444	-19.66313
1023.61	-36.59435
1023.775	-58.03738
1023.941	-39.98486
1024.107	9.70178
1024.273	-19.66084
1024.438	-6.11937
1024.604	-46.73159
1024.77	69.09496
1024.935	-3.85378
1025.101	-24.19696
1025.267	-9.49584
1025.432	0.65822
1025.598	19.87336
1025.763	-16.27903
1025.929	14.21135
1026.095	-30.92064
1026.26	22.10884
1026.426	23.24367
1026.591	22.10198
1026.757	24.32818
1026.922	-21.90328
1027.087	14.20307
1027.253	-17.40517
1027.418	23.22294
1027.584	37.83685
1027.749	-20.80547
1027.914	26.57743
1028.08	5.17572
1028.245	11.95306
1028.41	27.7284
1028.576	61.62617
1028.741	-25.30167
1028.906	9.67845
1029.072	-2.7297
1029.237	-18.52948
1029.402	32.23144
1029.567	-28.63198
1029.732	8.56596
1029.898	22.11227
1030.063	2.91361
1030.228	58.20408
1030.393	63.82733
1030.558	-4.98239
1030.723	-4.9847
1030.888	30.00052
1031.053	34.54422
1031.218	39.06074
1031.383	-18.51514
1031.548	10.80542
1031.713	26.6475
1031.878	-35.4703
1032.043	-38.87174
1032.208	10.7967
1032.373	-11.77055
1032.538	-1.59637
1032.703	5.1709
1032.868	2.91114
1033.033	-34.36199
1033.198	17.60738
1033.362	32.2764
1033.527	-23.06399
1033.692	-18.52015
1033.857	46.90967
1034.021	39.03192
1034.186	34.53615
1034.351	17.57665
1034.516	49.17155
1034.68	19.82941
1034.845	-9.50136
1035.01	-46.71534
1035.174	19.85014
1035.339	0.65763
1035.504	0.65857
1035.668	71.6421
1035.833	-4.98509
1035.997	2.91995
1036.162	-2.72727
1036.326	-16.2746
1036.491	28.90623
1036.655	11.94378
1036.82	-27.54627
1036.984	-19.63351
1037.149	-9.48669
1037.313	22.08489
1037.478	-0.47
1037.642	-14.0006
1037.807	-7.24558
1037.971	24.35166
1038.135	31.08765
1038.3	-9.49767
1038.464	46.88795
1038.628	-3.85691
1038.792	31.09483
1038.957	27.75096
1039.121	9.67213
1039.285	14.19867
1039.449	26.58663
1039.614	18.70275
1039.778	-1.60039
1039.942	-1.59643
1040.106	-2.72684
1040.27	54.84133
1040.434	2.91349
1040.599	15.33685
1040.763	-16.27523
1040.927	6.29922
1041.091	52.61028
1041.255	33.39198
1041.419	32.24887
1041.583	-16.26075
1041.747	37.87325
1041.911	16.4535
1042.075	-16.26641
1042.239	-34.35529
1042.403	-62.46793
1042.567	29.96003
1042.731	-43.27241
1042.894	13.07968
1043.058	-3.85333
1043.222	43.54309
1043.386	2.91383
1043.55	5.1719
1043.714	5.17511
1043.877	32.26136
1044.041	71.69723
1044.205	32.22896
1044.369	-0.47057
1044.532	27.74128
1044.696	-36.55051
1044.86	-4.98896
1045.023	23.18721
1045.187	0.65761
1045.351	8.55466
1045.514	19.87025
1045.678	10.80043
1045.841	-17.37627
