Data from mildly cloudy_Subt2__9__14-22-20-991.txt Node

Date: Mon Oct 13 14:22:20 EDT 2025
User: brett
Spectrometer: USB4F03499
Trigger mode: 4
Integration Time (sec): 4.400000E-4
Scans to average: 1
Electric dark correction enabled: true
Nonlinearity correction enabled: true
Boxcar width: 0
XAxis mode: Wavelengths
Number of Pixels in Spectrum: 3648
>>>>>Begin Spectral Data<<<<<
345.386	38.29746
345.605	38.29746
345.824	38.29746
346.044	62.0498
346.263	43.92707
346.482	-23.77291
346.701	-19.282
346.92	-30.57022
347.139	14.57851
347.358	-7.99126
347.577	-35.07027
347.796	41.6486
348.015	40.54948
348.234	11.18453
348.453	-5.73402
348.672	-5.73757
348.891	20.22612
349.11	-2.35114
349.329	-36.21888
349.548	6.68557
349.767	15.70261
349.986	-36.22873
350.205	-48.59633
350.424	-10.26236
350.643	46.19892
350.862	2.16549
351.08	15.70078
351.299	-29.42268
351.518	-18.15225
351.737	6.68192
351.956	-13.63664
352.174	-1.222
352.393	58.57925
352.612	-12.50639
352.831	-10.25198
353.049	-19.29024
353.268	66.45063
353.487	-12.5127
353.705	-48.64719
353.924	-14.75179
354.143	33.74808
354.361	-1.22338
354.58	-17.0246
354.798	42.83078
355.017	-51.98725
355.236	52.96734
355.454	20.21515
355.673	32.6358
355.891	-30.56904
356.11	-10.24445
356.328	-4.60896
356.547	-24.92794
356.765	-1.223
356.984	-23.80143
357.202	83.40266
357.42	31.51146
357.639	1.03501
357.857	-17.0213
358.076	-0.09404
358.294	4.41742
358.512	-37.33258
358.731	-42.95568
358.949	-36.19783
359.167	-21.53774
359.386	-35.09202
359.604	-9.11821
359.822	15.70686
360.04	23.59591
360.259	-32.81627
360.477	5.55204
360.695	-11.37426
360.913	-26.04011
361.131	-50.88375
361.35	-22.67471
361.568	-7.99901
361.786	-17.0213
362.004	14.56106
362.222	32.64339
362.44	-48.62077
362.658	45.05844
362.876	-1.22139
363.094	1.03428
363.312	20.21906
363.53	-0.09409
363.749	-38.44689
363.967	-27.17503
364.184	10.06348
364.402	7.80625
364.62	32.62821
364.838	-75.68796
365.056	-5.74025
365.274	-17.01866
365.492	21.33808
365.71	29.25505
365.928	-38.45879
366.146	45.06369
366.364	-53.11023
366.581	-20.41269
366.799	-36.22029
367.017	-39.591
367.235	-7.98787
367.453	23.5868
367.67	30.36681
367.888	40.51651
368.106	48.41394
368.323	-5.73358
368.541	64.19239
368.759	-35.09748
368.977	12.32119
369.194	-26.02003
369.412	4.4241
369.629	21.37206
369.847	-5.73336
370.065	25.8621
370.282	1.03472
370.5	-48.66613
370.717	-20.40399
370.935	-23.80143
371.152	45.05146
371.37	-22.66943
371.588	12.30834
371.805	38.28407
372.022	-10.24802
372.24	31.52002
372.457	-7.9891
372.675	8.93297
372.892	55.21242
373.11	-9.12953
373.327	34.87952
373.544	-11.39105
373.762	-32.81246
373.979	-35.05536
374.196	-0.0941
374.414	37.16902
374.631	1.0344
374.848	40.54633
375.066	-14.75805
375.283	-9.1235
375.5	-14.7609
375.717	-29.43976
375.935	24.74172
376.152	-15.89436
376.369	33.76769
376.586	-15.89312
376.803	-58.76958
377.02	14.58134
377.238	-10.2504
377.455	41.67443
377.672	-13.63294
377.889	27.01633
378.106	4.41998
378.323	50.70547
378.54	-0.09407
378.757	7.79962
378.974	26.98592
379.191	5.54495
379.408	-5.73513
379.625	34.8998
379.842	-10.25596
380.059	25.86109
380.276	14.58814
380.493	6.67596
380.71	14.57569
380.927	34.90251
381.143	-3.47963
381.36	24.74364
381.577	-52.02149
381.794	-22.66943
382.011	16.83061
382.228	-3.47747
382.444	-57.60003
382.661	43.91346
382.878	-5.73913
383.095	-5.73802
383.311	59.71568
383.528	5.54795
383.745	-20.41982
383.962	-2.35105
384.178	-37.31959
384.395	7.80625
384.612	10.07523
384.828	-53.10203
385.045	-35.09748
385.261	-26.05018
385.478	34.912
385.695	17.95372
385.911	-1.22186
386.128	-2.34996
386.344	47.36583
386.561	39.43199
386.777	13.43816
386.994	-21.51611
387.21	-27.16872
387.427	4.41895
387.643	31.52125
387.86	30.34806
388.076	8.93089
388.292	-3.47936
388.509	16.83779
388.725	10.0717
388.942	11.19884
389.158	77.76549
389.374	-4.60771
389.591	-6.86163
389.807	1.03424
390.023	-45.21506
390.239	-22.64142
390.456	-7.99591
390.672	-9.12103
390.888	-2.35178
391.104	4.41947
391.321	-17.01932
391.537	29.2596
391.753	1.03408
391.969	-11.38086
392.185	12.32502
392.401	-11.37206
392.618	-40.71869
392.834	39.39072
393.05	4.42067
393.266	12.32024
393.482	-24.92504
393.698	7.81111
393.914	28.11045
394.13	-19.282
394.346	-49.74063
394.562	-1.22186
394.778	2.16372
394.994	28.12351
395.21	-68.929
395.426	-17.02592
395.642	2.16347
395.858	20.22534
396.073	78.88931
396.289	7.79721
396.505	10.05881
396.721	-2.35133
396.937	-3.47761
397.153	37.14019
397.369	-30.57853
397.584	57.51229
397.8	-23.78852
398.016	13.44699
398.232	24.72448
398.447	2.16022
398.663	-29.43406
398.879	-3.47815
399.094	11.19015
399.31	-15.88391
399.526	11.18237
399.741	-3.48071
399.957	-2.35087
400.173	75.53795
400.388	-7.99436
400.604	29.23919
400.82	-22.66855
401.035	-5.74136
401.251	-23.79497
401.466	26.98592
401.682	30.3821
401.897	-45.2238
402.113	-38.42466
402.328	20.23713
402.544	-38.44095
402.759	26.98488
402.974	6.6788
403.19	-45.23781
403.405	13.44283
403.621	30.38446
403.836	24.73309
404.051	26.97341
404.267	20.22455
404.482	-27.19295
404.697	15.70808
404.913	49.54874
405.128	-27.20142
405.343	7.80323
405.559	-12.5161
405.774	36.00283
405.989	-38.43354
406.204	14.58134
406.42	8.93539
406.635	36.03213
406.85	-2.34869
407.065	-18.14732
407.28	17.96972
407.495	-12.51173
407.71	12.31547
407.926	7.80656
408.141	46.18099
408.356	46.15062
408.571	45.04971
408.786	73.2066
409.001	-0.09399
409.216	-36.20905
409.431	37.15314
409.646	3.29116
409.861	-6.87121
410.076	-32.81119
410.291	13.44438
410.506	11.19536
410.721	-7.99312
410.936	15.70504
411.15	-48.6076
411.365	29.22452
411.58	28.10827
411.795	4.41571
412.01	21.35212
412.225	3.28912
412.439	-17.02196
412.654	21.32902
412.869	4.41793
413.084	-5.73757
413.299	31.50779
413.513	27.00897
413.728	-18.15506
413.943	-40.7329
414.157	14.57625
414.372	-1.22167
414.587	1.0342
414.801	-26.0391
415.016	29.25732
415.231	80.00991
415.445	28.13334
415.66	48.3878
415.874	17.93644
416.089	8.93435
416.304	101.4915
416.518	12.31404
416.733	-22.6589
416.947	-15.89682
417.162	-0.09402
417.376	-19.27976
417.59	-15.89497
417.805	-2.35169
418.019	-31.72548
418.234	29.23241
418.448	8.92745
418.663	-4.61147
418.877	-5.72806
419.091	26.97133
419.306	-0.09404
419.52	8.92882
419.734	48.40833
419.949	-13.61876
420.163	12.31976
420.377	10.05648
420.591	-0.09398
420.806	16.82411
421.02	29.26414
421.234	7.80353
421.448	-44.08788
421.663	67.64001
421.877	-44.06068
422.091	10.06193
422.305	3.2909
422.519	30.37856
422.733	56.33567
422.947	-38.44689
423.161	11.18151
423.376	13.45063
423.59	5.5426
423.804	-9.12563
424.018	4.41947
424.232	-17.01077
424.446	-15.88636
424.66	39.35883
424.874	13.44699
425.088	42.79086
425.302	-16.99964
425.515	1.03456
425.729	11.17763
425.943	55.21028
426.157	21.34385
426.371	5.54431
426.585	-39.57874
426.799	-24.90384
427.013	34.86875
427.226	6.67235
427.44	-42.94243
427.654	30.35508
427.868	-32.80359
428.081	-30.56904
428.295	25.8471
428.509	36.02234
428.723	19.08059
428.936	-88.03268
429.15	37.13445
429.364	49.51814
429.577	48.42331
429.791	-13.61719
430.005	-27.18135
430.218	77.68749
430.432	11.18669
430.645	32.59926
430.859	29.23919
431.073	-30.5643
431.286	26.99743
431.5	50.63107
431.713	-32.80866
431.927	-10.24841
432.14	23.59773
432.354	-11.37954
432.567	31.50169
432.781	11.19188
432.994	60.83592
433.207	16.80922
433.421	-44.08277
433.634	61.97265
433.848	-12.50156
434.061	31.50901
434.274	16.82151
434.488	14.5723
434.701	-4.60522
434.914	8.93608
435.127	51.80323
435.341	41.66312
435.554	-3.48044
435.767	51.84744
435.98	4.41793
436.194	6.66926
436.407	16.84498
436.62	40.52121
436.833	14.57795
437.046	28.12133
437.259	22.47521
437.473	33.74026
437.686	30.3821
437.899	24.73022
438.112	-6.86057
438.325	6.67544
438.538	17.95302
438.751	7.80444
438.964	-91.29757
439.177	1.0338
439.39	3.29014
439.603	84.55556
439.816	31.49194
440.029	8.93504
440.242	46.1204
440.455	46.11685
440.668	33.75722
440.881	47.33814
441.094	19.09759
441.306	57.46538
441.519	70.94572
441.732	12.31738
441.945	51.81125
442.158	12.32263
442.37	8.93955
442.583	50.66622
442.796	31.50169
443.009	8.93366
443.222	55.18251
443.434	60.80537
443.647	2.16247
443.86	32.61308
444.072	34.87548
444.285	55.18038
444.498	36.00283
444.71	94.62027
444.923	38.28556
445.136	-6.86508
445.348	48.40086
445.561	16.81762
445.773	90.22516
445.986	59.69258
446.198	20.19955
446.411	34.88087
446.623	4.41708
446.836	-14.76548
447.048	37.13014
447.261	67.57459
447.473	12.30739
447.686	14.55714
447.898	5.54388
448.11	31.51023
448.323	-20.35544
448.535	29.21889
448.748	-11.36899
448.96	2.16272
449.172	86.78265
449.385	6.67106
449.597	72.09698
449.809	51.78522
450.021	33.75069
450.234	79.98518
450.446	28.08445
450.658	28.10176
450.87	24.71398
451.083	90.05115
451.295	16.81892
451.507	41.61168
451.719	86.73573
451.931	37.14882
452.143	40.51338
452.356	32.61686
452.568	47.29225
452.78	12.3055
452.992	12.30361
453.204	37.11868
453.416	122.8733
453.628	94.65678
453.84	41.59091
454.052	58.54757
454.264	33.74417
454.476	47.23578
454.688	42.75779
454.9	56.32912
455.112	50.60968
455.324	58.57019
455.536	66.48146
455.747	54.01794
455.959	-10.2405
456.171	22.43542
456.383	75.48824
456.595	55.18677
456.807	22.45958
457.018	61.90808
457.23	55.15483
457.442	59.65346
457.654	24.7283
457.865	36.00005
458.077	59.6397
458.289	34.84592
458.501	19.08354
458.712	100.21755
458.924	112.60488
459.136	14.54933
459.347	92.39366
459.559	50.64277
459.77	59.65116
459.982	70.96214
460.194	50.63497
460.405	42.7118
460.617	38.22793
460.828	14.57005
461.04	70.88029
461.251	25.82125
461.463	23.56504
461.674	52.92837
461.886	42.71999
462.097	43.88632
462.309	-11.36549
462.52	54.02626
462.731	106.9432
462.943	67.60332
463.154	83.32225
463.366	-11.36549
463.577	32.60931
463.788	52.82474
464	78.75578
464.211	90.06498
464.422	94.58386
464.634	94.64582
464.845	92.25881
465.056	126.24068
465.267	62.96171
465.478	84.45762
465.69	95.66506
465.901	66.41478
466.112	104.74208
466.323	108.14681
466.534	123.90345
466.745	49.446
466.957	113.76906
467.168	75.40975
467.379	92.33671
467.59	67.54595
467.801	65.21619
468.012	82.07389
468.223	122.72666
468.434	92.32606
468.645	121.67235
468.856	88.8342
469.067	131.65537
469.278	117.00524
469.489	108.09274
469.7	87.74371
469.911	97.92574
470.122	157.59437
470.333	154.22414
470.543	157.70324
470.754	43.8711
470.965	145.19606
471.176	164.45346
471.387	142.9818
471.598	116.98737
471.808	124.94673
472.019	81.03971
472.23	75.38372
472.441	123.74212
472.651	117.1444
472.862	158.79682
473.073	87.75042
473.283	161.97605
473.494	106.86546
473.705	148.66327
473.915	121.54162
474.126	164.15209
474.337	121.52303
474.547	112.5315
474.758	176.51697
474.968	151.70524
475.179	132.75862
475.389	116.89831
475.6	115.7185
475.81	141.71162
476.021	147.3698
476.231	219.23981
476.442	164.19579
476.652	200.22061
476.863	115.84611
477.073	136.04034
477.284	114.62669
477.494	177.54426
477.704	191.00716
477.915	231.59973
478.125	196.88569
478.335	195.62976
478.546	148.47002
478.756	246.03075
478.966	199.97015
479.177	232.70243
479.387	208.93837
479.597	244.79145
479.807	230.23537
480.018	236.08984
480.228	260.61694
480.438	275.17974
480.648	277.67884
480.858	236.60388
481.068	214.66725
481.279	278.44051
481.489	314.17037
481.699	280.65521
481.909	237.27312
482.119	373.57035
482.329	308.47157
482.539	367.67797
482.749	346.67624
482.959	369.72833
483.169	366.15584
483.379	388.86103
483.589	412.3185
483.799	366.6727
484.009	398.27432
484.219	424.51378
484.429	367.85616
484.639	444.14774
484.849	361.19222
485.059	472.45928
485.268	380.73871
485.478	531.13116
485.688	417.80644
485.898	475.91582
486.108	433.60611
486.317	445.86073
486.527	433.04592
486.737	493.29384
486.947	438.942
487.156	554.6056
487.366	450.69106
487.576	490.91191
487.785	445.15457
487.995	440.79237
488.205	457.05023
488.414	602.89336
488.624	489.35822
488.834	543.83874
489.043	541.40098
489.253	493.96987
489.462	526.76704
489.672	688.77221
489.882	556.88352
490.091	597.87066
490.301	583.116
490.51	717.94032
490.72	573.44335
490.929	642.32308
491.138	602.21085
491.348	651.03691
491.557	655.71992
491.767	721.4189
491.976	631.75903
492.185	733.38749
492.395	716.52001
492.604	858.26349
492.813	691.53587
493.023	856.91611
493.232	839.07008
493.441	878.10157
493.651	879.94248
493.86	1036.09692
494.069	1023.31886
494.278	1107.94946
494.488	1108.88685
494.697	1193.16622
494.906	1166.4972
495.115	1405.67098
495.324	1308.62132
495.533	1539.00582
495.743	1483.54955
495.952	1724.31901
496.161	1650.20364
496.37	1831.66954
496.579	1930.09509
496.788	2150.5971
496.997	2281.86887
497.206	2277.71399
497.415	2401.72545
497.624	2633.1832
497.833	2645.21491
498.042	2997.03824
498.251	2997.13425
498.46	3219.98147
498.669	3292.34425
498.878	3442.78491
499.087	3608.85324
499.296	4004.43249
499.504	4156.59357
499.713	4336.04454
499.922	4649.57
500.131	4746.86217
500.34	5054.03331
500.549	5471.33721
500.757	5615.12421
500.966	5983.84671
501.175	6022.9582
501.384	6572.14165
501.592	6718.2971
501.801	7064.45287
502.01	7531.84922
502.218	7622.705
502.427	8173.90883
502.636	8328.57829
502.844	8714.60215
503.053	9167.96722
503.262	9353.83815
503.47	9757.63699
503.679	9977.78654
503.887	10418.64818
504.096	10686.37231
504.304	11269.33303
504.513	11538.5918
504.721	11794.97723
504.93	11899.47505
505.138	12499.94796
505.347	12889.14159
505.555	13092.95164
505.764	13569.96584
505.972	13840.43404
506.18	13967.57464
506.389	14448.85071
506.597	14521.8592
506.806	15131.82036
507.014	15426.18261
507.222	15540.43114
507.431	15879.737
507.639	16070.49717
507.847	16499.86443
508.055	16700.17922
508.264	16998.28018
508.472	17145.47735
508.68	17258.40221
508.888	17584.51383
509.096	17881.09456
509.305	17814.24551
509.513	17705.38754
509.721	18160.70902
509.929	18266.78319
510.137	18324.84612
510.345	18633.02493
510.553	18630.89729
510.762	18894.34116
510.97	18831.84369
511.178	18877.60763
511.386	19233.36866
511.594	19091.63828
511.802	19343.52224
512.01	19350.42276
512.218	19260.77751
512.426	19489.34239
512.634	19511.85337
512.842	19559.07151
513.049	19534.78468
513.257	19476.08021
513.465	19675.56976
513.673	19652.56885
513.881	19635.5193
514.089	19736.23041
514.297	19710.06948
514.504	19725.92517
514.712	19763.11225
514.92	19667.49078
515.128	19922.87153
515.336	19588.49086
515.543	19601.59222
515.751	19749.81014
515.959	19642.0578
516.166	19618.16415
516.374	19523.49456
516.582	19782.37088
516.789	19711.18901
516.997	19566.91078
517.205	19548.05873
517.412	19621.55144
517.62	19653.16393
517.827	19580.84733
518.035	19394.71475
518.243	19373.51583
518.45	19194.30745
518.658	19263.28551
518.865	19295.20145
519.073	19276.38207
519.28	19097.44404
519.488	19120.31041
519.695	19036.92255
519.902	18871.94714
520.11	18947.83039
520.317	19125.65938
520.525	19002.32869
520.732	18749.45126
520.939	18906.79731
521.147	18776.65546
521.354	18623.77389
521.561	18800.41488
521.769	18714.1657
521.976	18664.4493
522.183	18800.38067
522.391	18538.98292
522.598	18922.19356
522.805	18698.43848
523.012	18634.06109
523.219	18587.67555
523.427	18643.56493
523.634	18769.98412
523.841	18547.69942
524.048	18632.28454
524.255	18810.31532
524.462	18765.57484
524.669	18565.79034
524.877	18908.46274
525.084	18634.54181
525.291	18574.62281
525.498	18749.39901
525.705	18764.69921
525.912	19036.59984
526.119	18780.68773
526.326	18822.97842
526.533	18839.90631
526.74	19040.016
526.947	18904.48718
527.153	19015.54502
527.36	18911.60225
527.567	19048.72282
527.774	19006.75488
527.981	19065.46523
528.188	18907.31263
528.395	19167.18838
528.602	18865.6933
528.808	19038.62946
529.015	18972.50531
529.222	19270.41218
529.429	18982.02272
529.635	19206.20575
529.842	18998.61844
530.049	18973.05013
530.256	19017.0995
530.462	19227.52872
530.669	19059.33822
530.876	19039.30993
531.082	19116.44197
531.289	19099.52008
531.495	19216.68633
531.702	19289.08416
531.909	19306.56257
532.115	19506.01075
532.322	19068.26105
532.528	19216.50193
532.735	19394.64043
532.941	19122.30955
533.148	19029.24717
533.354	19314.06273
533.561	19307.32538
533.767	19280.99591
533.974	19138.55597
534.18	19122.62499
534.387	19035.70068
534.593	19058.39485
534.799	19056.2344
535.006	19246.57985
535.212	19180.87349
535.418	19103.6001
535.625	19315.45348
535.831	19231.26784
536.037	18970.11873
536.244	19077.16937
536.45	18965.89297
536.656	19070.6838
536.862	19264.47951
537.068	19267.38594
537.275	19178.79816
537.481	19114.79479
537.687	19380.00016
537.893	19448.30114
538.099	19498.08527
538.305	19205.53189
538.512	19251.95746
538.718	19138.32815
538.924	19324.75504
539.13	19080.4874
539.336	19362.10111
539.542	19078.48209
539.748	19204.91775
539.954	19067.22938
540.16	19324.52668
540.366	19243.90532
540.572	19005.03335
540.778	19192.56567
540.984	19036.80309
541.19	19136.82585
541.396	19138.32815
541.602	19013.09689
541.807	18979.11965
542.013	19007.05808
542.219	18762.17133
542.425	18974.14626
542.631	19000.74607
542.837	18834.71296
543.042	19057.46155
543.248	18776.9269
543.454	18726.01572
543.66	18832.55978
543.865	18565.04923
544.071	18824.56518
544.277	18725.46918
544.483	18757.05738
544.688	18635.3763
544.894	18872.53363
545.1	18710.38866
545.305	18574.02361
545.511	18751.19105
545.716	18724.50763
545.922	18600.9576
546.128	18640.92553
546.333	18668.16034
546.539	18750.48801
546.744	18562.99354
546.95	18593.63695
547.155	18472.034
547.361	18699.84166
547.566	18505.32955
547.772	18513.04006
547.977	18667.31817
548.182	18255.14766
548.388	18523.3128
548.593	18596.14068
548.799	18435.30189
549.004	18309.44014
549.209	18476.10038
549.415	18522.85344
549.62	18331.36374
549.825	18487.15677
550.031	18413.45361
550.236	18489.0575
550.441	18310.91748
550.646	18412.01199
550.852	18519.64434
551.057	18392.51233
551.262	18362.97484
551.467	18465.43788
551.672	18369.31689
551.878	18548.87407
552.083	18448.14503
552.288	18289.27699
552.493	18389.86674
552.698	18235.42657
552.903	18175.75557
553.108	18449.36271
553.313	18303.4511
553.518	18149.88442
553.723	18334.74569
553.928	18441.81302
554.133	18315.46705
554.338	18086.5827
554.543	18522.99303
554.748	18130.23098
554.953	18327.32389
555.158	18484.97773
555.363	18392.16221
555.568	18089.96736
555.773	18342.43684
555.978	18241.70617
556.182	18232.87879
556.387	18289.53703
556.592	18076.01227
556.797	18185.9685
557.002	17961.39875
557.206	18169.95607
557.411	18085.83956
557.616	18200.36906
557.821	18244.20031
558.025	18319.13338
558.23	18036.95012
558.435	18058.70154
558.64	18085.93577
558.844	18012.63612
559.049	18186.44514
559.253	18126.56981
559.458	17963.75521
559.663	18164.47333
559.867	18034.30351
560.072	17933.79781
560.276	17999.83278
560.481	17987.88998
560.685	17705.9279
560.89	17783.25674
561.094	17758.5198
561.299	17642.23613
561.503	17449.21196
561.708	17766.24812
561.912	17776.28446
562.117	17431.59792
562.321	17667.62392
562.525	17740.32521
562.73	17606.48136
562.934	17691.43241
563.139	17464.09959
563.343	17572.10629
563.547	17572.88819
563.752	17602.74086
563.956	17459.19178
564.16	17602.43987
564.364	17451.89053
564.569	17256.43991
564.773	17414.15211
564.977	17298.97061
565.181	17337.39575
565.385	17383.9522
565.59	17386.99442
565.794	17254.5298
565.998	17429.22175
566.202	17297.18556
566.406	17075.80916
566.61	17283.55902
566.814	17158.92182
567.018	17269.64029
567.222	17037.997
567.426	16982.03818
567.63	16977.33295
567.834	16946.45794
568.038	17124.68802
568.242	16700.31011
568.446	16931.47611
568.65	16866.25183
568.854	16803.80162
569.058	16995.10321
569.262	16779.53635
569.466	16988.74819
569.67	16846.47123
569.874	16680.23559
570.078	16843.60689
570.281	16799.21941
570.485	16819.20285
570.689	16515.3249
570.893	16708.39362
571.097	16629.56468
571.3	16564.67963
571.504	16618.65197
571.708	16482.59086
571.912	16542.13381
572.115	16536.29407
572.319	16297.11465
572.523	16355.65656
572.726	16338.09028
572.93	16210.54662
573.133	16368.38723
573.337	16177.83328
573.541	16173.01286
573.744	16050.902
573.948	16256.32046
574.151	16031.92284
574.355	16068.03918
574.558	16069.43676
574.762	16063.60216
574.965	15721.81916
575.169	16097.27657
575.372	16006.01627
575.576	16156.66089
575.779	15966.82009
575.983	15983.88983
576.186	15856.16242
576.389	15974.18166
576.593	15896.80534
576.796	15888.57059
577	15719.38617
577.203	15757.87951
577.406	15872.43021
577.609	15487.45269
577.813	15754.62703
578.016	15690.29354
578.219	15698.18167
578.423	15652.8958
578.626	15481.8774
578.829	15536.3786
579.032	15475.18036
579.235	15692.00415
579.438	15582.83029
579.642	15536.91082
579.845	15407.13862
580.048	15381.51973
580.251	15282.96037
580.454	15412.2044
580.657	15155.93628
580.86	15443.84447
581.063	15303.09264
581.266	15440.98507
581.469	15448.55612
581.672	15346.66638
581.875	15556.10917
582.078	15261.44951
582.281	15189.97485
582.484	15084.08012
582.687	15297.15278
582.89	15221.4368
583.093	15263.77097
583.296	15191.00105
583.499	15321.37729
583.702	15248.58061
583.904	15049.89858
584.107	15083.69864
584.31	15134.56705
584.513	15144.06427
584.716	15184.40193
584.918	15141.67381
585.121	15148.69853
585.324	15063.98445
585.527	15055.67981
585.729	15102.58197
585.932	15047.64595
586.135	15009.17174
586.337	15179.62194
586.54	15178.62656
586.743	15111.73845
586.945	15121.77113
587.148	15034.11295
587.35	15178.27802
587.553	14901.15766
587.755	15114.22792
587.958	15160.97587
588.161	14899.36534
588.363	14913.16877
588.566	14961.91563
588.768	14818.68839
588.971	15113.17982
589.173	14879.54486
589.375	14968.16551
589.578	14973.20376
589.78	14719.88288
589.983	14876.1488
590.185	14869.31651
590.387	14690.9458
590.59	14745.364
590.792	14647.591
590.994	14563.84937
591.197	14531.808
591.399	14643.68566
591.601	14271.01327
591.803	14232.30978
592.006	14359.37513
592.208	14326.96354
592.41	14283.65174
592.612	14251.20929
592.815	14149.29873
593.017	14297.43502
593.219	14123.85818
593.421	14136.03067
593.623	14084.43064
593.825	13891.49378
594.027	13801.46528
594.229	14227.55637
594.432	13877.49679
594.634	13993.3328
594.836	13776.23008
595.038	13936.51482
595.24	13796.65371
595.442	13688.15636
595.644	13720.91725
595.846	13641.77746
596.048	13673.92918
596.249	13581.25877
596.451	13671.98323
596.653	13630.9762
596.855	13437.76538
597.057	13341.13379
597.259	13196.44878
597.461	13382.32622
597.663	13124.94911
597.864	13324.47876
598.066	13430.2128
598.268	13211.48054
598.47	13342.71426
598.671	13229.53844
598.873	13279.06191
599.075	13191.66524
599.277	13072.32075
599.478	13268.9156
599.68	13211.03757
599.882	13236.24402
600.083	13212.06777
600.285	13008.02912
600.487	13074.90247
600.688	13064.82855
600.89	13122.10549
601.091	13069.02676
601.293	13113.033
601.494	12980.13048
601.696	13084.52104
601.898	13035.17558
602.099	12983.7423
602.301	13140.7978
602.502	13115.28992
602.703	13213.33141
602.905	12960.97971
603.106	12961.39149
603.308	12913.55303
603.509	12957.50895
603.711	12872.03677
603.912	12878.08507
604.113	12830.5628
604.315	12962.89145
604.516	12788.0601
604.717	12759.94552
604.919	12670.87937
605.12	12806.3319
605.321	12888.9664
605.522	12808.41921
605.724	12750.43559
605.925	12643.58694
606.126	12765.13498
606.327	12918.30278
606.528	12697.36439
606.729	12746.64039
606.931	12699.50218
607.132	12855.17638
607.333	12579.92937
607.534	12702.61658
607.735	12844.64442
607.936	12805.92851
608.137	12702.24481
608.338	12793.20132
608.539	12656.44195
608.74	12614.0431
608.941	12710.5224
609.142	12625.98924
609.343	12875.47725
609.544	12721.71493
609.745	12591.70353
609.946	12717.58206
610.147	12621.98359
610.348	12746.80426
610.549	12579.70042
610.75	12713.60475
610.95	12669.35334
611.151	12543.02297
611.352	12531.25834
611.553	12612.87721
611.754	12495.16232
611.954	12688.34853
612.155	12377.65383
612.356	12534.72434
612.557	12667.64069
612.757	12686.58138
612.958	12530.35126
613.159	12529.31009
613.359	12613.32366
613.56	12277.16039
613.761	12549.56488
613.961	12458.95243
614.162	12395.82986
614.362	12402.96658
614.563	12589.99033
614.764	12381.93698
614.964	12386.77892
615.165	12349.73296
615.365	12355.26334
615.566	12324.20482
615.766	12326.46131
615.967	12348.19781
616.167	12122.12848
616.368	12264.39696
616.568	12198.18536
616.768	12281.26525
616.969	12223.09228
617.169	12332.37579
617.37	12112.86408
617.57	12270.03806
617.77	12199.44771
617.971	12046.18184
618.171	12103.51939
618.371	12031.63903
618.571	11961.92385
618.772	12252.10303
618.972	12016.18334
619.172	12091.85463
619.372	11929.91492
619.573	11922.65971
619.773	11975.94773
619.973	11967.47579
620.173	12033.08166
620.373	11946.25917
620.573	11980.12467
620.774	12017.79866
620.974	11750.13907
621.174	11875.49137
621.374	12058.16179
621.574	11917.97236
621.774	11971.9148
621.974	11838.48394
622.174	11703.03579
622.374	11985.15876
622.574	11837.11647
622.774	11798.25523
622.974	11749.46079
623.174	11817.78362
623.374	11831.43671
623.574	11693.04239
623.774	11673.17942
623.973	11747.97874
624.173	11765.82877
624.373	11810.35973
624.573	11753.37715
624.773	11776.26889
624.973	11677.59536
625.172	11778.64094
625.372	11686.8175
625.572	11687.80936
625.772	11573.90275
625.971	11582.09384
626.171	11612.32774
626.371	11579.94124
626.57	11480.0771
626.77	11663.59454
626.97	11479.08534
627.169	11668.70724
627.369	11555.31521
627.569	11626.25149
627.768	11338.87323
627.968	11604.12021
628.167	11522.1429
628.367	11457.37315
628.566	11392.7728
628.766	11170.86812
628.965	11354.43301
629.165	11460.45771
629.364	11505.93181
629.564	11240.93596
629.763	11207.11499
629.963	11319.93629
630.162	11232.83515
630.362	11251.9512
630.561	11243.918
630.76	11302.35229
630.96	10935.3721
631.159	11261.21355
631.358	11164.90684
631.558	11252.66686
631.757	10833.7032
631.956	10991.79059
632.155	11024.55938
632.355	10952.47412
632.554	10996.68511
632.753	10782.67061
632.952	10846.59419
633.152	10907.98881
633.351	10869.72873
633.55	10874.79837
633.749	10820.61893
633.948	10918.10628
634.147	10690.4111
634.346	10670.41395
634.545	10644.21381
634.744	10584.17126
634.944	10641.78457
635.143	10673.3445
635.342	10571.14427
635.541	10616.62294
635.74	10661.01469
635.939	10522.0706
636.138	10573.73785
636.336	10501.24617
636.535	10527.67902
636.734	10639.29418
636.933	10415.65571
637.132	10560.922
637.331	10321.73729
637.53	10643.80628
637.729	10488.6992
637.928	10487.67802
638.126	10467.64718
638.325	10555.24741
638.524	10502.23781
638.723	10530.70523
638.921	10421.98374
639.12	10502.85694
639.319	10445.23518
639.518	10484.67567
639.716	10301.23911
639.915	10425.10106
640.114	10447.13058
640.312	10604.34142
640.511	10437.50765
640.71	10318.06129
640.908	10538.55606
641.107	10374.20448
641.305	10294.8427
641.504	10427.04931
641.702	10266.39521
641.901	10273.59433
642.099	10262.1164
642.298	10432.20761
642.496	10335.1239
642.695	10224.12199
642.893	10209.65609
643.092	10383.41573
643.29	10198.33686
643.489	10251.96478
643.687	10160.22372
643.885	10202.20387
644.084	10222.52272
644.282	10264.99308
644.48	10229.97231
644.679	10251.51761
644.877	10025.74827
645.075	10308.76396
645.274	10057.85264
645.472	10175.95607
645.67	10028.63212
645.868	10074.07551
646.067	9923.22651
646.265	10143.90643
646.463	9974.90912
646.661	9970.02785
646.859	9983.08173
647.057	9922.05416
647.256	10183.94342
647.454	10100.27624
647.652	10036.33442
647.85	9981.3392
648.048	10057.40642
648.246	9983.62934
648.444	9880.43905
648.642	9969.77722
648.84	9878.2864
649.038	9903.03106
649.236	9762.79272
649.434	9831.49095
649.632	9768.89309
649.83	9834.09124
650.028	9649.94375
650.226	9821.20094
650.423	9706.49649
650.621	9657.964
650.819	9591.78185
651.017	9540.94301
651.215	9659.07787
651.413	9650.65653
651.61	9593.53136
651.808	9531.87662
652.006	9380.81591
652.204	9625.61868
652.401	9508.26149
652.599	9426.41121
652.797	9478.02148
652.995	9376.43569
653.192	9165.6543
653.39	9369.71727
653.588	9313.73177
653.785	9267.04023
653.983	9319.37309
654.18	9234.73727
654.378	9073.4752
654.576	9389.26054
654.773	9197.65134
654.971	9283.72982
655.168	9151.9355
655.366	9246.15075
655.563	9098.78297
655.761	9147.35554
655.958	9125.36027
656.156	9151.87412
656.353	9008.42544
656.55	9133.20873
656.748	8940.31245
656.945	8980.44569
657.143	8953.18415
657.34	8960.12711
657.537	8895.4545
657.735	8873.63733
657.932	8743.86702
658.129	8673.69687
658.326	8647.6373
658.524	8706.53751
658.721	8786.36344
658.918	8679.20273
659.115	8592.51181
659.313	8677.47609
659.51	8497.2053
659.707	8554.61403
659.904	8459.59323
660.101	8626.75249
660.298	8452.47314
660.496	8492.48351
660.693	8367.09066
660.89	8340.54855
661.087	8319.56138
661.284	8425.77975
661.481	8277.79943
661.678	8274.80918
661.875	8271.43233
662.072	8239.90774
662.269	8328.57829
662.466	8325.2286
662.663	8374.44127
662.86	8287.3447
663.057	8208.97493
663.254	8288.9685
663.45	8299.26553
663.647	8121.62391
663.844	8264.29277
664.041	8147.0083
664.238	8196.70859
664.435	8227.26979
664.631	8217.16257
664.828	8238.96773
665.025	8248.79756
665.222	7977.85316
665.419	8120.54506
665.615	8273.89477
665.812	8034.91621
666.009	8164.03165
666.205	8159.45944
666.402	8143.75397
666.599	8165.16075
666.795	8131.64263
666.992	8193.42094
667.188	8132.71008
667.385	8087.68026
667.582	8226.41728
667.778	8079.63383
667.975	8236.28026
668.171	8176.75852
668.368	8147.10049
668.564	8031.26802
668.761	8227.08796
668.957	8090.25073
669.154	8181.61666
669.35	8177.9423
669.547	8082.57038
669.743	8147.90207
669.939	8165.00245
670.136	8087.14465
670.332	8088.25632
670.528	8050.77401
670.725	8193.45893
670.921	8211.19373
671.117	8133.45521
671.314	8125.97726
671.51	8254.10272
671.706	8068.31212
671.902	8037.6389
672.099	7972.01003
672.295	7966.10522
672.491	7966.6363
672.687	7910.81585
672.883	7889.90609
673.08	7939.23076
673.276	8000.88183
673.472	7995.30546
673.668	7904.9744
673.864	7866.53762
674.06	7895.21665
674.256	7940.16606
674.452	7753.59013
674.648	7889.70635
674.844	7794.63513
675.04	7933.84805
675.236	7872.71218
675.432	7815.58989
675.628	7647.73048
675.824	7758.03457
676.02	7750.32967
676.216	7832.87565
676.412	7716.85176
676.608	7699.96561
676.804	7722.98565
676.999	7844.36348
677.195	7697.68371
677.391	7687.22279
677.587	7660.42295
677.783	7798.22335
677.978	7669.29443
678.174	7611.34317
678.37	7542.5514
678.566	7689.2244
678.761	7636.67039
678.957	7640.54499
679.153	7613.21918
679.348	7648.76207
679.544	7570.72487
679.74	7582.99888
679.935	7551.15115
680.131	7611.15127
680.327	7484.23374
680.522	7489.38366
680.718	7488.02974
680.913	7446.55114
681.109	7461.22231
681.304	7616.2563
681.5	7522.42251
681.695	7527.5142
681.891	7437.89747
682.086	7522.99714
682.282	7372.71247
682.477	7352.9812
682.672	7480.91604
682.868	7407.77785
683.063	7369.32873
683.259	7336.70747
683.454	7369.676
683.649	7321.44091
683.845	7335.14527
684.04	7374.38081
684.235	7188.18987
684.43	7380.05303
684.626	7292.99156
684.821	7265.15436
685.016	7211.0266
685.211	7190.65967
685.407	7185.77574
685.602	7169.73748
685.797	7176.14468
685.992	7237.54901
686.187	7225.82895
686.382	7216.80278
686.577	6975.22593
686.773	7260.96793
686.968	7053.38782
687.163	7192.85523
687.358	6989.39873
687.553	7082.65224
687.748	6944.57383
687.943	7026.76223
688.138	6989.84896
688.333	6999.7792
688.528	6821.94773
688.723	6953.68834
688.918	6775.6664
689.112	6848.02432
689.307	6634.59552
689.502	6748.79549
689.697	6686.00515
689.892	6681.23279
690.087	6626.7564
690.282	6692.18085
690.476	6485.36941
690.671	6455.14793
690.866	6392.97848
691.061	6575.4602
691.255	6417.79991
691.45	6432.83993
691.645	6296.40769
691.84	6298.28733
692.034	6313.72441
692.229	6243.84169
692.424	6170.41129
692.618	6253.86404
692.813	6156.7194
693.007	6161.63397
693.202	6163.22067
693.397	6195.74809
693.591	6020.62379
693.786	5929.87654
693.98	5918.15545
694.175	6041.18728
694.369	5765.12967
694.564	5990.81931
694.758	5847.35929
694.953	5817.71437
695.147	5940.62906
695.342	5800.31073
695.536	5812.4627
695.73	5751.18977
695.925	5675.77379
696.119	5753.34865
696.313	5626.42186
696.508	5842.22303
696.702	5765.416
696.896	5630.04518
697.091	5688.12669
697.285	5678.81201
697.479	5697.41592
697.673	5751.34611
697.868	5554.4509
698.062	5679.52567
698.256	5471.3544
698.45	5636.21674
698.644	5602.72755
698.839	5731.96052
699.033	5539.82443
699.227	5769.59113
699.421	5555.6753
699.615	5582.98079
699.809	5569.80419
700.003	5700.70648
700.197	5557.51742
700.391	5719.45565
700.585	5579.56119
700.779	5679.97251
700.973	5606.54115
701.167	5573.66447
701.361	5614.88357
701.555	5784.11311
701.749	5538.16059
701.943	5725.58482
702.137	5560.18757
702.331	5732.48081
702.525	5620.95774
702.718	5662.25749
702.912	5550.83525
703.106	5741.88061
703.3	5576.48425
703.494	5623.75584
703.687	5537.74655
703.881	5559.47867
704.075	5560.72664
704.269	5583.14272
704.462	5586.45825
704.656	5622.30794
704.85	5549.32924
705.043	5540.36226
705.237	5580.09092
705.431	5551.53494
705.624	5439.83594
705.818	5599.36879
706.012	5543.98865
706.205	5513.15637
706.399	5403.99489
706.592	5442.08489
706.786	5373.62598
706.979	5539.53837
707.173	5326.18318
707.366	5491.23696
707.56	5452.84468
707.753	5450.05784
707.947	5416.10685
708.14	5396.28856
708.333	5327.12164
708.527	5388.20317
708.72	5375.14978
708.914	5334.42697
709.107	5353.04805
709.3	5365.18561
709.494	5346.62471
709.687	5368.00127
709.88	5298.16766
710.073	5380.50536
710.267	5294.5986
710.46	5267.84754
710.653	5319.68562
710.846	5219.48593
711.04	5316.22792
711.233	5198.91524
711.426	5206.1955
711.619	5284.10102
711.812	5195.38124
712.005	5187.39595
712.198	5310.27461
712.391	5254.85274
712.585	5059.43428
712.778	5234.06023
712.971	5228.79808
713.164	5240.42196
713.357	5231.44442
713.55	5278.16382
713.743	5105.08688
713.936	5187.85751
714.129	5187.42435
714.322	5255.03869
714.514	5181.66395
714.707	5100.72997
714.9	5059.80295
715.093	5165.8655
715.286	5058.78874
715.479	5088.42619
715.672	5085.48086
715.864	5087.73778
716.057	5033.6228
716.25	5038.83173
716.443	5105.395
716.636	5086.18878
716.828	5109.09811
717.021	5064.39013
717.214	5113.88633
717.406	5002.98184
717.599	4961.37705
717.792	4927.63601
717.984	4939.9386
718.177	5001.74004
718.37	4873.56842
718.562	4979.66729
718.755	4913.53771
718.947	4898.99061
719.14	4791.13026
719.333	4766.5198
719.525	4737.8786
719.718	4731.04844
719.91	4666.60525
720.103	4665.87902
720.295	4521.48305
720.487	4773.57066
720.68	4691.71573
720.872	4478.31701
721.065	4370.41547
721.257	4475.03391
721.449	4341.22828
721.642	4469.82376
721.834	4426.76542
722.026	4395.6739
722.219	4203.85791
722.411	4386.15293
722.603	4181.69698
722.796	4277.40452
722.988	4152.44926
723.18	4230.40827
723.372	4143.91717
723.565	3958.15431
723.757	3964.1324
723.949	4002.93539
724.141	3969.19579
724.333	4044.78043
724.525	3973.28794
724.717	4036.67682
724.91	3892.57475
725.102	3973.40724
725.294	3778.2392
725.486	3948.37677
725.678	3823.89954
725.87	3735.92785
726.062	3714.18225
726.254	3744.95065
726.446	3693.57762
726.638	3732.32355
726.83	3655.29594
727.022	3688.10502
727.213	3643.81508
727.405	3610.17352
727.597	3572.18418
727.789	3635.27127
727.981	3566.55303
728.173	3571.92182
728.365	3499.79173
728.556	3684.48369
728.748	3601.14164
728.94	3566.82774
729.132	3609.18249
729.324	3621.12462
729.515	3571.06062
729.707	3586.64802
729.899	3483.87241
730.09	3509.01079
730.282	3503.44792
730.474	3534.49623
730.665	3427.75191
730.857	3560.16611
731.049	3487.20288
731.24	3620.62599
731.432	3376.83029
731.623	3492.06151
731.815	3404.88517
732.006	3460.42572
732.198	3400.64774
732.389	3522.64609
732.581	3376.83029
732.772	3516.33623
732.964	3388.12234
733.155	3432.91413
733.347	3367.18823
733.538	3430.10145
733.729	3357.69893
733.921	3474.47331
734.112	3407.48244
734.304	3604.66233
734.495	3420.68178
734.686	3422.05055
734.877	3377.38052
735.069	3407.87543
735.26	3306.83503
735.451	3420.9441
735.643	3368.87159
735.834	3461.35663
736.025	3372.25739
736.216	3478.42872
736.407	3398.45968
736.599	3411.04134
736.79	3328.91123
736.981	3471.23528
737.172	3347.22009
737.363	3408.60388
737.554	3330.35266
737.745	3395.95361
737.936	3376.89411
738.127	3515.21137
738.318	3452.76817
738.509	3566.95284
738.7	3466.06083
738.891	3478.61441
739.082	3434.01519
739.273	3409.85548
739.464	3511.92017
739.655	3424.43736
739.846	3430.82459
740.037	3500.9196
740.228	3489.15209
740.419	3631.70543
740.609	3508.9953
740.8	3416.40469
740.991	3484.16244
741.182	3565.0529
741.373	3505.53451
741.563	3634.78109
741.754	3401.79111
741.945	3576.32394
742.136	3528.94461
742.326	3663.47259
742.517	3475.01044
742.708	3618.42241
742.898	3430.79086
743.089	3648.01741
743.28	3444.64806
743.47	3479.01682
743.661	3464.19706
743.851	3541.36273
744.042	3423.26281
744.233	3548.40735
744.423	3408.54467
744.614	3537.32539
744.804	3440.13753
744.995	3561.25488
745.185	3290.35692
745.376	3472.19183
745.566	3374.42167
745.756	3453.83909
745.947	3445.7758
746.137	3524.89906
746.328	3393.26983
746.518	3426.99245
746.708	3447.36474
746.899	3451.21147
747.089	3501.74733
747.279	3420.24627
747.47	3390.80072
747.66	3445.84728
747.85	3384.91586
748.04	3426.14074
748.231	3470.78334
748.421	3525.55666
748.611	3311.16958
748.801	3481.51267
748.991	3338.20257
749.182	3349.163
749.372	3356.47888
749.562	3493.38554
749.752	3312.75104
749.942	3387.66132
750.132	3340.2936
750.322	3440.83404
750.512	3301.06126
750.702	3386.62505
750.892	3373.414
751.082	3418.86478
751.272	3297.39785
751.462	3288.22937
751.652	3234.54147
751.842	3330.71527
752.032	3193.26602
752.222	3274.5436
752.412	3208.42867
752.602	3312.97928
752.792	3282.3167
752.981	3258.56766
753.171	3210.474
753.361	3264.33141
753.551	3295.99724
753.741	3261.21356
753.93	3187.02297
754.12	3185.86906
754.31	3197.86928
754.5	3280.68052
754.689	3183.37356
754.879	3254.23367
755.069	3177.73224
755.258	3225.15613
755.448	3091.90131
755.638	3165.79578
755.827	3056.75352
756.017	3177.13016
756.206	3130.45672
756.396	3131.93334
756.586	3168.202
756.775	3157.00555
756.965	3159.98771
757.154	3151.45219
757.344	3064.17719
757.533	3238.19648
757.723	3043.75504
757.912	3130.02425
758.101	3080.6848
758.291	3083.55375
758.48	2976.20132
758.67	3062.88854
758.859	2999.29639
759.048	2997.06733
759.238	3009.96126
759.427	3042.73021
759.616	2987.5016
759.806	2986.79443
759.995	2917.68604
760.184	3088.42152
760.373	2909.71056
760.563	2980.61256
760.752	2827.42239
760.941	2957.25421
761.13	2836.2066
761.319	2861.90775
761.509	2760.33431
761.698	2826.69949
761.887	2676.90529
762.076	2706.73856
762.265	2597.39924
762.454	2665.25433
762.643	2469.45662
762.832	2526.10771
763.021	2317.68774
763.21	2426.64291
763.399	2263.31636
763.588	2341.93801
763.777	2170.8481
763.966	2149.28075
764.155	2046.38573
764.344	2123.36657
764.533	2001.46227
764.722	2021.2369
764.911	1946.66657
765.1	1792.8642
765.288	1822.77678
765.477	1825.87023
765.666	1741.54209
765.855	1718.2302
766.044	1596.65047
766.232	1609.59178
766.421	1399.36945
766.61	1544.18429
766.799	1295.11974
766.987	1445.73456
767.176	1325.76
767.365	1403.64898
767.553	1241.07226
767.742	1293.95275
767.931	1162.37076
768.119	1290.39484
768.308	1151.20047
768.497	1242.11627
768.685	1097.44722
768.874	1183.66005
769.062	1138.40184
769.251	1132.87397
769.439	1164.58902
769.628	1175.68047
769.816	1138.32335
770.005	1200.92626
770.193	1162.45075
770.382	1214.56546
770.57	1276.2906
770.758	1330.47911
770.947	1287.45
771.135	1302.29029
771.323	1275.68528
771.512	1369.07083
771.7	1358.60905
771.888	1416.66936
772.077	1390.09104
772.265	1435.7176
772.453	1466.42235
772.642	1572.96949
772.83	1501.45746
773.018	1620.5667
773.206	1536.54592
773.394	1620.52879
773.583	1559.27679
773.771	1756.61129
773.959	1711.71682
774.147	1726.16462
774.335	1794.97021
774.523	1803.01897
774.711	1867.51261
774.899	2004.9759
775.087	1849.32575
775.275	1921.74216
775.463	1904.85955
775.651	1974.80103
775.839	1987.0377
776.027	2070.15771
776.215	1957.04964
776.403	2157.57356
776.591	1979.45938
776.779	2143.69027
776.967	1990.8649
777.155	2165.99719
777.343	2058.80143
777.531	2162.01622
777.718	2163.66906
777.906	2209.38115
778.094	2018.81615
778.282	2207.93806
778.47	2153.78209
778.657	2129.17883
778.845	2064.80224
779.033	2137.38098
779.22	2125.84566
779.408	2218.54873
779.596	2057.73679
779.783	2244.21073
779.971	2080.44058
780.159	2105.70348
780.346	2082.89191
780.534	2250.36585
780.722	2121.24066
780.909	2180.12431
781.097	2090.49381
781.284	2189.87224
781.472	2129.53671
781.659	2137.84857
781.847	2102.83996
782.034	2155.84281
782.222	2026.38951
782.409	2169.18299
782.597	1974.93496
782.784	2062.86657
782.971	1985.23381
783.159	2172.58246
783.346	2015.6827
783.533	2110.51827
783.721	1993.93603
783.908	2087.73208
784.095	1917.31294
784.283	2027.7892
784.47	2029.29979
784.657	2030.04699
784.844	1943.69323
785.032	2000.83361
785.219	2035.45785
785.406	2003.02811
785.593	1956.1264
785.78	2087.17443
785.968	2025.56609
786.155	2004.29871
786.342	1934.39424
786.529	2058.2875
786.716	1859.91382
786.903	1980.97176
787.09	1877.78383
787.277	2027.8267
787.464	1872.73838
787.651	1999.39429
787.838	1972.84828
788.025	1888.77232
788.212	1875.64841
788.399	1919.65805
788.586	1790.82136
788.773	1937.474
788.96	1846.73377
789.147	1996.88356
789.334	1820.81099
789.521	1891.27007
789.707	1825.40762
789.894	1848.62446
790.081	1814.81124
790.268	1923.68686
790.455	1816.44767
790.641	1830.69512
790.828	1797.4592
791.015	1909.01147
791.202	1838.26017
791.388	1785.32792
791.575	1657.29814
791.762	1800.47401
791.948	1688.03502
792.135	1830.09108
792.322	1654.1842
792.508	1735.88382
792.695	1690.32194
792.881	1747.24432
793.068	1707.51567
793.254	1689.10924
793.441	1623.47585
793.627	1675.98425
793.814	1630.75182
794	1670.61472
794.187	1543.43076
794.373	1669.17098
794.56	1561.17833
794.746	1693.32621
794.933	1665.04751
795.119	1674.44978
795.305	1569.53882
795.492	1706.29287
795.678	1657.99407
795.864	1576.50966
796.051	1464.03444
796.237	1697.21584
796.423	1477.12095
796.61	1605.75787
796.796	1580.10305
796.982	1675.14214
797.168	1542.13795
797.355	1614.92034
797.541	1542.2396
797.727	1600.92723
797.913	1461.53923
798.099	1468.06019
798.285	1486.69228
798.471	1516.93957
798.658	1483.79388
798.844	1526.31745
799.03	1375.42726
799.216	1558.91806
799.402	1439.54242
799.588	1585.19271
799.774	1442.51547
799.96	1486.93186
800.146	1404.876
800.332	1504.43202
800.518	1482.07656
800.704	1482.66508
800.89	1432.61786
801.075	1494.92399
801.261	1482.03382
801.447	1549.62697
801.633	1416.2003
801.819	1543.41923
802.005	1402.00638
802.19	1607.63244
802.376	1333.50707
802.562	1504.82853
802.748	1340.64437
802.934	1445.88064
803.119	1408.49242
803.305	1443.57363
803.491	1384.11602
803.676	1457.32351
803.862	1408.77544
804.048	1495.85466
804.233	1319.83701
804.419	1479.82359
804.605	1370.59374
804.79	1480.21933
804.976	1364.28345
805.161	1400.77891
805.347	1437.8092
805.532	1477.56191
805.718	1364.43713
805.903	1376.30428
806.089	1279.8076
806.274	1531.76279
806.46	1405.5767
806.645	1469.21789
806.831	1384.7335
807.016	1444.60639
807.201	1316.034
807.387	1406.80025
807.572	1255.55352
807.757	1481.3991
807.943	1358.56338
808.128	1449.17219
808.313	1343.0361
808.499	1381.09025
808.684	1336.6698
808.869	1376.18733
809.054	1286.01846
809.24	1395.18251
809.425	1314.24201
809.61	1371.41973
809.795	1246.99721
809.98	1437.03874
810.165	1277.99208
810.35	1428.02474
810.536	1242.90722
810.721	1367.80495
810.906	1279.28673
811.091	1351.51962
811.276	1211.40281
811.461	1285.71067
811.646	1284.58219
811.831	1297.59995
812.016	1208.29246
812.201	1261.13259
812.386	1243.62282
812.571	1291.45269
812.756	1202.83005
812.941	1275.38357
813.125	1179.50944
813.31	1275.77159
813.495	1131.93937
813.68	1235.76683
813.865	1143.65375
814.05	1200.75858
814.234	1139.72762
814.419	1069.0667
814.604	1133.80758
814.789	1220.38303
814.973	1086.16336
815.158	1167.69564
815.343	1263.42466
815.528	1207.85475
815.712	1227.11582
815.897	1196.52873
816.081	1125.71028
816.266	1105.59989
816.451	1057.0474
816.635	998.46673
816.82	1076.90692
817.004	1071.10178
817.189	999.09178
817.374	1087.59332
817.558	965.14256
817.743	968.32455
817.927	911.08454
818.111	1031.90392
818.296	883.14142
818.48	984.22189
818.665	859.75469
818.849	924.71826
819.034	874.48512
819.218	886.49594
819.402	831.46754
819.587	836.54702
819.771	818.16131
819.955	886.74671
820.14	703.79182
820.324	840.01991
820.508	720.08372
820.692	827.68997
820.877	708.44019
821.061	793.3221
821.245	726.66646
821.429	691.03943
821.613	619.64427
821.798	706.70137
821.982	651.57639
822.166	758.08333
822.35	680.89286
822.534	727.40225
822.718	600.62406
822.902	771.55119
823.086	662.04074
823.27	677.13925
823.454	654.06855
823.638	708.87538
823.822	576.85079
824.006	661.87306
824.19	578.23362
824.374	655.69608
824.558	582.09218
824.742	631.318
824.926	484.1469
825.11	656.1501
825.294	578.6023
825.477	586.37102
825.661	550.6769
825.845	600.15034
826.029	583.49701
826.213	600.30371
826.396	568.15343
826.58	543.14205
826.764	557.25143
826.948	497.98927
827.131	525.65786
827.315	566.63045
827.499	529.23769
827.682	598.37354
827.866	546.78562
828.05	568.76284
828.233	506.26442
828.417	531.08669
828.6	474.21058
828.784	584.56189
828.967	501.95147
829.151	505.38962
829.335	476.76337
829.518	520.97275
829.701	461.39605
829.885	547.87413
830.068	451.27187
830.252	582.77322
830.435	478.15621
830.619	575.34418
830.802	493.98521
830.985	555.51095
831.169	456.89805
831.352	583.1356
831.535	564.78657
831.719	440.05401
831.902	474.92735
832.085	463.24359
832.269	444.35411
832.452	500.59736
832.635	551.9899
832.818	469.92505
833.002	486.20446
833.185	490.82209
833.368	435.58965
833.551	493.74787
833.734	385.66288
833.917	507.99918
834.1	465.73954
834.284	590.92102
834.467	472.49416
834.65	503.02413
834.833	445.89378
835.016	504.61334
835.199	443.85001
835.382	514.73417
835.565	419.09005
835.748	474.62917
835.931	450.56059
836.114	435.67018
836.297	413.24795
836.479	464.50823
836.662	406.78238
836.845	484.66274
837.028	417.89933
837.211	520.45562
837.394	420.31247
837.577	382.27704
837.759	395.808
837.942	430.07636
838.125	426.91292
838.308	428.69472
838.49	468.76141
838.673	329.46593
838.856	428.28052
839.039	439.12065
839.221	413.77001
839.404	386.69083
839.587	394.371
839.769	421.31631
839.952	388.84659
840.134	506.13342
840.317	404.57044
840.499	426.75473
840.682	307.02327
840.865	476.19782
841.047	388.12301
841.23	397.11491
841.412	415.62701
841.595	398.60317
841.777	412.41034
841.959	468.30843
842.142	362.02407
842.324	351.27699
842.507	408.97883
842.689	411.69561
842.871	446.17542
843.054	398.08099
843.236	359.67475
843.418	388.78886
843.601	370.11379
843.783	374.28089
843.965	358.90779
844.147	422.66498
844.33	369.79695
844.512	396.56841
844.694	362.09142
844.876	378.07337
845.059	359.86199
845.241	339.5875
845.423	323.28329
845.605	359.76828
845.787	304.80404
845.969	403.44187
846.151	291.80909
846.333	381.66179
846.515	381.40452
846.697	355.8712
846.879	367.81499
847.061	393.85889
847.243	301.55874
847.425	368.87487
847.607	412.70217
847.789	383.33428
847.971	431.78195
848.153	419.18347
848.335	333.19595
848.517	410.03127
848.699	333.39583
848.881	377.90395
849.062	336.49357
849.244	373.38906
849.426	348.88173
849.608	382.82065
849.789	337.9003
849.971	288.26263
850.153	288.16579
850.335	345.56038
850.516	316.26149
850.698	342.43087
850.88	315.54743
851.061	348.75145
851.243	322.02148
851.425	346.8582
851.606	284.0404
851.788	328.66999
851.969	314.20568
852.151	316.73639
852.333	244.44303
852.514	345.7288
852.696	253.76889
852.877	343.21302
853.059	294.45378
853.24	298.25551
853.422	157.11104
853.603	315.41697
853.784	227.90234
853.966	293.90046
854.147	239.04428
854.329	262.68642
854.51	230.17467
854.691	254.81076
854.873	288.77225
855.054	317.74632
855.235	245.76239
855.416	270.59352
855.598	232.43002
855.779	246.03075
855.96	319.11601
856.141	253.92206
856.323	214.54553
856.504	205.59396
856.685	226.99743
856.866	241.30791
857.047	240.60702
857.228	186.5812
857.409	216.93256
857.591	230.29618
857.772	190.0162
857.953	129.26034
858.134	241.71807
858.315	164.0463
858.496	143.86406
858.677	173.1652
858.858	200.06096
859.039	230.5757
859.22	203.4846
859.401	204.73778
859.582	258.6729
859.762	228.03118
859.943	157.43207
860.124	234.97849
860.305	221.38036
860.486	162.98687
860.667	178.73291
860.848	219.17331
861.028	156.36939
861.209	176.5371
861.39	202.56407
861.571	178.73969
861.751	151.77432
861.932	123.59165
862.113	215.90224
862.293	148.487
862.474	166.26339
862.655	217.06438
862.835	178.71935
863.016	245.22743
863.197	197.01361
863.377	185.40395
863.558	169.90319
863.738	196.95334
863.919	122.6374
864.099	198.97041
864.28	198.11343
864.46	149.48466
864.641	194.60477
864.821	203.57742
865.002	146.20788
865.182	163.0674
865.363	176.59084
865.543	165.38725
865.723	187.95961
865.904	200.18252
866.084	109.04658
866.264	141.58784
866.445	76.45906
866.625	192.22959
866.805	165.39356
866.986	160.88428
867.166	159.6764
867.346	111.21248
867.526	121.44886
867.707	153.0772
867.887	169.92915
868.067	213.64409
868.247	103.49766
868.427	138.31682
868.607	114.72266
868.788	132.8043
868.968	132.66255
869.148	145.20162
869.328	113.62518
869.508	147.41482
869.688	114.78842
869.868	137.17325
870.048	149.57558
870.228	139.52457
870.408	150.76126
870.588	139.55124
870.768	141.78193
870.948	109.16734
871.128	102.38144
871.307	174.34003
871.487	86.64244
871.667	51.7275
871.847	138.3801
872.027	136.14406
872.207	86.61923
872.387	141.83075
872.566	117.09489
872.746	130.55176
872.926	93.44057
873.106	131.6453
873.285	152.00624
873.465	106.91042
873.645	97.8359
873.824	154.23005
874.004	115.95249
874.184	94.52218
874.363	121.53697
874.543	118.2013
874.723	140.72861
874.902	106.89815
875.082	130.58676
875.261	90.01663
875.441	30.30386
875.62	101.28439
875.8	53.9744
875.979	118.23306
876.159	73.13065
876.338	106.84507
876.518	147.45429
876.697	106.9391
876.876	88.85795
877.056	65.22617
877.235	50.56516
877.415	110.33817
877.594	122.6374
877.773	109.28907
877.953	88.81389
878.132	103.54123
878.311	103.56107
878.49	101.33881
878.67	127.10738
878.849	77.63976
879.028	93.41548
879.207	49.48578
879.387	110.28742
879.566	84.42191
879.745	87.82112
879.924	73.08869
880.103	130.49689
880.282	141.97246
880.461	124.02304
880.64	126.10466
880.819	77.69646
880.998	139.6154
881.178	70.84774
881.357	88.89875
881.536	69.82214
881.715	85.61963
881.893	132.82464
882.072	41.58772
882.251	41.61008
882.43	68.64557
882.609	67.50703
882.788	83.25512
882.967	51.76527
883.146	54.0221
883.325	76.53814
883.503	85.60642
883.682	132.87048
883.861	109.2134
884.04	82.21874
884.219	59.62595
884.397	94.59477
884.576	22.4423
884.755	70.91295
884.933	33.72077
885.112	147.55615
885.291	115.94804
885.469	59.69027
885.648	105.87954
885.827	72.03036
886.005	76.58824
886.184	91.19723
886.363	91.26752
886.541	99.17259
886.72	83.34471
886.898	-70.96777
887.077	125.05719
887.255	48.39339
887.434	157.81875
887.612	45.04447
887.791	85.60312
887.969	83.28065
888.147	47.25576
888.326	110.27476
888.504	8.92161
888.682	74.28996
888.861	79.97592
889.039	44.9768
889.218	32.61183
889.396	35.94887
889.574	59.58942
889.752	42.75779
889.931	43.85592
890.109	85.55372
890.287	99.14579
890.465	33.71041
890.643	85.65271
890.822	94.62756
891	49.48958
891.178	-5.73247
891.356	49.51051
891.534	86.73573
891.712	-2.34779
891.89	33.72856
892.068	90.04423
892.247	33.73766
892.425	125.05237
892.603	25.82521
892.781	99.12668
892.959	48.37104
893.137	101.35829
893.314	100.2137
893.492	78.90153
893.67	32.58923
893.848	24.71112
894.026	12.30361
894.204	24.71112
894.382	46.12927
894.56	17.94264
894.738	99.09235
894.915	17.93782
895.093	109.24278
895.271	48.38593
895.449	19.06883
895.626	42.71507
895.804	55.13785
895.982	76.58529
896.16	57.40989
896.337	68.69843
896.515	113.89217
896.693	26.97758
896.87	59.65116
897.048	12.30361
897.225	51.76925
897.403	21.32245
897.581	83.33508
897.758	48.35433
897.936	30.33056
898.113	85.59652
898.291	63.0148
898.468	-1.22078
898.646	26.99324
898.823	-0.0939
899.001	54.00547
899.178	68.72497
899.356	86.76922
899.533	81.05839
899.71	42.72162
899.888	48.44395
900.065	-29.39097
900.242	73.19813
900.42	42.7892
900.597	29.26756
900.774	30.36798
900.952	95.87946
901.129	81.10836
901.306	33.74547
901.483	45.02357
901.661	20.20578
901.838	28.10827
902.015	29.21439
902.192	41.63734
902.369	45.02705
902.546	24.71589
902.723	-2.3496
902.901	2.16314
903.078	31.51513
903.255	69.87885
903.432	24.72639
903.609	39.37096
903.786	16.82801
903.963	34.86337
904.14	46.16133
904.317	-1.22267
904.494	41.64538
904.671	40.49931
904.848	25.87112
905.024	101.45219
905.201	17.97321
905.378	-3.47747
905.555	-20.40162
905.732	26.98279
905.909	16.82281
906.086	-21.50618
906.262	68.75691
906.439	28.10719
906.616	45.00101
906.793	22.45266
906.969	32.63327
907.146	4.41657
907.323	-7.98694
907.5	43.91176
907.676	50.67797
907.853	81.13029
908.03	21.34055
908.206	-31.69221
908.383	48.40646
908.559	7.80293
908.736	22.46912
908.912	-15.88207
909.089	33.77555
909.266	11.17806
909.442	47.28859
909.619	43.89479
909.795	39.39377
909.972	13.44855
910.148	-7.98818
910.324	69.87885
910.501	22.47173
910.677	42.79584
910.854	27.01212
911.03	15.69836
911.206	28.11806
911.383	-39.55889
911.559	28.12569
911.735	-6.85845
911.912	11.18496
912.088	24.7283
912.264	-23.783
912.44	-0.09401
912.617	-22.67736
912.793	-5.73579
912.969	57.46093
913.145	23.61053
913.321	56.32912
913.498	22.45179
913.674	31.481
913.85	60.83592
914.026	7.79932
914.202	20.20422
914.378	16.82151
914.554	51.81928
914.73	-36.17966
914.906	43.87786
915.082	28.10176
915.258	50.68974
915.434	1.0338
915.61	38.27517
915.786	40.54161
915.962	30.39272
916.138	10.06154
916.314	5.54516
916.49	8.92917
916.665	5.54602
916.841	41.65666
917.017	-4.60896
917.193	34.86337
917.369	57.47653
917.545	-12.50204
917.72	57.46315
917.896	-17.0213
918.072	40.55894
918.247	25.86912
918.423	55.23172
918.599	15.70565
918.775	15.68988
918.95	-10.24603
919.126	-33.92823
919.301	10.06974
919.477	20.20734
919.653	63.10726
919.828	7.80263
920.004	55.17185
920.179	10.05493
920.355	-91.34649
920.53	-1.22215
920.706	38.2648
920.881	3.29218
921.057	-4.60309
921.232	13.44699
921.408	-21.53274
921.583	10.06076
921.759	-1.22276
921.934	5.54967
922.109	23.6087
922.285	31.52125
922.46	-6.86216
922.635	12.31214
922.811	11.19102
922.986	15.70565
923.161	3.28912
923.336	-9.12244
923.512	3.29167
923.687	50.64862
923.862	23.59226
924.037	-19.26635
924.212	1.03408
924.388	34.90522
924.563	76.61485
924.738	-7.98972
924.913	63.1342
925.088	14.56106
925.263	10.06037
925.438	-28.2952
925.613	-10.24762
925.788	36.01258
925.963	-11.38042
926.138	14.58247
926.313	21.35047
926.488	71.0281
926.663	37.12727
926.838	-18.14311
927.013	6.67829
927.188	7.80928
927.363	-1.22224
927.538	-1.22177
927.713	37.14163
927.888	25.84311
928.062	-1.22238
928.237	8.93297
928.412	22.46999
928.587	5.54666
928.761	-15.88882
928.936	-36.22591
929.111	50.63497
929.286	-23.77749
929.46	-14.76891
929.635	4.4217
929.81	21.33067
929.984	58.59059
930.159	-6.86322
930.334	-33.92823
930.508	22.47782
930.683	1.03505
930.857	42.771
931.032	-9.1175
931.206	6.68244
931.381	50.68778
931.556	-15.89497
931.73	72.15003
931.904	7.80535
932.079	22.46391
932.253	-47.46378
932.428	16.82801
932.602	-29.41813
932.777	7.80052
932.951	10.05803
933.125	-41.8577
933.3	-4.61254
933.474	39.38615
933.648	34.912
933.823	1.03444
933.997	7.81019
934.171	10.06583
934.345	-59.8829
934.52	-11.37558
934.694	2.16356
934.868	13.45847
935.042	12.3231
935.217	-6.86401
935.391	24.72639
935.565	16.83844
935.739	32.6358
935.913	10.05183
936.087	-30.54893
936.261	52.95091
936.435	-26.04514
936.609	7.80263
936.783	2.16356
936.957	6.6801
937.131	-48.57571
937.305	-7.99436
937.479	23.61603
937.653	-48.63585
937.827	2.1618
938.001	-23.79589
938.175	-42.99396
938.349	-40.72974
938.523	-3.48017
938.697	-9.11539
938.87	8.93055
939.044	-6.86428
939.218	43.92707
939.392	14.56555
939.566	54.10157
939.739	-19.2835
939.913	55.21457
940.087	-4.60468
940.261	-35.09338
940.434	12.31881
940.608	-79.07431
940.782	41.69225
940.955	46.18995
941.129	10.05299
941.302	-17.01866
941.476	78.92601
941.65	12.32837
941.823	10.05842
941.997	3.29243
942.17	17.95233
942.344	-35.0757
942.517	-33.91908
942.691	2.16389
942.864	32.63833
943.038	4.4193
943.211	-3.47909
943.385	36.02095
943.558	-6.86189
943.731	-75.64996
943.905	-42.98228
944.078	-19.27827
944.251	-6.8603
944.425	39.4075
944.598	-41.85933
944.771	82.30142
944.945	39.42432
945.118	15.72153
945.291	38.27962
945.464	22.4813
945.638	2.16289
945.811	14.58814
945.984	-48.64341
946.157	-14.76147
946.33	40.56367
946.503	-20.41982
946.677	20.24661
946.85	-9.12669
947.023	-3.47613
947.196	16.82606
947.369	-4.61111
947.542	40.54161
947.715	15.69049
947.888	-68.9584
948.061	7.80837
948.234	-4.60539
948.407	2.16263
948.58	-12.51464
948.753	-26.03307
948.926	13.44855
949.099	-11.38307
949.271	29.24712
949.444	1.03488
949.617	40.55106
949.79	-0.09406
949.963	68.77292
950.136	-35.06484
950.308	2.16238
950.481	43.91686
950.654	-11.37734
950.827	4.42084
950.999	4.42462
951.172	-3.47747
951.345	-29.4638
951.517	14.58587
951.69	34.89438
951.863	-31.70451
952.035	5.54988
952.208	-14.7609
952.381	29.27668
952.553	12.32024
952.726	28.13553
952.898	-49.73294
953.071	-46.36371
953.243	60.81476
953.416	-6.86295
953.588	-38.44095
953.761	61.98466
953.933	-7.98879
954.106	34.90115
954.278	-21.51943
954.45	-37.33547
954.623	69.8491
954.795	29.25052
954.967	13.44647
955.14	55.21671
955.312	11.20102
955.484	-10.25238
955.657	-0.09413
955.829	48.42893
956.001	-13.62873
956.173	-2.34933
956.346	7.80928
956.518	-30.57022
956.69	-3.48192
956.862	56.28778
957.034	-29.42154
957.207	27.00372
957.379	-9.11645
957.551	47.34367
957.723	-7.98694
957.895	49.54683
958.067	-22.66943
958.239	-47.44914
958.411	-7.99188
958.583	-10.24564
958.755	24.74172
958.927	-14.76205
959.099	-20.41982
959.271	-31.67261
959.443	20.23635
959.615	-54.30453
959.787	-30.55602
959.959	45.03053
960.13	-62.18726
960.302	-57.66467
960.474	-6.86827
960.646	-23.78484
960.818	8.94129
960.99	28.11589
961.161	-27.19613
961.333	-42.96232
961.505	-61.03107
961.677	-73.51699
961.848	8.93331
962.02	16.83126
962.192	2.16482
962.363	-2.35224
962.535	10.06115
962.707	15.69412
962.878	15.71846
963.05	-12.50204
963.221	17.96344
963.393	-24.90384
963.564	-20.4032
963.736	10.05726
963.907	10.06466
964.079	42.77596
964.25	-9.11821
964.422	-58.77186
964.593	-30.5572
964.765	39.39681
964.936	1.0338
965.108	-19.27678
965.279	16.81892
965.45	-45.25536
965.622	16.83779
965.793	24.73309
965.964	31.51023
966.136	-26.04514
966.307	56.34659
966.478	26.99743
966.65	24.73692
966.821	-24.91635
966.992	-14.77178
967.163	-30.56193
967.334	12.31499
967.506	51.80123
967.677	54.09736
967.848	-80.27888
968.019	8.93435
968.19	43.8914
968.361	43.95097
968.532	-38.44095
968.703	-46.33861
968.874	-18.12634
969.045	17.94887
969.216	-46.37989
969.387	25.85609
969.558	-31.67384
969.729	43.91686
969.9	-17.01735
970.071	30.37856
970.242	3.29167
970.413	-36.22029
970.584	4.41759
970.755	37.12154
970.926	16.85286
971.097	-5.73513
971.267	-24.90768
971.438	33.74287
971.609	19.1013
971.78	-30.57378
971.951	38.27814
972.121	49.55833
972.292	14.56724
972.463	-5.73203
972.633	37.15747
972.804	-0.094
972.975	-42.959
973.145	-13.63875
973.316	-28.31053
973.487	45.04447
973.657	12.3231
973.828	-9.11962
973.998	39.39072
974.169	8.9406
974.339	5.54795
974.51	39.36792
974.68	20.2128
974.851	16.83648
975.021	2.16222
975.192	54.06591
975.362	-19.28724
975.533	-23.78025
975.703	-15.89991
975.874	-47.47295
976.044	6.67622
976.214	20.23241
976.385	12.31452
976.555	6.67673
976.725	-5.73757
976.896	81.18373
977.066	25.85109
977.236	28.13334
977.406	28.12133
977.577	24.73213
977.747	20.22377
977.917	15.70808
978.087	30.37503
978.257	-55.37266
978.427	28.1148
978.598	41.68414
978.768	-13.63664
978.938	16.82022
979.108	7.80625
979.278	-12.50736
979.448	-21.53941
979.618	-19.28799
979.788	33.74287
979.958	11.19145
980.128	33.73896
980.298	17.96275
980.468	20.23398
980.638	-33.93609
980.808	-1.22238
980.978	-28.28864
981.148	-31.66895
981.317	-15.89682
981.487	7.80716
981.657	-14.76834
981.827	-15.89929
981.997	37.16757
982.167	22.49004
982.336	46.19353
982.506	48.44959
982.676	-15.88759
982.846	-91.50504
983.015	-58.78552
983.185	-41.85608
983.355	-29.40226
983.524	-29.41019
983.694	12.30929
983.864	-12.50156
984.033	-46.36012
984.203	20.21437
984.372	5.54452
984.542	-29.43862
984.712	40.50399
984.881	-18.15718
985.051	-66.6902
985.22	10.05959
985.39	17.94887
985.559	5.54538
985.728	-19.28874
985.898	-5.74136
986.067	16.83779
986.237	-54.24767
986.406	10.06231
986.576	37.14594
986.745	40.53376
986.914	22.49179
987.084	42.78258
987.253	-4.60646
987.422	40.51494
987.591	-5.73513
987.761	42.76769
987.93	-27.18662
988.099	13.44855
988.268	-28.31163
988.438	-4.60682
988.607	15.71479
988.776	-1.22262
988.945	16.84892
989.114	-0.09407
989.283	41.6809
989.452	-10.25676
989.621	-50.89757
989.791	20.22534
989.96	-41.84473
990.129	-7.99095
990.298	-3.4803
990.467	19.10427
990.636	33.77817
990.805	-7.99188
990.974	29.24372
991.142	8.93124
991.311	-26.03608
991.48	-55.41129
991.649	1.0342
991.818	-12.50011
991.987	-40.70924
992.156	45.07069
992.325	-31.71437
992.493	-35.07841
992.662	-231.72568
992.831	11.19015
993	-20.40241
993.168	-14.76777
993.337	24.74557
993.506	-18.16706
993.675	4.42015
993.843	-49.74834
994.012	11.1984
994.181	-19.26783
994.349	46.16668
994.518	-1.22205
994.686	45.05844
994.855	5.54559
995.024	-4.6045
995.192	37.11868
995.361	-32.79979
995.529	-18.15295
995.698	-36.18804
995.866	31.49559
996.035	-1.22233
996.203	1.03404
996.371	2.16372
996.54	-15.89867
996.708	-33.95712
996.877	13.45638
997.045	13.45324
997.213	16.82931
997.382	17.96136
997.55	-37.32247
997.718	-36.19503
997.887	37.12154
998.055	-44.11349
998.223	-6.86057
998.391	-7.99157
998.56	38.28259
998.728	-12.51367
998.896	45.10054
999.064	5.55118
999.232	-70.07781
999.401	-40.69195
999.569	7.80777
999.737	32.64339
999.905	-15.89682
1000.073	43.9373
1000.241	10.05687
1000.409	48.46842
1000.577	-47.49868
1000.745	2.16381
1000.913	-2.35105
1001.081	-39.56804
1001.249	-7.99343
1001.417	-29.41019
1001.585	25.84909
1001.753	-13.6414
1001.921	-21.5461
1002.089	-3.47936
1002.256	-11.38396
1002.424	4.42273
1002.592	19.0828
1002.76	-1.22271
1002.928	-5.73535
1003.096	-0.09416
1003.263	-10.25397
1003.431	22.47434
1003.599	-7.99374
1003.767	-6.86561
1003.934	28.12242
1004.102	3.29065
1004.27	8.9302
1004.437	-44.11691
1004.605	-2.35306
1004.773	20.21593
1004.94	14.57005
1005.108	-26.03006
1005.275	16.83844
1005.443	7.80595
1005.61	-27.18135
1005.778	2.1628
1005.945	-10.24722
1006.113	31.49559
1006.28	12.31499
1006.448	-21.54443
1006.615	-26.05422
1006.783	23.63074
1006.95	1.03424
1007.118	-15.90423
1007.285	42.78423
1007.452	-9.1235
1007.62	21.35544
1007.787	-37.33981
1007.954	-5.74181
1008.122	-2.35033
1008.289	32.62695
1008.456	60.85242
1008.623	25.87112
1008.791	21.35047
1008.958	4.4217
1009.125	5.54645
1009.292	45.04622
1009.459	10.06739
1009.627	-47.48213
1009.794	-17.01735
1009.961	-46.36371
1010.128	64.25704
1010.295	23.59408
1010.462	86.8466
1010.629	43.9373
1010.796	12.32215
1010.963	2.16423
1011.13	-56.51939
1011.297	24.72639
1011.464	-22.64665
1011.631	-19.27603
1011.798	5.54538
1011.965	30.3821
1012.132	16.83257
1012.299	8.934
1012.466	-15.88698
1012.633	-42.98895
1012.799	-1.22257
1012.966	6.67518
1013.133	17.96693
1013.3	6.67648
1013.467	-23.75464
1013.633	19.10874
1013.8	-21.54192
1013.967	6.67596
1014.134	-4.60789
1014.3	46.16133
1014.467	-12.50059
1014.634	7.80112
1014.8	20.22455
1014.967	1.03428
1015.134	-0.09407
1015.3	-2.35005
1015.467	-35.04861
1015.633	16.82476
1015.8	-14.76777
1015.966	46.15062
1016.133	-30.56548
1016.3	-4.60362
1016.466	-14.77121
1016.632	-23.76742
1016.799	11.19232
1016.965	-45.22555
1017.132	50.64472
1017.298	-29.46036
1017.465	42.79916
1017.631	-19.27827
1017.797	33.79922
1017.964	54.09316
1018.13	-73.41722
1018.296	14.5819
1018.463	21.35212
1018.629	-6.86827
1018.795	-15.88882
1018.961	-50.90548
1019.128	-31.67995
1019.294	-63.31254
1019.46	1.03497
1019.626	-12.51562
1019.792	5.54688
1019.959	2.16197
1020.125	60.88787
1020.291	-28.2952
1020.457	-2.35005
1020.623	-53.09793
1020.789	13.45481
1020.955	-15.88207
1021.121	23.61053
1021.287	-3.47801
1021.453	10.0627
1021.619	48.42893
1021.785	-4.60824
1021.951	34.87413
1022.117	-61.11419
1022.283	20.21046
1022.449	43.92707
1022.615	65.35432
1022.781	-58.72647
1022.946	10.06817
1023.112	-3.4845
1023.278	-10.23814
1023.444	55.25967
1023.61	-5.73557
1023.775	42.77761
1023.941	-6.87014
1024.107	14.5723
1024.273	-29.4489
1024.438	19.06224
1024.604	-41.82209
1024.77	-101.55399
1024.935	-4.60771
1025.101	29.26642
1025.267	7.80263
1025.432	15.70565
1025.598	15.71785
1025.763	5.54623
1025.929	-23.80236
1026.095	32.62316
1026.26	28.12788
1026.426	2.1628
1026.591	-9.11785
1026.757	23.60321
1026.922	-39.59867
1027.087	-24.91635
1027.253	35.99449
1027.418	-5.73868
1027.584	-33.93216
1027.749	4.4217
1027.914	-3.47788
1028.08	29.25278
1028.245	-1.22229
1028.41	1.03444
1028.576	-11.38042
1028.741	-52.01947
1028.906	-59.88059
1029.072	-31.70328
1029.237	-35.10021
1029.402	-19.28051
1029.567	10.05106
1029.732	13.459
1029.898	-37.34851
1030.063	36.04474
1030.228	29.26301
1030.393	23.6087
1030.558	27.00372
1030.723	54.10367
1030.888	-10.2504
1031.053	78.89847
1031.218	49.50861
1031.383	-37.33403
1031.548	5.54967
1031.713	-30.57022
1031.878	26.96509
1032.043	17.96275
1032.208	-20.41427
1032.373	-12.50349
1032.538	-9.11962
1032.703	24.71207
1032.868	-28.32593
1033.033	10.07091
1033.198	7.81293
1033.362	-13.63611
1033.527	15.70504
1033.692	-42.97729
1033.857	22.46391
1034.021	17.98231
1034.186	17.95996
1034.351	-5.73159
1034.516	6.68114
1034.68	19.09093
1034.845	52.91201
1035.01	25.85809
1035.174	24.74076
1035.339	15.70382
1035.504	36.01955
1035.668	-59.87365
1035.833	7.80323
1035.997	-0.09404
1036.162	15.72091
1036.326	51.85752
1036.491	-27.18556
1036.655	-15.8882
1036.82	-11.36899
1036.984	-23.75828
1037.149	-28.2647
1037.313	-26.03508
1037.478	34.87413
1037.642	-26.05422
1037.807	45.02357
1037.971	13.45272
1038.135	10.06348
1038.3	-2.35197
1038.464	37.15603
1038.628	5.55139
1038.792	16.82281
1038.957	20.2175
1039.121	10.06505
1039.285	-28.32042
1039.449	15.69836
1039.614	8.934
1039.778	-2.35224
1039.942	-41.85446
1040.106	-10.26516
1040.27	16.82022
1040.434	-57.58894
1040.599	-15.89682
1040.763	-13.62715
1040.927	-30.56904
1041.091	-18.15225
1041.255	12.31309
1041.419	23.61145
1041.583	-37.33837
1041.747	-54.21836
1041.911	-6.8574
1042.075	-17.02856
1042.239	29.26073
1042.403	-1.22106
1042.567	-39.56346
1042.731	-30.5643
1042.894	-37.31382
1043.058	10.06974
1043.222	-9.12209
1043.386	-22.63967
1043.55	2.16322
1043.714	13.44179
1043.877	-18.16353
1044.041	-20.42221
1044.205	-12.50591
1044.369	12.32454
1044.532	-0.09402
1044.696	-5.73181
1044.86	-11.37778
1045.023	-37.30662
1045.187	-20.41665
1045.351	-39.57415
1045.514	8.93747
1045.678	-24.90384
1045.841	20.22612
